Zeit  1 - Standardmessrate [s]	ZwickWeg [mm]	ZwickKraft [N]	Pyrometer [°C]	Maytec [mm]
0	-0,5264	145,65	150,11	0,03799	
0,02000	-0,5265	145,67	150,11	0,03813	
0,04000	-0,5265	145,67	150,11	0,03795	
0,06000	-0,5265	145,64	150,10	0,03726	
0,08000	-0,5264	145,57	150,11	0,03671	
0,1000	-0,5264	145,53	150,12	0,03648	
0,1200	-0,5264	145,53	150,12	0,03641	
0,1400	-0,5265	145,55	150,11	0,03643	
0,1600	-0,5264	145,55	150,11	0,03652	
0,1800	-0,5265	145,56	150,11	0,03664	
0,2000	-0,5265	145,57	150,11	0,03672	
0,2200	-0,5265	145,59	150,11	0,03665	
0,2400	-0,5264	145,66	150,12	0,03648	
0,2600	-0,5264	145,65	150,12	0,03642	
0,2800	-0,5264	145,56	150,11	0,03643	
0,3000	-0,5264	145,53	150,11	0,03650	
0,3200	-0,5264	145,60	150,11	0,03662	
0,3400	-0,5264	145,64	150,11	0,03674	
0,3600	-0,5264	145,59	150,11	0,03671	
0,3800	-0,5264	145,56	150,11	0,03661	
0,4000	-0,5264	145,63	150,11	0,03647	
0,4200	-0,5264	145,67	150,11	0,03638	
0,4400	-0,5264	145,67	150,10	0,03639	
0,4600	-0,5264	145,65	150,10	0,03646	
0,4800	-0,5264	145,61	150,11	0,03658	
0,5000	-0,5264	145,57	150,11	0,03669	
0,5200	-0,5264	145,57	150,11	0,03668	
0,5400	-0,5264	145,60	150,11	0,03663	
0,5600	-0,5264	145,63	150,11	0,03651	
0,5800	-0,5264	145,61	150,10	0,03638	
0,6000	-0,5264	145,60	150,10	0,03639	
0,6200	-0,5264	145,59	150,11	0,03647	
0,6400	-0,5265	145,60	150,11	0,03660	
0,6600	-0,5264	145,62	150,11	0,03669	
0,6800	-0,5264	145,62	150,11	0,03674	
0,7000	-0,5265	145,56	150,11	0,03665	
0,7200	-0,5265	145,48	150,11	0,03650	
0,7400	-0,5264	145,55	150,10	0,03643	
0,7600	-0,5264	145,67	150,10	0,03636	
0,7800	-0,5264	145,62	150,10	0,03639	
0,8000	-0,5264	145,58	150,11	0,03659	
0,8200	-0,5265	145,62	150,11	0,03672	
0,8400	-0,5265	145,64	150,12	0,03669	
0,8600	-0,5264	145,65	150,12	0,03664	
0,8800	-0,5264	145,73	150,11	0,03648	
0,9000	-0,5264	145,78	150,11	0,03638	
0,9200	-0,5264	145,72	150,11	0,03642	
0,9400	-0,5264	145,63	150,11	0,03647	
0,9600	-0,5264	145,64	150,11	0,03657	
0,9800	-0,5264	145,62	150,12	0,03667	
1,000	-0,5264	145,59	150,12	0,03668	
1,020	-0,5264	145,61	150,11	0,03665	
1,040	-0,5264	145,68	150,10	0,03656	
1,060	-0,5264	145,66	150,10	0,03645	
1,080	-0,5264	145,64	150,11	0,03638	
1,100	-0,5264	145,58	150,11	0,03640	
1,120	-0,5264	145,53	150,12	0,03650	
1,140	-0,5264	145,51	150,12	0,03663	
1,160	-0,5264	145,56	150,11	0,03673	
1,180	-0,5264	145,62	150,11	0,03671	
1,200	-0,5264	145,64	150,10	0,03659	
1,220	-0,5265	145,67	150,11	0,03645	
1,240	-0,5264	145,63	150,11	0,03636	
1,260	-0,5264	145,56	150,11	0,03643	
1,280	-0,5264	145,58	150,11	0,03657	
1,300	-0,5264	145,64	150,11	0,03664	
1,320	-0,5265	145,63	150,11	0,03669	
1,340	-0,5264	145,64	150,10	0,03670	
1,360	-0,5264	145,61	150,11	0,03659	
1,380	-0,5264	145,58	150,11	0,03644	
1,400	-0,5264	145,56	150,11	0,03639	
1,420	-0,5264	145,57	150,11	0,03646	
1,440	-0,5264	145,51	150,11	0,03652	
1,460	-0,5264	145,47	150,11	0,03662	
1,480	-0,5264	145,54	150,11	0,03670	
1,500	-0,5264	145,60	150,11	0,03670	
1,520	-0,5264	145,58	150,11	0,03665	
1,540	-0,5264	145,57	150,11	0,03650	
1,560	-0,5264	145,61	150,11	0,03643	
1,580	-0,5264	145,69	150,12	0,03651	
1,600	-0,5264	145,75	150,11	0,03661	
1,620	-0,5264	145,73	150,11	0,03670	
1,640	-0,5264	145,67	150,10	0,03671	
1,660	-0,5264	145,64	150,11	0,03669	
1,680	-0,5264	145,59	150,11	0,03660	
1,700	-0,5264	145,55	150,11	0,03650	
1,720	-0,5264	145,64	150,12	0,03648	
1,740	-0,5264	145,74	150,11	0,03648	
1,760	-0,5264	145,74	150,11	0,03652	
1,780	-0,5264	145,66	150,11	0,03662	
1,800	-0,5264	145,65	150,10	0,03672	
1,820	-0,5264	145,65	150,11	0,03678	
1,840	-0,5264	145,66	150,11	0,03668	
1,860	-0,5264	145,64	150,11	0,03649	
1,880	-0,5264	145,69	150,12	0,03639	
1,900	-0,5265	145,77	150,11	0,03637	
1,920	-0,5265	145,82	150,11	0,03642	
1,940	-0,5265	145,79	150,11	0,03651	
1,960	-0,5265	145,76	150,11	0,03661	
1,980	-0,5264	145,76	150,11	0,03665	
2,000	-0,5264	145,80	150,12	0,03661	
2,020	-0,5264	145,82	150,11	0,03653	
2,040	-0,5264	145,79	150,11	0,03649	
2,060	-0,5264	145,75	150,11	0,03647	
2,080	-0,5264	145,70	150,11	0,03647	
2,100	-0,5264	145,68	150,11	0,03656	
2,120	-0,5264	145,75	150,12	0,03668	
2,140	-0,5264	145,78	150,12	0,03678	
2,160	-0,5264	145,77	150,11	0,03674	
2,180	-0,5264	145,78	150,11	0,03655	
2,200	-0,5264	145,79	150,10	0,03637	
2,220	-0,5264	145,76	150,10	0,03633	
2,240	-0,5264	145,72	150,10	0,03638	
2,260	-0,5264	145,72	150,11	0,03648	
2,280	-0,5264	145,73	150,12	0,03660	
2,300	-0,5264	145,69	150,12	0,03673	
2,320	-0,5264	145,68	150,11	0,03672	
2,340	-0,5264	145,68	150,11	0,03657	
2,360	-0,5264	145,69	150,10	0,03645	
2,380	-0,5264	145,72	150,11	0,03641	
2,400	-0,5264	145,70	150,11	0,03645	
2,420	-0,5264	145,64	150,11	0,03656	
2,440	-0,5264	145,62	150,12	0,03665	
2,460	-0,5264	145,58	150,11	0,03669	
2,480	-0,5264	145,61	150,11	0,03664	
2,500	-0,5264	145,71	150,10	0,03655	
2,520	-0,5264	145,70	150,10	0,03648	
2,540	-0,5264	145,62	150,10	0,03640	
2,560	-0,5264	145,61	150,11	0,03643	
2,580	-0,5264	145,64	150,11	0,03659	
2,600	-0,5264	145,66	150,11	0,03672	
2,620	-0,5264	145,66	150,11	0,03676	
2,640	-0,5264	145,65	150,11	0,03675	
2,660	-0,5264	145,64	150,11	0,03659	
2,680	-0,5264	145,61	150,10	0,03641	
2,700	-0,5264	145,62	150,11	0,03632	
2,720	-0,5264	145,64	150,11	0,03635	
2,740	-0,5264	145,69	150,12	0,03641	
2,760	-0,5264	145,74	150,12	0,03649	
2,780	-0,5264	145,76	150,11	0,03660	
2,800	-0,5264	145,76	150,10	0,03662	
2,820	-0,5264	145,77	150,10	0,03654	
2,840	-0,5264	145,78	150,10	0,03643	
2,860	-0,5264	145,68	150,10	0,03642	
2,880	-0,5264	145,57	150,11	0,03649	
2,900	-0,5264	145,54	150,11	0,03658	
2,920	-0,5264	145,57	150,11	0,03664	
2,940	-0,5264	145,59	150,11	0,03674	
2,960	-0,5264	145,65	150,11	0,03676	
2,980	-0,5264	145,71	150,11	0,03663	
3,000	-0,5264	145,72	150,10	0,03650	
3,020	-0,5264	145,70	150,10	0,03643	
3,040	-0,5264	145,68	150,11	0,03645	
3,060	-0,5264	145,65	150,11	0,03657	
3,080	-0,5264	145,61	150,11	0,03661	
3,100	-0,5264	145,63	150,11	0,03661	
3,120	-0,5264	145,68	150,11	0,03659	
3,140	-0,5264	145,73	150,11	0,03651	
3,160	-0,5264	145,75	150,11	0,03645	
3,180	-0,5264	145,75	150,11	0,03647	
3,200	-0,5264	145,67	150,12	0,03647	
3,220	-0,5264	145,63	150,11	0,03646	
3,240	-0,5264	145,62	150,11	0,03648	
3,260	-0,5264	145,61	150,10	0,03661	
3,280	-0,5264	145,60	150,10	0,03670	
3,300	-0,5264	145,61	150,10	0,03658	
3,320	-0,5264	145,65	150,11	0,03645	
3,340	-0,5264	145,70	150,11	0,03646	
3,360	-0,5264	145,70	150,12	0,03644	
3,380	-0,5264	145,69	150,12	0,03640	
3,400	-0,5264	145,71	150,11	0,03656	
3,420	-0,5264	145,68	150,10	0,03669	
3,440	-0,5264	145,64	150,10	0,03667	
3,460	-0,5264	145,59	150,11	0,03665	
3,480	-0,5264	145,54	150,11	0,03655	
3,500	-0,5264	145,54	150,11	0,03652	
3,520	-0,5264	145,59	150,11	0,03654	
3,540	-0,5264	145,60	150,11	0,03652	
3,560	-0,5264	145,60	150,11	0,03652	
3,580	-0,5264	145,56	150,11	0,03662	
3,600	-0,5264	145,53	150,10	0,03673	
3,620	-0,5264	145,55	150,11	0,03669	
3,640	-0,5264	145,62	150,11	0,03658	
3,660	-0,5264	145,66	150,12	0,03653	
3,680	-0,5264	145,63	150,11	0,03650	
3,700	-0,5264	145,63	150,11	0,03650	
3,720	-0,5264	145,63	150,11	0,03655	
3,740	-0,5264	145,65	150,10	0,03662	
3,760	-0,5264	145,66	150,11	0,03669	
3,780	-0,5264	145,59	150,11	0,03669	
3,800	-0,5266	145,57	150,11	0,03660	
3,820	-0,5269	145,62	150,11	0,03651	
3,840	-0,5271	145,67	150,11	0,03645	
3,860	-0,5271	145,71	150,11	0,03647	
3,880	-0,5270	145,75	150,11	0,03659	
3,900	-0,5267	145,70	150,11	0,03668	
3,920	-0,5265	145,64	150,11	0,03668	
3,940	-0,5265	145,63	150,12	0,03669	
3,960	-0,5265	145,65	150,12	0,03656	
3,980	-0,5265	145,68	150,11	0,03641	
4,000	-0,5265	145,71	150,11	0,03641	
4,020	-0,5265	145,68	150,11	0,03647	
4,040	-0,5265	145,64	150,11	0,03653	
4,060	-0,5265	145,71	150,11	0,03657	
4,080	-0,5264	145,74	150,12	0,03665	
4,100	-0,5264	145,70	150,12	0,03669	
4,120	-0,5264	145,68	150,11	0,03664	
4,140	-0,5264	145,69	150,11	0,03654	
4,160	-0,5264	145,73	150,10	0,03648	
4,180	-0,5264	145,73	150,10	0,03654	
4,200	-0,5264	145,69	150,11	0,03659	
4,220	-0,5264	145,66	150,11	0,03662	
4,240	-0,5264	145,66	150,11	0,03663	
4,260	-0,5265	145,71	150,11	0,03660	
4,280	-0,5267	145,76	150,11	0,03654	
4,300	-0,5270	145,81	150,11	0,03648	
4,320	-0,5271	145,81	150,10	0,03646	
4,340	-0,5271	145,74	150,10	0,03645	
4,360	-0,5271	145,73	150,10	0,03643	
4,380	-0,5271	145,76	150,11	0,03646	
4,400	-0,5271	145,69	150,11	0,03657	
4,420	-0,5271	145,69	150,11	0,03663	
4,440	-0,5271	145,80	150,11	0,03659	
4,460	-0,5271	145,87	150,11	0,03646	
4,480	-0,5271	145,87	150,11	0,03642	
4,500	-0,5271	145,80	150,11	0,03650	
4,520	-0,5271	145,72	150,11	0,03657	
4,540	-0,5269	145,74	150,11	0,03664	
4,560	-0,5266	145,74	150,12	0,03673	
4,580	-0,5264	145,67	150,11	0,03675	
4,600	-0,5264	145,63	150,11	0,03666	
4,620	-0,5264	145,66	150,11	0,03654	
4,640	-0,5269	148,05	150,20	0,03638	
4,660	-0,5267	139,62	150,16	0,03552	
4,680	-0,5261	101,98	150,05	0,03515	
4,700	-0,5262	57,09	150,06	0,03534	
4,720	-0,5263	18,37	150,10	0,03552	
4,740	-0,5249	-9,766	150,11	0,03560	
4,760	-0,5200	-19,60	150,11	0,03562	
4,780	-0,5136	7,511	150,11	0,03552	
4,800	-0,5081	51,90	150,11	0,03543	
4,820	-0,5042	93,42	150,12	0,03537	
4,840	-0,5020	124,67	150,11	0,03549	
4,860	-0,5010	144,99	150,11	0,03565	
4,880	-0,5009	155,13	150,11	0,03572	
4,900	-0,5010	158,56	150,10	0,03564	
4,920	-0,5013	159,16	150,11	0,03554	
4,940	-0,5016	158,52	150,12	0,03552	
4,960	-0,5020	157,03	150,12	0,03546	
4,980	-0,5022	155,89	150,11	0,03549	
5,000	-0,5025	154,35	150,11	0,03553	
5,020	-0,5028	152,89	150,11	0,03563	
5,040	-0,5029	152,19	150,11	0,03568	
5,060	-0,5031	150,98	150,11	0,03568	
5,080	-0,5034	149,68	150,12	0,03560	
5,100	-0,5035	149,08	150,12	0,03553	
5,120	-0,5036	149,05	150,12	0,03559	
5,140	-0,5036	149,10	150,11	0,03567	
5,160	-0,5036	149,08	150,10	0,03581	
5,180	-0,5036	149,06	150,11	0,03584	
5,200	-0,5036	149,01	150,11	0,03593	
5,220	-0,5036	147,85	150,12	0,03591	
5,240	-0,5036	147,00	150,12	0,03578	
5,260	-0,5036	147,79	150,11	0,03570	
5,280	-0,5036	147,44	150,11	0,03570	
5,300	-0,5036	146,35	150,11	0,03578	
5,320	-0,5036	146,80	150,11	0,03586	
5,340	-0,5038	147,02	150,12	0,03591	
5,360	-0,5041	146,45	150,12	0,03596	
5,380	-0,5042	147,14	150,11	0,03591	
5,400	-0,5043	148,21	150,11	0,03576	
5,420	-0,5043	147,66	150,10	0,03568	
5,440	-0,5042	147,48	150,11	0,03561	
5,460	-0,5042	148,32	150,11	0,03563	
5,480	-0,5042	148,86	150,12	0,03573	
5,500	-0,5043	148,99	150,12	0,03590	
5,520	-0,5043	149,06	150,11	0,03591	
5,540	-0,5042	149,04	150,11	0,03582	
5,560	-0,5043	149,03	150,11	0,03572	
5,580	-0,5043	148,90	150,11	0,03564	
5,600	-0,5042	147,75	150,12	0,03563	
5,620	-0,5043	146,41	150,12	0,03571	
5,640	-0,5043	145,82	150,11	0,03586	
5,660	-0,5042	145,71	150,11	0,03589	
5,680	-0,5042	145,75	150,11	0,03587	
5,700	-0,5042	145,74	150,11	0,03584	
5,720	-0,5042	145,63	150,12	0,03575	
5,740	-0,5042	145,69	150,12	0,03566	
5,760	-0,5043	146,34	150,11	0,03560	
5,780	-0,5043	146,25	150,11	0,03561	
5,800	-0,5043	145,85	150,11	0,03566	
5,820	-0,5043	146,13	150,12	0,03576	
5,840	-0,5043	146,43	150,12	0,03585	
5,860	-0,5043	146,03	150,12	0,03584	
5,880	-0,5043	146,12	150,11	0,03571	
5,900	-0,5043	146,32	150,11	0,03558	
5,920	-0,5043	145,93	150,11	0,03555	
5,940	-0,5043	146,04	150,12	0,03557	
5,960	-0,5045	146,31	150,12	0,03569	
5,980	-0,5048	146,01	150,11	0,03585	
6,000	-0,5049	145,69	150,11	0,03588	
6,020	-0,5049	145,56	150,11	0,03589	
6,040	-0,5049	145,52	150,11	0,03585	
6,060	-0,5049	145,58	150,12	0,03574	
6,080	-0,5049	145,61	150,12	0,03567	
6,100	-0,5049	145,53	150,11	0,03576	
6,120	-0,5049	146,12	150,11	0,03588	
6,140	-0,5049	147,17	150,11	0,03592	
6,160	-0,5049	147,28	150,11	0,03591	
6,180	-0,5049	147,98	150,12	0,03587	
6,200	-0,5049	148,61	150,12	0,03580	
6,220	-0,5049	147,74	150,11	0,03563	
6,240	-0,5049	146,90	150,11	0,03552	
6,260	-0,5049	147,25	150,11	0,03553	
6,280	-0,5049	146,76	150,11	0,03567	
6,300	-0,5049	146,00	150,12	0,03581	
6,320	-0,5049	145,61	150,12	0,03581	
6,340	-0,5049	145,57	150,11	0,03587	
6,360	-0,5049	145,71	150,11	0,03582	
6,380	-0,5049	145,72	150,11	0,03563	
6,400	-0,5049	145,67	150,11	0,03556	
6,420	-0,5049	145,71	150,12	0,03565	
6,440	-0,5050	145,74	150,12	0,03571	
6,460	-0,5050	145,66	150,11	0,03575	
6,480	-0,5050	145,73	150,11	0,03583	
6,500	-0,5049	145,76	150,11	0,03585	
6,520	-0,5049	145,71	150,11	0,03576	
6,540	-0,5049	145,65	150,11	0,03565	
6,560	-0,5049	145,61	150,12	0,03561	
6,580	-0,5049	145,65	150,12	0,03570	
6,600	-0,5049	145,68	150,11	0,03575	
6,620	-0,5049	145,69	150,11	0,03580	
6,640	-0,5049	145,81	150,11	0,03584	
6,660	-0,5049	146,99	150,11	0,03582	
6,680	-0,5051	148,33	150,12	0,03579	
6,700	-0,5054	147,73	150,12	0,03570	
6,720	-0,5056	146,93	150,11	0,03562	
6,740	-0,5056	147,20	150,11	0,03568	
6,760	-0,5056	146,65	150,11	0,03581	
6,780	-0,5056	145,94	150,11	0,03594	
6,800	-0,5056	145,62	150,11	0,03593	
6,820	-0,5056	145,56	150,12	0,03585	
6,840	-0,5056	146,02	150,12	0,03584	
6,860	-0,5056	146,45	150,11	0,03576	
6,880	-0,5056	146,23	150,11	0,03569	
6,900	-0,5056	146,44	150,11	0,03562	
6,920	-0,5056	146,20	150,11	0,03565	
6,940	-0,5056	145,78	150,12	0,03579	
6,960	-0,5056	145,58	150,11	0,03594	
6,980	-0,5056	145,56	150,11	0,03596	
7,000	-0,5056	145,62	150,11	0,03592	
7,020	-0,5056	145,69	150,11	0,03575	
7,040	-0,5056	145,72	150,11	0,03562	
7,060	-0,5056	145,75	150,12	0,03565	
7,080	-0,5056	145,78	150,12	0,03567	
7,100	-0,5056	145,78	150,11	0,03576	
7,120	-0,5056	145,82	150,11	0,03592	
7,140	-0,5056	145,82	150,11	0,03597	
7,160	-0,5056	145,75	150,11	0,03592	
7,180	-0,5056	145,74	150,11	0,03583	
7,200	-0,5056	145,71	150,12	0,03568	
7,220	-0,5056	145,75	150,12	0,03564	
7,240	-0,5056	145,85	150,11	0,03573	
7,260	-0,5056	145,84	150,11	0,03580	
7,280	-0,5056	145,80	150,11	0,03588	
7,300	-0,5056	146,30	150,10	0,03593	
7,320	-0,5056	147,25	150,11	0,03590	
7,340	-0,5056	146,88	150,11	0,03577	
7,360	-0,5056	147,20	150,12	0,03560	
7,380	-0,5056	148,31	150,11	0,03553	
7,400	-0,5056	148,92	150,11	0,03563	
7,420	-0,5056	149,04	150,10	0,03580	
7,440	-0,5056	148,49	150,10	0,03596	
7,460	-0,5056	146,98	150,11	0,03600	
7,480	-0,5056	145,95	150,11	0,03588	
7,500	-0,5056	145,66	150,11	0,03565	
7,520	-0,5056	145,64	150,11	0,03560	
7,540	-0,5056	145,68	150,11	0,03570	
7,560	-0,5058	145,72	150,11	0,03586	
7,580	-0,5061	145,72	150,10	0,03597	
7,600	-0,5063	145,81	150,10	0,03597	
7,620	-0,5063	145,91	150,11	0,03590	
7,640	-0,5063	145,82	150,11	0,03576	
7,660	-0,5063	145,74	150,12	0,03564	
7,680	-0,5063	145,78	150,11	0,03559	
7,700	-0,5063	145,76	150,11	0,03567	
7,720	-0,5062	145,87	150,11	0,03580	
7,740	-0,5062	146,91	150,11	0,03590	
7,760	-0,5063	147,14	150,11	0,03596	
7,780	-0,5063	146,31	150,11	0,03594	
7,800	-0,5063	145,76	150,11	0,03584	
7,820	-0,5063	145,69	150,11	0,03572	
7,840	-0,5063	145,74	150,11	0,03566	
7,860	-0,5063	145,75	150,11	0,03567	
7,880	-0,5063	145,69	150,11	0,03580	
7,900	-0,5063	145,66	150,10	0,03592	
7,920	-0,5063	145,71	150,11	0,03593	
7,940	-0,5063	145,73	150,12	0,03588	
7,960	-0,5063	145,71	150,12	0,03578	
7,980	-0,5063	145,69	150,11	0,03566	
8,000	-0,5063	145,64	150,11	0,03563	
8,020	-0,5063	145,64	150,10	0,03570	
8,040	-0,5063	145,68	150,11	0,03585	
8,060	-0,5063	145,66	150,11	0,03597	
8,080	-0,5063	145,76	150,12	0,03597	
8,100	-0,5063	146,91	150,12	0,03587	
8,120	-0,5063	148,27	150,11	0,03572	
8,140	-0,5062	148,87	150,11	0,03559	
8,160	-0,5063	148,47	150,11	0,03556	
8,180	-0,5063	147,02	150,11	0,03566	
8,200	-0,5063	145,93	150,11	0,03576	
8,220	-0,5063	145,61	150,12	0,03588	
8,240	-0,5063	145,66	150,12	0,03593	
8,260	-0,5063	145,62	150,11	0,03592	
8,280	-0,5063	145,60	150,11	0,03587	
8,300	-0,5063	145,66	150,11	0,03574	
8,320	-0,5062	145,69	150,11	0,03567	
8,340	-0,5063	145,73	150,11	0,03567	
8,360	-0,5063	145,75	150,12	0,03570	
8,380	-0,5062	145,64	150,11	0,03582	
8,400	-0,5062	145,55	150,11	0,03591	
8,420	-0,5062	145,54	150,11	0,03598	
8,440	-0,5062	145,55	150,10	0,03587	
8,460	-0,5062	145,55	150,11	0,03574	
8,480	-0,5062	145,94	150,11	0,03568	
8,500	-0,5062	146,27	150,11	0,03568	
8,520	-0,5062	145,93	150,12	0,03577	
8,540	-0,5063	146,11	150,11	0,03579	
8,560	-0,5062	147,11	150,11	0,03579	
8,580	-0,5062	146,82	150,11	0,03583	
8,600	-0,5062	147,18	150,11	0,03584	
8,620	-0,5062	147,79	150,11	0,03576	
8,640	-0,5062	146,90	150,12	0,03565	
8,660	-0,5063	146,38	150,12	0,03564	
8,680	-0,5064	146,38	150,11	0,03573	
8,700	-0,5067	146,00	150,10	0,03580	
8,720	-0,5069	145,70	150,10	0,03589	
8,740	-0,5069	145,62	150,11	0,03597	
8,760	-0,5069	145,66	150,11	0,03596	
8,780	-0,5069	145,76	150,11	0,03583	
8,800	-0,5069	145,72	150,11	0,03572	
8,820	-0,5069	145,64	150,11	0,03576	
8,840	-0,5069	145,65	150,11	0,03580	
8,860	-0,5069	145,68	150,11	0,03584	
8,880	-0,5069	145,65	150,10	0,03587	
8,900	-0,5069	145,66	150,10	0,03585	
8,920	-0,5069	145,71	150,10	0,03576	
8,940	-0,5069	145,69	150,10	0,03568	
8,960	-0,5069	145,70	150,11	0,03563	
8,980	-0,5069	145,76	150,11	0,03563	
9,000	-0,5069	145,76	150,11	0,03569	
9,020	-0,5069	145,72	150,11	0,03583	
9,040	-0,5069	145,75	150,11	0,03594	
9,060	-0,5069	145,72	150,10	0,03594	
9,080	-0,5069	145,73	150,10	0,03585	
9,100	-0,5069	145,77	150,10	0,03574	
9,120	-0,5069	145,73	150,10	0,03569	
9,140	-0,5069	145,76	150,10	0,03569	
9,160	-0,5069	145,84	150,11	0,03573	
9,180	-0,5069	145,76	150,11	0,03584	
9,200	-0,5069	145,81	150,11	0,03592	
9,220	-0,5069	146,81	150,11	0,03591	
9,240	-0,5069	147,23	150,11	0,03579	
9,260	-0,5069	147,56	150,10	0,03569	
9,280	-0,5069	148,44	150,11	0,03573	
9,300	-0,5069	148,87	150,11	0,03577	
9,320	-0,5069	148,35	150,12	0,03582	
9,340	-0,5069	148,46	150,11	0,03589	
9,360	-0,5069	148,37	150,11	0,03592	
9,380	-0,5069	147,07	150,11	0,03595	
9,400	-0,5069	146,05	150,11	0,03597	
9,420	-0,5069	145,70	150,11	0,03589	
9,440	-0,5069	145,68	150,11	0,03572	
9,460	-0,5069	145,76	150,12	0,03566	
9,480	-0,5069	145,81	150,12	0,03574	
9,500	-0,5070	145,71	150,11	0,03587	
9,520	-0,5069	145,62	150,11	0,03596	
9,540	-0,5069	145,64	150,11	0,03591	
9,560	-0,5069	145,71	150,11	0,03583	
9,580	-0,5069	145,78	150,11	0,03577	
9,600	-0,5069	145,77	150,12	0,03570	
9,620	-0,5070	145,72	150,12	0,03571	
9,640	-0,5070	145,81	150,11	0,03582	
9,660	-0,5070	146,44	150,11	0,03591	
9,680	-0,5070	146,48	150,11	0,03602	
9,700	-0,5070	147,17	150,12	0,03608	
9,720	-0,5070	148,36	150,12	0,03597	
9,740	-0,5070	147,98	150,11	0,03582	
9,760	-0,5070	147,75	150,11	0,03581	
9,780	-0,5070	148,44	150,11	0,03577	
9,800	-0,5070	147,84	150,11	0,03582	
9,820	-0,5070	146,88	150,10	0,03595	
9,840	-0,5070	146,60	150,11	0,03605	
9,860	-0,5070	146,14	150,11	0,03605	
9,880	-0,5070	145,82	150,12	0,03595	
9,900	-0,5069	145,73	150,11	0,03581	
9,920	-0,5069	145,70	150,11	0,03574	
9,940	-0,5069	145,71	150,11	0,03573	
9,960	-0,5069	145,72	150,11	0,03583	
9,980	-0,5069	145,68	150,11	0,03595	
10,00	-0,5070	145,62	150,11	0,03604	
10,02	-0,5070	145,58	150,12	0,03605	
10,04	-0,5070	145,54	150,11	0,03593	
10,06	-0,5070	145,55	150,11	0,03577	
10,08	-0,5070	145,58	150,11	0,03572	
10,10	-0,5070	145,66	150,11	0,03577	
10,12	-0,5070	145,75	150,11	0,03586	
10,14	-0,5070	145,75	150,12	0,03596	
10,16	-0,5070	145,64	150,12	0,03601	
10,18	-0,5070	145,62	150,11	0,03601	
10,20	-0,5070	145,70	150,11	0,03587	
10,22	-0,5070	145,76	150,11	0,03569	
10,24	-0,5070	145,87	150,11	0,03564	
10,26	-0,5070	146,90	150,12	0,03571	
10,28	-0,5070	148,22	150,12	0,03585	
10,30	-0,5071	147,93	150,11	0,03591	
10,32	-0,5074	147,25	150,11	0,03592	
10,34	-0,5076	146,50	150,10	0,03591	
10,36	-0,5076	145,98	150,10	0,03584	
10,38	-0,5076	145,80	150,10	0,03580	
10,40	-0,5076	145,82	150,11	0,03577	
10,42	-0,5076	145,85	150,11	0,03576	
10,44	-0,5076	145,79	150,12	0,03575	
10,46	-0,5076	145,68	150,11	0,03581	
10,48	-0,5076	145,68	150,11	0,03592	
10,50	-0,5076	145,65	150,11	0,03597	
10,52	-0,5076	145,63	150,11	0,03591	
10,54	-0,5076	145,55	150,12	0,03580	
10,56	-0,5076	145,54	150,11	0,03575	
10,58	-0,5076	145,59	150,11	0,03575	
10,60	-0,5076	145,57	150,10	0,03584	
10,62	-0,5076	145,54	150,10	0,03598	
10,64	-0,5076	145,55	150,11	0,03604	
10,66	-0,5076	145,52	150,11	0,03598	
10,68	-0,5076	145,56	150,11	0,03593	
10,70	-0,5076	145,65	150,12	0,03580	
10,72	-0,5076	145,62	150,12	0,03567	
10,74	-0,5076	145,62	150,11	0,03568	
10,76	-0,5076	145,70	150,10	0,03576	
10,78	-0,5076	145,68	150,10	0,03585	
10,80	-0,5076	145,69	150,11	0,03587	
10,82	-0,5076	145,71	150,11	0,03588	
10,84	-0,5076	145,71	150,11	0,03589	
10,86	-0,5076	145,74	150,12	0,03581	
10,88	-0,5076	146,87	150,12	0,03571	
10,90	-0,5078	148,58	150,15	0,03567	
10,92	-0,5078	143,82	150,14	0,03570	
10,94	-0,5077	133,20	150,12	0,03573	
10,96	-0,5076	120,32	150,10	0,03578	
10,98	-0,5075	106,97	150,10	0,03592	
11,00	-0,5070	93,87	150,10	0,03602	
11,02	-0,5059	85,31	150,11	0,03596	
11,04	-0,5045	81,29	150,12	0,03586	
11,06	-0,5031	79,24	150,12	0,03577	
11,08	-0,5017	77,88	150,11	0,03572	
11,10	-0,5002	77,86	150,11	0,03573	
11,12	-0,4984	79,86	150,10	0,03584	
11,14	-0,4967	83,48	150,10	0,03599	
11,16	-0,4951	87,24	150,10	0,03606	
11,18	-0,4937	90,27	150,11	0,03600	
11,20	-0,4923	91,75	150,11	0,03588	
11,22	-0,4910	92,10	150,12	0,03577	
11,24	-0,4899	91,60	150,11	0,03580	
11,26	-0,4888	90,08	150,11	0,03583	
11,28	-0,4876	88,91	150,10	0,03591	
11,30	-0,4863	88,51	150,10	0,03603	
11,32	-0,4850	88,50	150,10	0,03615	
11,34	-0,4836	88,52	150,10	0,03612	
11,36	-0,4823	88,49	150,11	0,03592	
11,38	-0,4809	87,92	150,11	0,03582	
11,40	-0,4796	87,91	150,11	0,03580	
11,42	-0,4782	88,36	150,11	0,03584	
11,44	-0,4769	88,64	150,11	0,03590	
11,46	-0,4755	88,59	150,10	0,03594	
11,48	-0,4742	88,52	150,10	0,03609	
11,50	-0,4728	88,57	150,10	0,03623	
11,52	-0,4715	88,55	150,11	0,03612	
11,54	-0,4701	88,52	150,11	0,03595	
11,56	-0,4684	88,54	150,11	0,03586	
11,58	-0,4671	88,60	150,11	0,03585	
11,60	-0,4660	88,21	150,11	0,03589	
11,62	-0,4645	86,75	150,10	0,03601	
11,64	-0,4629	85,63	150,10	0,03610	
11,66	-0,4615	85,27	150,10	0,03611	
11,68	-0,4601	85,26	150,11	0,03595	
11,70	-0,4587	85,27	150,11	0,03580	
11,72	-0,4574	85,24	150,12	0,03576	
11,74	-0,4560	85,25	150,12	0,03581	
11,76	-0,4547	85,25	150,11	0,03591	
11,78	-0,4534	85,26	150,11	0,03603	
11,80	-0,4520	85,26	150,11	0,03610	
11,82	-0,4506	85,27	150,11	0,03614	
11,84	-0,4490	85,30	150,11	0,03609	
11,86	-0,4474	85,26	150,11	0,03601	
11,88	-0,4460	85,23	150,11	0,03599	
11,90	-0,4446	85,26	150,11	0,03595	
11,92	-0,4433	85,27	150,11	0,03589	
11,94	-0,4420	85,29	150,11	0,03593	
11,96	-0,4405	85,33	150,10	0,03610	
11,98	-0,4389	85,35	150,11	0,03623	
12,00	-0,4373	85,26	150,12	0,03615	
12,02	-0,4359	85,16	150,12	0,03599	
12,04	-0,4346	85,13	150,11	0,03586	
12,06	-0,4332	85,14	150,11	0,03583	
12,08	-0,4319	85,15	150,11	0,03594	
12,10	-0,4305	85,14	150,11	0,03610	
12,12	-0,4290	84,70	150,11	0,03620	
12,14	-0,4273	83,23	150,11	0,03624	
12,16	-0,4259	82,00	150,11	0,03620	
12,18	-0,4245	81,62	150,11	0,03606	
12,20	-0,4231	81,69	150,11	0,03590	
12,22	-0,4216	81,80	150,10	0,03587	
12,24	-0,4199	81,84	150,10	0,03599	
12,26	-0,4185	81,79	150,10	0,03614	
12,28	-0,4171	81,75	150,10	0,03622	
12,30	-0,4157	81,74	150,11	0,03619	
12,32	-0,4142	81,80	150,11	0,03612	
12,34	-0,4126	81,82	150,11	0,03605	
12,36	-0,4111	81,80	150,11	0,03603	
12,38	-0,4096	81,74	150,11	0,03602	
12,40	-0,4080	81,74	150,11	0,03609	
12,42	-0,4064	81,77	150,10	0,03616	
12,44	-0,4050	81,75	150,11	0,03615	
12,46	-0,4035	81,72	150,12	0,03619	
12,48	-0,4018	81,79	150,12	0,03620	
12,50	-0,4003	81,73	150,11	0,03612	
12,52	-0,3990	81,01	150,11	0,03593	
12,54	-0,3976	79,95	150,10	0,03587	
12,56	-0,3959	78,91	150,10	0,03596	
12,58	-0,3944	78,45	150,10	0,03605	
12,60	-0,3929	78,40	150,10	0,03610	
12,62	-0,3912	78,40	150,11	0,03615	
12,64	-0,3896	78,35	150,11	0,03613	
12,66	-0,3880	78,37	150,11	0,03603	
12,68	-0,3864	78,41	150,11	0,03593	
12,70	-0,3849	78,38	150,11	0,03588	
12,72	-0,3835	78,37	150,10	0,03595	
12,74	-0,3818	78,40	150,10	0,03613	
12,76	-0,3802	78,36	150,10	0,03625	
12,78	-0,3786	78,33	150,11	0,03622	
12,80	-0,3769	78,34	150,11	0,03611	
12,82	-0,3754	78,37	150,11	0,03599	
12,84	-0,3737	78,41	150,11	0,03587	
12,86	-0,3722	78,42	150,11	0,03583	
12,88	-0,3706	78,43	150,15	0,03597	
12,90	-0,3689	78,43	150,83	0,03609	
12,92	-0,3674	78,41	152,24	0,03607	
12,94	-0,3657	78,36	153,39	0,03607	
12,96	-0,3641	78,33	154,09	0,03607	
12,98	-0,3626	77,28	154,97	0,03593	
13,00	-0,3610	75,78	156,48	0,03584	
13,02	-0,3594	75,14	158,43	0,03584	
13,04	-0,3577	75,08	160,12	0,03592	
13,06	-0,3561	75,09	161,62	0,03598	
13,08	-0,3545	75,01	163,21	0,03602	
13,10	-0,3528	74,98	164,79	0,03611	
13,12	-0,3513	75,06	166,53	0,03611	
13,14	-0,3496	75,06	168,01	0,03605	
13,16	-0,3479	75,04	169,11	0,03599	
13,18	-0,3462	75,07	170,20	0,03593	
13,20	-0,3446	75,10	171,66	0,03595	
13,22	-0,3429	75,05	173,33	0,03604	
13,24	-0,3411	75,06	175,21	0,03618	
13,26	-0,3394	75,06	176,93	0,03622	
13,28	-0,3376	75,04	178,39	0,03608	
13,30	-0,3360	75,07	179,78	0,03591	
13,32	-0,3343	75,13	181,11	0,03583	
13,34	-0,3326	75,10	182,35	0,03587	
13,36	-0,3309	74,62	183,62	0,03599	
13,38	-0,3293	73,18	185,09	0,03618	
13,40	-0,3276	72,02	186,61	0,03630	
13,42	-0,3258	71,68	188,27	0,03626	
13,44	-0,3241	71,69	189,95	0,03616	
13,46	-0,3224	71,71	191,36	0,03600	
13,48	-0,3207	71,70	192,58	0,03593	
13,50	-0,3189	71,68	193,88	0,03595	
13,52	-0,3172	71,65	195,29	0,03602	
13,54	-0,3155	71,61	196,78	0,03614	
13,56	-0,3138	71,64	198,22	0,03627	
13,58	-0,3120	71,67	199,52	0,03625	
13,60	-0,3102	71,67	200,83	0,03612	
13,62	-0,3084	71,74	202,29	0,03602	
13,64	-0,3066	71,75	203,73	0,03597	
13,66	-0,3048	71,71	205,12	0,03599	
13,68	-0,3030	71,71	206,48	0,03604	
13,70	-0,3013	71,70	207,90	0,03606	
13,72	-0,2995	71,72	209,38	0,03613	
13,74	-0,2977	71,35	210,86	0,03620	
13,76	-0,2959	69,86	212,40	0,03605	
13,78	-0,2942	68,69	213,95	0,03589	
13,80	-0,2925	68,37	215,41	0,03587	
13,82	-0,2907	68,40	216,86	0,03598	
13,84	-0,2888	68,46	218,27	0,03607	
13,86	-0,2870	68,51	219,63	0,03615	
13,88	-0,2852	68,47	221,05	0,03616	
13,90	-0,2834	68,37	222,49	0,03613	
13,92	-0,2816	67,29	223,91	0,03605	
13,94	-0,2797	65,80	225,30	0,03592	
13,96	-0,2778	65,10	226,72	0,03586	
13,98	-0,2759	65,42	228,16	0,03587	
14,00	-0,2740	66,90	229,61	0,03602	
14,02	-0,2722	68,01	231,10	0,03616	
14,04	-0,2703	68,37	232,62	0,03617	
14,06	-0,2684	68,28	234,13	0,03610	
14,08	-0,2665	67,16	235,65	0,03599	
14,10	-0,2648	65,72	237,16	0,03591	
14,12	-0,2629	65,08	238,65	0,03594	
14,14	-0,2609	64,59	240,11	0,03601	
14,16	-0,2590	64,95	241,48	0,03602	
14,18	-0,2571	71,63	242,79	0,03597	
14,20	-0,2552	84,79	243,91	0,03585	
14,22	-0,2533	99,45	244,84	0,03572	
14,24	-0,2516	112,96	245,59	0,03561	
14,26	-0,2504	124,01	246,22	0,03562	
14,28	-0,2499	130,32	246,72	0,03571	
14,30	-0,2496	132,31	247,13	0,03582	
14,32	-0,2493	133,02	247,46	0,03586	
14,34	-0,2489	135,47	247,73	0,03589	
14,36	-0,2485	139,42	247,91	0,03581	
14,38	-0,2483	143,93	248,04	0,03569	
14,40	-0,2483	148,48	248,11	0,03559	
14,42	-0,2483	151,96	248,16	0,03553	
14,44	-0,2484	154,45	248,19	0,03561	
14,46	-0,2484	155,72	248,22	0,03581	
14,48	-0,2484	156,10	248,24	0,03593	
14,50	-0,2485	156,52	248,29	0,03589	
14,52	-0,2487	154,05	248,40	0,03583	
14,54	-0,2489	147,32	248,58	0,03582	
14,56	-0,2490	137,04	248,90	0,03580	
14,58	-0,2490	124,43	249,35	0,03573	
14,60	-0,2490	109,64	249,95	0,03571	
14,62	-0,2487	94,18	250,72	0,03581	
14,64	-0,2480	81,80	251,66	0,03596	
14,66	-0,2471	73,03	252,65	0,03608	
14,68	-0,2458	66,16	253,65	0,03610	
14,70	-0,2445	60,94	254,75	0,03593	
14,72	-0,2428	57,05	255,91	0,03578	
14,74	-0,2411	57,85	257,10	0,03570	
14,76	-0,2395	66,49	258,18	0,03564	
14,78	-0,2379	79,35	259,05	0,03569	
14,80	-0,2363	93,00	259,71	0,03579	
14,82	-0,2348	106,45	260,21	0,03586	
14,84	-0,2339	117,94	260,61	0,03587	
14,86	-0,2334	124,51	260,91	0,03570	
14,88	-0,2330	128,68	261,13	0,03556	
14,90	-0,2325	132,80	261,33	0,03557	
14,92	-0,2323	138,20	261,50	0,03567	
14,94	-0,2321	144,64	261,59	0,03583	
14,96	-0,2318	150,48	261,63	0,03594	
14,98	-0,2317	154,35	261,67	0,03590	
15,00	-0,2319	156,52	261,74	0,03585	
15,02	-0,2322	153,69	261,80	0,03581	
15,04	-0,2323	146,22	261,99	0,03574	
15,06	-0,2323	136,22	262,39	0,03573	
15,08	-0,2322	123,79	262,99	0,03583	
15,10	-0,2322	108,14	263,78	0,03596	
15,12	-0,2320	92,34	265,49	0,03606	
15,14	-0,2313	78,99	268,72	0,03609	
15,16	-0,2304	71,27	271,16	0,03598	
15,18	-0,2295	72,14	271,88	0,03581	
15,20	-0,2283	79,51	271,73	0,03570	
15,22	-0,2268	89,35	271,46	0,03570	
15,24	-0,2256	100,43	271,34	0,03573	
15,26	-0,2247	110,54	271,37	0,03579	
15,28	-0,2240	116,55	271,45	0,03588	
15,30	-0,2236	120,13	271,45	0,03584	
15,32	-0,2232	125,30	271,35	0,03573	
15,34	-0,2229	129,38	271,49	0,03564	
15,36	-0,2225	131,10	271,82	0,03558	
15,38	-0,2223	133,17	271,98	0,03560	
15,40	-0,2223	131,60	272,45	0,03570	
15,42	-0,2219	123,45	273,49	0,03586	
15,44	-0,2215	115,55	274,48	0,03593	
15,46	-0,2214	114,22	274,90	0,03588	
15,48	-0,2212	113,27	275,16	0,03577	
15,50	-0,2207	111,76	275,46	0,03571	
15,52	-0,2200	113,07	275,81	0,03569	
15,54	-0,2196	112,66	276,59	0,03573	
15,56	-0,2193	104,88	277,66	0,03587	
15,58	-0,2190	97,71	278,28	0,03593	
15,60	-0,2187	95,70	278,64	0,03592	
15,62	-0,2181	94,90	278,91	0,03595	
15,64	-0,2175	96,20	279,10	0,03590	
15,66	-0,2168	97,19	279,77	0,03585	
15,68	-0,2161	93,25	280,88	0,03580	
15,70	-0,2156	88,16	281,65	0,03580	
15,72	-0,2153	86,59	282,00	0,03584	
15,74	-0,2148	85,93	282,26	0,03591	
15,76	-0,2142	86,46	282,57	0,03596	
15,78	-0,2134	87,43	283,20	0,03604	
15,80	-0,2128	85,79	283,96	0,03600	
15,82	-0,2123	82,54	284,62	0,03585	
15,84	-0,2120	81,54	284,95	0,03568	
15,86	-0,2115	82,95	285,14	0,03567	
15,88	-0,2108	84,03	285,65	0,03581	
15,90	-0,2100	81,80	286,77	0,03593	
15,92	-0,2093	77,30	287,91	0,03603	
15,94	-0,2089	75,09	288,43	0,03602	
15,96	-0,2084	75,18	288,55	0,03588	
15,98	-0,2078	75,26	288,78	0,03573	
16,00	-0,2071	76,33	289,14	0,03569	
16,02	-0,2064	76,58	289,79	0,03577	
16,04	-0,2059	74,38	290,42	0,03590	
16,06	-0,2053	70,53	290,96	0,03601	
16,08	-0,2047	68,38	291,52	0,03610	
16,10	-0,2040	68,81	291,99	0,03608	
16,12	-0,2035	70,15	292,56	0,03600	
16,14	-0,2029	69,41	293,27	0,03583	
16,16	-0,2023	69,56	293,78	0,03570	
16,18	-0,2018	71,57	294,08	0,03574	
16,20	-0,2013	71,39	294,62	0,03583	
16,22	-0,2006	68,89	295,37	0,03592	
16,24	-0,1999	67,77	296,07	0,03599	
16,26	-0,1994	67,72	296,54	0,03603	
16,28	-0,1990	67,85	296,87	0,03600	
16,30	-0,1983	66,93	297,36	0,03590	
16,32	-0,1976	65,60	297,97	0,03580	
16,34	-0,1971	64,34	298,58	0,03577	
16,36	-0,1966	63,13	299,06	0,03582	
16,38	-0,1961	60,53	299,65	0,03593	
16,40	-0,1955	57,79	300,32	0,03602	
16,42	-0,1949	58,15	300,78	0,03603	
16,44	-0,1944	60,33	301,14	0,03599	
16,46	-0,1938	59,38	301,82	0,03593	
16,48	-0,1931	56,34	302,58	0,03584	
16,50	-0,1926	56,65	303,03	0,03575	
16,52	-0,1921	57,27	303,40	0,03585	
16,54	-0,1915	54,68	303,97	0,03599	
16,56	-0,1908	52,41	304,64	0,03602	
16,58	-0,1902	53,08	305,12	0,03599	
16,60	-0,1896	54,84	305,43	0,03594	
16,62	-0,1889	54,22	306,03	0,03588	
16,64	-0,1881	50,76	307,05	0,03577	
16,66	-0,1874	49,77	307,82	0,03570	
16,68	-0,1871	52,57	308,12	0,03576	
16,70	-0,1866	53,59	308,34	0,03591	
16,72	-0,1858	51,79	308,92	0,03600	
16,74	-0,1851	51,14	309,69	0,03605	
16,76	-0,1844	52,52	310,28	0,03604	
16,78	-0,1840	53,70	310,58	0,03590	
16,80	-0,1835	52,54	311,02	0,03575	
16,82	-0,1828	51,07	311,72	0,03573	
16,84	-0,1822	52,12	312,28	0,03578	
16,86	-0,1818	54,24	312,68	0,03582	
16,88	-0,1811	51,83	313,32	0,03592	
16,90	-0,1804	48,10	314,03	0,03606	
16,92	-0,1799	50,08	314,52	0,03605	
16,94	-0,1794	52,97	314,98	0,03591	
16,96	-0,1788	51,71	315,54	0,03575	
16,98	-0,1782	52,07	315,97	0,03569	
17,00	-0,1775	53,95	316,52	0,03577	
17,02	-0,1769	51,59	317,26	0,03585	
17,04	-0,1764	49,95	317,80	0,03591	
17,06	-0,1760	51,47	318,18	0,03601	
17,08	-0,1754	50,60	318,71	0,03605	
17,10	-0,1747	48,06	319,40	0,03594	
17,12	-0,1741	47,97	319,95	0,03582	
17,14	-0,1737	48,68	320,36	0,03579	
17,16	-0,1731	46,68	320,92	0,03586	
17,18	-0,1724	44,69	321,62	0,03591	
17,20	-0,1717	46,38	322,18	0,03593	
17,22	-0,1711	49,47	322,57	0,03594	
17,24	-0,1706	49,79	323,03	0,03590	
17,26	-0,1699	47,81	323,72	0,03588	
17,28	-0,1693	47,62	324,37	0,03584	
17,30	-0,1688	49,72	324,81	0,03580	
17,32	-0,1683	49,26	325,29	0,03584	
17,34	-0,1676	47,13	325,89	0,03600	
17,36	-0,1670	46,92	326,46	0,03608	
17,38	-0,1664	48,84	326,89	0,03607	
17,40	-0,1659	48,48	327,39	0,03608	
17,42	-0,1652	45,47	328,13	0,03600	
17,44	-0,1646	44,64	328,80	0,03586	
17,46	-0,1640	47,10	329,25	0,03586	
17,48	-0,1634	48,61	329,63	0,03591	
17,50	-0,1626	46,78	330,25	0,03601	
17,52	-0,1620	45,34	330,93	0,03602	
17,54	-0,1615	46,89	331,43	0,03603	
17,56	-0,1610	46,67	331,92	0,03604	
17,58	-0,1603	44,58	332,45	0,03594	
17,60	-0,1596	44,03	333,02	0,03579	
17,62	-0,1590	44,35	333,65	0,03575	
17,64	-0,1585	45,25	334,12	0,03583	
17,66	-0,1580	47,73	334,53	0,03591	
17,68	-0,1573	47,39	335,21	0,03598	
17,70	-0,1567	45,17	335,92	0,03603	
17,72	-0,1562	46,64	336,38	0,03600	
17,74	-0,1557	49,29	336,73	0,03589	
17,76	-0,1549	47,48	337,40	0,03581	
17,78	-0,1543	45,20	338,13	0,03579	
17,80	-0,1538	47,26	338,62	0,03580	
17,82	-0,1534	48,93	338,94	0,03587	
17,84	-0,1528	47,15	339,48	0,03600	
17,86	-0,1521	44,59	340,25	0,03607	
17,88	-0,1515	46,27	340,84	0,03601	
17,90	-0,1511	48,43	341,22	0,03591	
17,92	-0,1506	47,41	341,71	0,03586	
17,94	-0,1498	44,55	342,40	0,03586	
17,96	-0,1492	45,80	342,90	0,03588	
17,98	-0,1487	48,79	343,31	0,03594	
18,00	-0,1481	47,62	343,89	0,03602	
18,02	-0,1475	45,89	344,49	0,03607	
18,04	-0,1469	47,19	345,05	0,03613	
18,06	-0,1463	48,08	345,58	0,03614	
18,08	-0,1458	46,45	346,10	0,03595	
18,10	-0,1452	46,42	346,66	0,03581	
18,12	-0,1445	48,57	347,21	0,03584	
18,14	-0,1439	50,07	347,75	0,03588	
18,16	-0,1434	50,35	348,31	0,03591	
18,18	-0,1428	50,41	348,84	0,03597	
18,20	-0,1422	50,51	349,35	0,03600	
18,22	-0,1416	49,64	349,97	0,03599	
18,24	-0,1411	49,51	350,56	0,03592	
18,26	-0,1405	51,70	351,00	0,03581	
18,28	-0,1400	53,61	351,53	0,03572	
18,30	-0,1393	51,64	352,27	0,03576	
18,32	-0,1387	51,02	352,87	0,03589	
18,34	-0,1383	53,74	353,22	0,03603	
18,36	-0,1378	54,60	353,67	0,03606	
18,38	-0,1371	51,39	354,45	0,03596	
18,40	-0,1365	51,00	355,11	0,03581	
18,42	-0,1361	54,22	355,52	0,03571	
18,44	-0,1355	54,12	355,98	0,03577	
18,46	-0,1348	51,60	356,59	0,03590	
18,48	-0,1342	51,71	357,14	0,03599	
18,50	-0,1338	53,53	357,58	0,03606	
18,52	-0,1334	52,55	358,09	0,03608	
18,54	-0,1327	51,02	358,75	0,03602	
18,56	-0,1321	52,19	359,33	0,03591	
18,58	-0,1316	55,31	359,75	0,03581	
18,60	-0,1311	55,89	360,30	0,03575	
18,62	-0,1303	53,52	361,02	0,03580	
18,64	-0,1298	54,21	361,59	0,03592	
18,66	-0,1294	56,77	362,04	0,03605	
18,68	-0,1289	56,31	362,54	0,03611	
18,70	-0,1284	54,29	363,12	0,03608	
18,72	-0,1278	55,50	363,65	0,03589	
18,74	-0,1273	56,85	364,16	0,03575	
18,76	-0,1267	54,75	364,79	0,03579	
18,78	-0,1261	53,70	365,36	0,03592	
18,80	-0,1256	56,35	365,84	0,03597	
18,82	-0,1250	58,42	366,36	0,03602	
18,84	-0,1244	57,78	366,97	0,03603	
18,86	-0,1239	58,03	367,51	0,03596	
18,88	-0,1235	59,95	367,94	0,03583	
18,90	-0,1230	59,49	368,55	0,03576	
18,92	-0,1224	58,03	369,23	0,03579	
18,94	-0,1219	59,35	369,74	0,03586	
18,96	-0,1214	61,76	370,18	0,03592	
18,98	-0,1208	60,86	370,73	0,03602	
19,00	-0,1202	59,21	371,35	0,03614	
19,02	-0,1198	61,40	371,83	0,03609	
19,04	-0,1193	62,90	372,31	0,03594	
19,06	-0,1186	61,19	372,99	0,03584	
19,08	-0,1181	59,93	373,68	0,03585	
19,10	-0,1176	61,99	374,15	0,03589	
19,12	-0,1173	63,73	374,56	0,03597	
19,14	-0,1166	61,77	375,13	0,03608	
19,16	-0,1161	61,04	375,77	0,03611	
19,18	-0,1156	63,33	376,27	0,03599	
19,20	-0,1153	64,76	376,70	0,03584	
19,22	-0,1147	63,29	377,29	0,03580	
19,24	-0,1140	62,03	377,94	0,03582	
19,26	-0,1136	63,96	378,47	0,03590	
19,28	-0,1132	65,26	378,98	0,03593	
19,30	-0,1126	64,61	379,51	0,03597	
19,32	-0,1121	64,36	380,06	0,03598	
19,34	-0,1115	65,51	380,61	0,03599	
19,36	-0,1110	65,75	381,16	0,03595	
19,38	-0,1105	65,41	381,70	0,03590	
19,40	-0,1101	65,66	382,25	0,03588	
19,42	-0,1096	65,78	382,81	0,03592	
19,44	-0,1091	66,07	383,34	0,03601	
19,46	-0,1086	66,94	383,85	0,03602	
19,48	-0,1080	66,61	384,46	0,03600	
19,50	-0,1075	66,01	385,07	0,03590	
19,52	-0,1071	67,17	385,55	0,03583	
19,54	-0,1067	67,71	386,06	0,03580	
19,56	-0,1061	66,67	386,67	0,03578	
19,58	-0,1056	66,97	387,23	0,03577	
19,60	-0,1052	68,95	387,68	0,03583	
19,62	-0,1047	68,93	388,24	0,03598	
19,64	-0,1042	66,30	388,92	0,03603	
19,66	-0,1038	67,94	389,44	0,03601	
19,68	-0,1034	71,64	389,89	0,03594	
19,70	-0,1028	71,66	390,43	0,03581	
19,72	-0,1023	70,52	391,00	0,03577	
19,74	-0,1018	71,73	391,54	0,03585	
19,76	-0,1013	72,03	392,08	0,03590	
19,78	-0,1009	70,58	392,64	0,03599	
19,80	-0,1004	70,44	393,20	0,03605	
19,82	-0,09996	71,86	393,73	0,03611	
19,84	-0,09951	72,66	394,28	0,03604	
19,86	-0,09904	72,65	394,84	0,03588	
19,88	-0,09860	72,66	395,40	0,03576	
19,90	-0,09819	73,38	395,95	0,03580	
19,92	-0,09775	73,75	396,49	0,03593	
19,94	-0,09729	73,81	397,06	0,03605	
19,96	-0,09684	73,91	397,59	0,03611	
19,98	-0,09642	73,97	398,08	0,03611	
20,00	-0,09596	73,85	398,64	0,03603	
20,02	-0,09548	73,76	399,23	0,03591	
20,04	-0,09518	73,95	399,76	0,03583	
20,06	-0,09483	73,97	400,29	0,03582	
20,08	-0,09438	72,84	400,86	0,03591	
20,10	-0,09396	72,24	401,42	0,03602	
20,12	-0,09350	73,06	401,96	0,03605	
20,14	-0,09301	73,26	402,54	0,03600	
20,16	-0,09261	73,31	403,08	0,03590	
20,18	-0,09219	74,54	403,58	0,03586	
20,20	-0,09171	74,69	404,14	0,03588	
20,22	-0,09123	73,39	404,75	0,03590	
20,24	-0,09079	73,67	405,26	0,03597	
20,26	-0,09049	75,02	405,73	0,03607	
20,28	-0,09005	74,88	406,29	0,03619	
20,30	-0,08950	74,30	406,88	0,03620	
20,32	-0,08911	75,40	407,44	0,03606	
20,34	-0,08876	76,46	407,96	0,03591	
20,36	-0,08834	75,47	408,51	0,03590	
20,38	-0,08786	74,45	409,12	0,03586	
20,40	-0,08742	75,47	409,70	0,03585	
20,42	-0,08712	76,85	410,19	0,03594	
20,44	-0,08676	77,40	410,70	0,03606	
20,46	-0,08629	77,22	411,28	0,03609	
20,48	-0,08589	78,09	411,81	0,03593	
20,50	-0,08548	78,82	412,32	0,03579	
20,52	-0,08513	77,76	412,89	0,03575	
20,54	-0,08475	76,51	413,48	0,03584	
20,56	-0,08431	77,01	414,02	0,03589	
20,58	-0,08387	77,76	414,53	0,03600	
20,60	-0,08342	76,99	415,07	0,03612	
20,62	-0,08306	76,36	415,68	0,03612	
20,64	-0,08270	76,75	416,23	0,03595	
20,66	-0,08233	77,62	416,70	0,03581	
20,68	-0,08187	77,92	417,26	0,03580	
20,70	-0,08137	77,38	417,88	0,03586	
20,72	-0,08106	78,10	418,43	0,03596	
20,74	-0,08072	78,67	418,93	0,03611	
20,76	-0,08027	77,96	419,47	0,03614	
20,78	-0,07980	77,19	420,05	0,03606	
20,80	-0,07941	78,11	420,55	0,03595	
20,82	-0,07909	78,91	421,07	0,03581	
20,84	-0,07868	77,73	421,68	0,03580	
20,86	-0,07824	76,72	422,31	0,03587	
20,88	-0,07787	77,76	422,82	0,03600	
20,90	-0,07754	79,23	423,30	0,03613	
20,92	-0,07713	79,62	423,84	0,03613	
20,94	-0,07668	79,82	424,41	0,03612	
20,96	-0,07623	80,34	424,96	0,03599	
20,98	-0,07586	80,59	425,51	0,03587	
21,00	-0,07553	80,54	426,05	0,03587	
21,02	-0,07514	80,54	426,60	0,03593	
21,04	-0,07470	80,62	427,14	0,03596	
21,06	-0,07435	80,62	427,70	0,03602	
21,08	-0,07397	80,63	428,23	0,03609	
21,10	-0,07356	80,66	428,77	0,03619	
21,12	-0,07315	80,58	429,31	0,03613	
21,14	-0,07270	80,82	429,88	0,03598	
21,16	-0,07235	81,35	430,44	0,03588	
21,18	-0,07199	81,02	430,99	0,03593	
21,20	-0,07168	80,98	431,52	0,03601	
21,22	-0,07133	82,10	432,05	0,03610	
21,24	-0,07088	82,27	432,63	0,03620	
21,26	-0,07049	81,84	433,18	0,03614	
21,28	-0,07020	82,46	433,66	0,03594	
21,30	-0,06979	82,45	434,23	0,03580	
21,32	-0,06929	81,29	434,84	0,03580	
21,34	-0,06895	81,59	435,40	0,03595	
21,36	-0,06864	83,17	435,89	0,03608	
21,38	-0,06834	83,62	436,42	0,03613	
21,40	-0,06793	83,12	437,00	0,03615	
21,42	-0,06752	83,42	437,56	0,03608	
21,44	-0,06718	83,96	438,05	0,03595	
21,46	-0,06683	84,21	438,57	0,03589	
21,48	-0,06638	83,96	439,20	0,03584	
21,50	-0,06595	84,24	439,78	0,03590	
21,52	-0,06570	84,89	440,29	0,03601	
21,54	-0,06543	84,22	440,82	0,03609	
21,56	-0,06505	83,19	441,39	0,03610	
21,58	-0,06461	83,73	441,92	0,03608	
21,60	-0,06429	85,29	442,44	0,03599	
21,62	-0,06395	85,16	442,97	0,03580	
21,64	-0,06364	84,62	443,53	0,03572	
21,66	-0,06323	84,30	444,11	0,03581	
21,68	-0,06279	83,43	444,68	0,03594	
21,70	-0,06241	83,19	445,21	0,03606	
21,72	-0,06208	83,78	445,74	0,03614	
21,74	-0,06174	84,05	446,30	0,03611	
21,76	-0,06139	83,90	446,87	0,03598	
21,78	-0,06100	84,54	447,41	0,03585	
21,80	-0,06058	85,09	447,93	0,03579	
21,82	-0,06024	85,05	448,48	0,03580	
21,84	-0,05987	84,44	449,03	0,03590	
21,86	-0,05961	84,77	449,56	0,03609	
21,88	-0,05921	84,56	450,14	0,03620	
21,90	-0,05874	84,09	450,71	0,03612	
21,92	-0,05841	85,04	451,22	0,03598	
21,94	-0,05805	86,00	451,79	0,03591	
21,96	-0,05769	85,62	452,37	0,03587	
21,98	-0,05742	86,28	452,87	0,03590	
22,00	-0,05701	86,65	453,42	0,03599	
22,02	-0,05654	85,87	453,99	0,03604	
22,04	-0,05621	86,35	454,51	0,03609	
22,06	-0,05586	87,61	455,05	0,03610	
22,08	-0,05554	86,75	455,62	0,03600	
22,10	-0,05520	86,28	456,16	0,03593	
22,12	-0,05491	87,55	456,67	0,03592	
22,14	-0,05454	87,90	457,21	0,03590	
22,16	-0,05408	87,61	457,77	0,03596	
22,18	-0,05371	87,50	458,32	0,03608	
22,20	-0,05337	87,42	458,87	0,03612	
22,22	-0,05302	87,35	459,43	0,03609	
22,24	-0,05269	87,36	459,99	0,03598	
22,26	-0,05234	88,43	460,50	0,03583	
22,28	-0,05188	88,95	461,06	0,03576	
22,30	-0,05149	87,92	461,68	0,03584	
22,32	-0,05118	88,44	462,18	0,03601	
22,34	-0,05088	89,31	462,68	0,03614	
22,36	-0,05047	88,57	463,28	0,03617	
22,38	-0,05007	88,07	463,83	0,03610	
22,40	-0,04971	88,81	464,36	0,03593	
22,42	-0,04933	88,08	464,93	0,03580	
22,44	-0,04898	86,22	465,51	0,03580	
22,46	-0,04865	86,71	466,01	0,03591	
22,48	-0,04834	88,45	466,51	0,03601	
22,50	-0,04800	88,46	467,09	0,03609	
22,52	-0,04765	87,63	467,66	0,03614	
22,54	-0,04732	88,31	468,18	0,03608	
22,56	-0,04693	88,87	468,73	0,03591	
22,58	-0,04649	88,12	469,28	0,03582	
22,60	-0,04615	88,40	469,82	0,03585	
22,62	-0,04580	89,41	470,38	0,03592	
22,64	-0,04549	89,04	470,92	0,03601	
22,66	-0,04512	89,45	471,45	0,03605	
22,68	-0,04482	90,02	472,00	0,03611	
22,70	-0,04444	88,83	472,60	0,03612	
22,72	-0,04399	87,96	473,17	0,03599	
22,74	-0,04365	88,81	473,67	0,03583	
22,76	-0,04331	89,36	474,22	0,03580	
22,78	-0,04294	89,33	474,78	0,03589	
22,80	-0,04262	89,50	475,29	0,03596	
22,82	-0,04229	89,44	475,82	0,03607	
22,84	-0,04194	88,70	476,39	0,03614	
22,86	-0,04162	88,68	476,93	0,03613	
22,88	-0,04132	89,27	477,45	0,03601	
22,90	-0,04094	88,40	478,07	0,03592	
22,92	-0,04056	86,85	478,67	0,03585	
22,94	-0,04024	87,92	479,15	0,03586	
22,96	-0,03981	88,67	479,69	0,03598	
22,98	-0,03945	87,97	480,25	0,03609	
23,00	-0,03913	88,47	480,77	0,03616	
23,02	-0,03883	88,78	481,33	0,03618	
23,04	-0,03841	86,98	481,92	0,03607	
23,06	-0,03799	85,87	482,47	0,03592	
23,08	-0,03763	87,10	482,97	0,03583	
23,10	-0,03727	87,24	483,51	0,03588	
23,12	-0,03691	86,85	484,07	0,03605	
23,14	-0,03661	88,04	484,59	0,03614	
23,16	-0,03624	89,29	485,13	0,03615	
23,18	-0,03577	89,55	485,72	0,03611	
23,20	-0,03543	89,44	486,28	0,03601	
23,22	-0,03509	89,59	486,78	0,03586	
23,24	-0,03478	89,35	487,33	0,03582	
23,26	-0,03437	87,65	487,96	0,03585	
23,28	-0,03407	87,08	488,48	0,03598	
23,30	-0,03375	88,56	488,96	0,03613	
23,32	-0,03339	87,86	489,53	0,03615	
23,34	-0,03302	86,94	490,09	0,03611	
23,36	-0,03262	87,80	490,61	0,03601	
23,38	-0,03223	87,74	491,18	0,03592	
23,40	-0,03187	86,12	491,77	0,03592	
23,42	-0,03156	86,13	492,31	0,03595	
23,44	-0,03124	86,73	492,83	0,03601	
23,46	-0,03083	85,60	493,37	0,03607	
23,48	-0,03038	84,64	493,89	0,03609	
23,50	-0,03004	85,47	494,42	0,03603	
23,52	-0,02964	85,70	495,02	0,03595	
23,54	-0,02933	85,36	495,58	0,03597	
23,56	-0,02901	85,92	496,08	0,03593	
23,58	-0,02857	85,83	496,66	0,03594	
23,60	-0,02816	84,81	497,23	0,03608	
23,62	-0,02785	84,86	497,75	0,03620	
23,64	-0,02751	83,78	498,30	0,03618	
23,66	-0,02720	82,13	498,83	0,03602	
23,68	-0,02681	82,64	499,37	0,03583	
23,70	-0,02634	82,69	499,95	0,03579	
23,72	-0,02603	81,98	500,48	0,03586	
23,74	-0,02567	82,57	501,02	0,03597	
23,76	-0,02521	82,48	501,61	0,03611	
23,78	-0,02486	81,76	502,15	0,03612	
23,80	-0,02453	81,58	502,69	0,03615	
23,82	-0,02412	81,04	503,27	0,03608	
23,84	-0,02371	81,72	503,78	0,03596	
23,86	-0,02339	83,24	504,29	0,03592	
23,88	-0,02298	82,70	504,87	0,03595	
23,90	-0,02258	81,73	505,43	0,03602	
23,92	-0,02220	82,17	505,94	0,03611	
23,94	-0,02185	81,96	506,49	0,03617	
23,96	-0,02143	80,57	507,08	0,03616	
23,98	-0,02100	80,63	507,60	0,03612	
24,00	-0,02068	81,84	508,12	0,03600	
24,02	-0,02029	81,05	508,70	0,03593	
24,04	-0,01999	80,40	509,24	0,03591	
24,06	-0,01965	81,29	509,77	0,03599	
24,08	-0,01918	80,44	510,37	0,03609	
24,10	-0,01883	79,57	510,90	0,03615	
24,12	-0,01851	80,13	511,44	0,03620	
24,14	-0,01805	79,45	512,05	0,03621	
24,16	-0,01765	78,70	512,54	0,03611	
24,18	-0,01734	79,13	513,07	0,03597	
24,20	-0,01689	77,41	513,71	0,03597	
24,22	-0,01651	76,47	514,22	0,03597	
24,24	-0,01614	78,42	514,71	0,03603	
24,26	-0,01573	78,71	515,29	0,03617	
24,28	-0,01539	77,67	515,83	0,03626	
24,30	-0,01497	77,77	516,35	0,03621	
24,32	-0,01446	76,36	516,92	0,03609	
24,34	-0,01403	75,06	517,45	0,03599	
24,36	-0,01363	75,84	517,94	0,03593	
24,38	-0,01326	75,87	518,53	0,03597	
24,40	-0,01287	74,89	519,16	0,03606	
24,42	-0,01249	75,74	519,64	0,03611	
24,44	-0,01208	76,71	520,13	0,03607	
24,46	-0,01156	74,46	520,79	0,03606	
24,48	-0,01114	72,92	521,36	0,03599	
24,50	-0,01081	74,64	521,83	0,03593	
24,52	-0,01044	74,16	522,38	0,03594	
24,54	-0,01006	72,96	522,92	0,03594	
24,56	-0,00962	73,34	523,46	0,03597	
24,58	-0,00911	72,55	524,04	0,03607	
24,60	-0,00871	71,14	524,56	0,03608	
24,62	-0,00825	71,40	525,11	0,03609	
24,64	-0,00776	71,43	525,67	0,03604	
24,66	-0,00737	71,57	526,16	0,03597	
24,68	-0,00690	72,15	526,72	0,03600	
24,70	-0,00639	71,47	527,36	0,03609	
24,72	-0,00604	71,42	527,87	0,03617	
24,74	-0,00558	71,86	528,39	0,03627	
24,76	-0,00504	70,02	529,00	0,03625	
24,78	-0,00467	69,54	529,49	0,03618	
24,80	-0,00423	70,32	530,03	0,03608	
24,82	-0,00383	68,49	530,63	0,03597	
24,84	-0,00348	67,67	531,13	0,03586	
24,86	-0,00293	68,56	531,66	0,03593	
24,88	-0,00237	67,49	532,25	0,03605	
24,90	-0,00195	66,32	532,78	0,03611	
24,92	-0,00150	67,10	533,32	0,03608	
24,94	-0,00103	67,17	533,86	0,03608	
24,96	-0,00061	67,01	534,37	0,03605	
24,98	-0,00014	67,00	534,96	0,03594	
25,00	0,00034	66,49	535,53	0,03590	
25,02	0,00072	67,29	536,01	0,03597	
25,04	0,00122	67,51	536,58	0,03608	
25,06	0,00183	65,95	537,21	0,03616	
25,08	0,00230	65,80	537,72	0,03612	
25,10	0,00270	66,41	538,20	0,03609	
25,12	0,00322	64,92	538,83	0,03605	
25,14	0,00370	63,51	539,41	0,03593	
25,16	0,00406	65,32	539,85	0,03582	
25,18	0,00457	64,63	540,46	0,03583	
25,20	0,00511	61,55	541,11	0,03595	
25,22	0,00553	63,06	541,55	0,03608	
25,24	0,00610	63,60	542,12	0,03618	
25,26	0,00665	60,62	542,70	0,03615	
25,28	0,00699	60,80	543,16	0,03601	
25,30	0,00750	61,12	543,80	0,03585	
25,32	0,00806	58,75	544,40	0,03579	
25,34	0,00851	58,91	544,82	0,03585	
25,36	0,00907	59,39	545,39	0,03599	
25,38	0,00967	57,04	545,96	0,03613	
25,40	0,01012	57,29	546,44	0,03618	
25,42	0,01068	57,15	547,06	0,03612	
25,44	0,01112	55,69	547,56	0,03598	
25,46	0,01159	57,03	548,00	0,03589	
25,48	0,01233	56,85	548,73	0,03595	
25,50	0,01288	54,79	549,36	0,03599	
25,52	0,01326	56,12	549,80	0,03599	
25,54	0,01377	55,43	550,36	0,03608	
25,56	0,01430	53,07	550,85	0,03613	
25,58	0,01489	54,20	551,35	0,03612	
25,60	0,01554	53,78	552,00	0,03606	
25,62	0,01603	51,95	552,50	0,03598	
25,64	0,01658	53,50	552,98	0,03594	
25,66	0,01730	52,89	553,66	0,03597	
25,68	0,01779	51,09	554,19	0,03604	
25,70	0,01829	51,97	554,64	0,03609	
25,72	0,01897	51,10	555,21	0,03614	
25,74	0,01955	48,22	555,80	0,03615	
25,76	0,02003	48,84	556,26	0,03609	
25,78	0,02066	49,23	556,83	0,03603	
25,80	0,02143	45,57	557,54	0,03601	
25,82	0,02200	45,26	557,96	0,03603	
25,84	0,02239	49,02	558,35	0,03610	
25,86	0,02307	47,29	559,11	0,03617	
25,88	0,02374	44,78	559,78	0,03614	
25,90	0,02431	47,10	560,23	0,03611	
25,92	0,02494	45,87	560,78	0,03608	
25,94	0,02545	42,24	561,21	0,03597	
25,96	0,02597	42,74	561,68	0,03586	
25,98	0,02677	41,40	562,48	0,03586	
26,00	0,02746	37,77	563,15	0,03593	
26,02	0,02803	37,99	563,52	0,03607	
26,04	0,02870	38,21	563,97	0,03619	
26,06	0,02944	35,50	564,58	0,03620	
26,08	0,03008	36,53	565,04	0,03607	
26,10	0,03070	39,37	565,51	0,03593	
26,12	0,03148	37,05	566,25	0,03591	
26,14	0,03215	35,20	566,84	0,03592	
26,16	0,03267	38,16	567,24	0,03601	
26,18	0,03342	36,82	567,88	0,03612	
26,20	0,03413	33,74	568,43	0,03620	
26,22	0,03464	35,54	568,84	0,03615	
26,24	0,03525	34,85	569,51	0,03606	
26,26	0,03588	30,76	570,14	0,03597	
26,28	0,03654	30,34	570,59	0,03596	
26,30	0,03729	29,84	571,18	0,03609	
26,32	0,03805	27,30	571,69	0,03618	
26,34	0,03871	27,89	572,13	0,03617	
26,36	0,03951	26,96	572,82	0,03617	
26,38	0,04017	23,90	573,42	0,03610	
26,40	0,04075	24,34	573,85	0,03598	
26,42	0,04150	23,50	574,43	0,03588	
26,44	0,04215	19,78	574,97	0,03590	
26,46	0,04278	19,09	575,48	0,03599	
26,48	0,04367	18,56	576,13	0,03610	
26,50	0,04441	17,02	576,60	0,03619	
26,52	0,04511	17,18	577,08	0,03617	
26,54	0,04598	15,31	577,79	0,03612	
26,56	0,04671	13,78	578,32	0,03604	
26,58	0,04742	14,32	578,78	0,03598	
26,60	0,04824	11,54	579,42	0,03594	
26,62	0,04900	9,397	579,93	0,03586	
26,64	0,04974	10,89	580,36	0,03591	
26,66	0,05058	8,969	581,07	0,03605	
26,68	0,05131	5,139	581,69	0,03611	
26,70	0,05203	5,911	581,96	0,03607	
26,72	0,05281	6,369	582,46	0,03600	
26,74	0,05378	1,911	583,35	0,03590	
26,76	0,05452	0,8125	583,94	0,03592	
26,78	0,05520	3,345	584,32	0,03599	
26,80	0,05613	0,4572	584,91	0,03606	
26,82	0,05698	-2,096	585,35	0,03609	
26,84	0,05776	-0,4402	585,82	0,03612	
26,86	0,05868	-2,952	586,61	0,03614	
26,88	0,05959	-6,827	587,21	0,03604	
26,90	0,06043	-5,937	587,58	0,03591	
26,92	0,06131	-6,545	588,11	0,03595	
26,94	0,06228	-9,113	588,65	0,03603	
26,96	0,06313	-8,018	589,07	0,03614	
26,98	0,06399	-8,683	589,73	0,03625	
27,00	0,06490	-12,14	590,42	0,03624	
27,02	0,06569	-11,06	590,70	0,03608	
27,04	0,06651	-8,921	591,03	0,03597	
27,06	0,06766	-12,10	592,01	0,03589	
27,08	0,06878	-16,60	593,04	0,03586	
27,10	0,06960	-15,11	593,34	0,03590	
27,12	0,07019	-12,16	593,26	0,03605	
27,14	0,07106	-13,91	593,75	0,03620	
27,16	0,07236	-18,01	594,96	0,03625	
27,18	0,07343	-19,32	595,86	0,03607	
27,20	0,07404	-18,17	595,99	0,03585	
27,22	0,07489	-19,57	596,20	0,03578	
27,24	0,07602	-23,86	597,00	0,03578	
27,26	0,07708	-23,95	597,70	0,03585	
27,28	0,07790	-20,66	597,98	0,03602	
27,30	0,07870	-23,04	598,39	0,03613	
27,32	0,07980	-29,59	599,15	0,03614	
27,34	0,08081	-30,09	599,60	0,03599	
27,36	0,08157	-24,51	599,59	0,03585	
27,38	0,08258	-23,43	599,71	0,03587	
27,40	0,08370	-24,05	599,94	0,03592	
27,42	0,08457	-18,37	599,85	0,03596	
27,44	0,08528	-9,651	599,60	0,03604	
27,46	0,08614	-7,798	599,67	0,03613	
27,48	0,08711	-7,321	599,90	0,03607	
27,50	0,08793	0,2717	599,84	0,03591	
27,52	0,08862	9,029	599,61	0,03583	
27,54	0,08948	11,48	599,66	0,03585	
27,56	0,09044	13,40	599,83	0,03586	
27,58	0,09111	21,03	599,74	0,03591	
27,60	0,09160	28,54	599,56	0,03596	
27,62	0,09241	29,14	599,68	0,03607	
27,64	0,09321	30,15	599,88	0,03612	
27,66	0,09370	36,76	599,81	0,03598	
27,68	0,09413	43,69	599,59	0,03582	
27,70	0,09469	45,68	599,62	0,03580	
27,72	0,09535	46,69	599,78	0,03586	
27,74	0,09587	51,83	599,74	0,03594	
27,76	0,09626	56,72	599,57	0,03641	
27,78	0,09676	57,05	599,62	0,03722	
27,80	0,09732	57,69	599,79	0,03767	
27,82	0,09761	62,54	599,77	0,03765	
27,84	0,09785	68,45	599,60	0,03747	
27,86	0,09830	69,83	599,58	0,03738	
27,88	0,09881	69,56	599,74	0,03741	
27,90	0,09915	72,90	599,77	0,03747	
27,92	0,09938	78,50	599,62	0,03757	
27,94	0,09969	80,95	599,56	0,03765	
27,96	0,1001	81,14	599,70	0,03769	
27,98	0,1004	83,44	599,79	0,03748	
28,00	0,1006	87,77	599,68	0,03667	
28,02	0,1008	90,22	599,56	0,03597	
28,04	0,1011	90,24	599,62	0,03579	
28,06	0,1015	91,69	599,75	0,03585	
28,08	0,1017	95,78	599,71	0,03591	
28,10	0,1019	99,84	599,58	0,03600	
28,12	0,1022	100,16	599,61	0,03612	
28,14	0,1024	99,85	599,71	0,03605	
28,16	0,1027	103,25	599,69	0,03588	
28,18	0,1028	107,46	599,57	0,03582	
28,20	0,1029	108,38	599,58	0,03580	
28,22	0,1032	108,11	599,71	0,03590	
28,24	0,1035	110,56	599,75	0,03605	
28,26	0,1036	114,40	599,64	0,03607	
28,28	0,1036	116,49	599,57	0,03603	
28,30	0,1038	116,28	599,65	0,03601	
28,32	0,1042	117,70	599,72	0,03591	
28,34	0,1043	120,67	599,66	0,03579	
28,36	0,1043	122,36	599,57	0,03579	
28,38	0,1043	122,30	599,61	0,03584	
28,40	0,1044	122,79	599,71	0,03595	
28,42	0,1044	125,76	599,69	0,03608	
28,44	0,1046	128,46	599,59	0,03610	
28,46	0,1049	129,13	599,58	0,03600	
28,48	0,1050	128,96	599,68	0,03587	
28,50	0,1051	130,34	599,74	0,03574	
28,52	0,1050	133,40	599,66	0,03571	
28,54	0,1049	134,86	599,58	0,03578	
28,56	0,1050	134,93	599,63	0,03593	
28,58	0,1050	135,85	599,69	0,03606	
28,60	0,1052	137,82	599,65	0,03612	
28,62	0,1054	139,00	599,56	0,03604	
28,64	0,1056	138,51	599,58	0,03586	
28,66	0,1057	138,14	599,73	0,03578	
28,68	0,1057	139,12	599,80	0,03583	
28,70	0,1056	141,14	599,73	0,03593	
28,72	0,1056	142,46	599,60	0,03602	
28,74	0,1056	143,57	599,56	0,03611	
28,76	0,1057	144,59	599,67	0,03611	
28,78	0,1057	145,19	599,76	0,03601	
28,80	0,1056	145,73	599,69	0,03586	
28,82	0,1056	145,99	599,58	0,03578	
28,84	0,1056	145,74	599,60	0,03581	
28,86	0,1057	146,08	599,70	0,03588	
28,88	0,1057	147,69	599,71	0,03589	
28,90	0,1056	149,65	599,62	0,03596	
28,92	0,1056	150,18	599,57	0,03607	
28,94	0,1057	149,54	599,66	0,03606	
28,96	0,1057	150,60	599,75	0,03593	
28,98	0,1056	153,49	599,69	0,03582	
29,00	0,1056	154,81	599,59	0,03576	
29,02	0,1056	153,68	599,60	0,03582	
29,04	0,1057	153,15	599,71	0,03591	
29,06	0,1057	154,37	599,74	0,03598	
29,08	0,1056	155,78	599,65	0,03602	
29,10	0,1056	156,15	599,58	0,03597	
29,12	0,1056	155,75	599,64	0,03594	
29,14	0,1057	156,22	599,71	0,03592	
29,16	0,1057	158,03	599,67	0,03580	
29,18	0,1056	159,12	599,58	0,03572	
29,20	0,1056	158,75	599,59	0,03581	
29,22	0,1057	158,44	599,70	0,03586	
29,24	0,1057	159,46	599,73	0,03595	
29,26	0,1056	161,62	599,64	0,03612	
29,28	0,1054	161,96	599,57	0,03586	
29,30	0,1052	160,44	599,63	0,03541	
29,32	0,1051	160,74	599,71	0,03519	
29,34	0,1050	163,46	599,66	0,03496	
29,36	0,1049	164,83	599,57	0,03450	
29,38	0,1049	163,80	599,57	0,03416	
29,40	0,1050	162,45	599,71	0,03397	
29,42	0,1050	162,79	599,79	0,03349	
29,44	0,1050	164,69	599,72	0,03301	
29,46	0,1049	165,93	599,59	0,03274	
29,48	0,1049	166,16	599,56	0,03244	
29,50	0,1050	165,70	599,67	0,03211	
29,52	0,1049	165,41	599,76	0,03206	
29,54	0,1045	165,62	599,69	0,03191	
29,56	0,1043	166,14	599,59	0,03145	
29,58	0,1043	165,80	599,64	0,03080	
29,60	0,1044	165,61	599,72	0,03027	
29,62	0,1043	167,02	599,68	0,02991	
29,64	0,1043	167,13	599,58	0,02970	
29,66	0,1043	164,92	599,59	0,02966	
29,68	0,1043	162,98	599,70	0,02939	
29,70	0,1042	163,61	599,74	0,02874	
29,72	0,1038	165,32	599,64	0,02709	
29,74	0,1036	166,17	599,57	0,02402	
29,76	0,1036	165,20	599,66	0,02172	
29,78	0,1037	164,85	599,73	0,02081	
29,80	0,1036	166,86	599,66	0,02026	
29,82	0,1035	166,62	599,58	0,01857	
29,84	0,1036	164,00	599,62	0,01674	
29,86	0,1037	163,09	599,69	0,01597	
29,88	0,1035	164,58	599,64	0,01589	
29,90	0,1031	165,08	599,56	0,01584	
29,92	0,1030	163,57	599,61	0,01577	
29,94	0,1030	162,13	599,77	0,01564	
29,96	0,1030	162,73	599,80	0,01550	
29,98	0,1029	164,85	599,67	0,01547	
30,00	0,1029	165,61	599,62	0,01562	
30,02	0,1030	164,18	599,71	0,01566	
30,04	0,1030	164,23	599,71	0,01560	
30,06	0,1029	165,31	599,60	0,01555	
30,08	0,1029	163,68	599,56	0,01545	
30,10	0,1030	160,11	599,67	0,01513	
30,12	0,1029	159,64	599,74	0,01495	
30,14	0,1025	161,55	599,66	0,01515	
30,16	0,1022	161,98	599,55	0,01526	
30,18	0,1022	160,16	599,62	0,01523	
30,20	0,1023	159,45	599,76	0,01532	
30,22	0,1023	160,83	599,75	0,01531	
30,24	0,1022	162,45	599,62	0,01508	
30,26	0,1022	161,91	599,61	0,01495	
30,28	0,1023	160,16	599,69	0,01500	
30,30	0,1023	160,74	599,66	0,01499	
30,32	0,1022	162,05	599,56	0,01498	
30,34	0,1022	160,06	599,59	0,01511	
30,36	0,1023	156,34	599,78	0,01521	
30,38	0,1022	156,41	599,87	0,01514	
30,40	0,1018	158,15	599,75	0,01505	
30,42	0,1016	159,35	599,61	0,01495	
30,44	0,1016	159,02	599,67	0,01491	
30,46	0,1017	159,48	599,73	0,01496	
30,48	0,1016	160,70	599,64	0,01512	
30,50	0,1016	159,29	599,57	0,01514	
30,52	0,1016	155,34	599,65	0,01501	
30,54	0,1017	153,64	599,71	0,01506	
30,56	0,1016	156,25	599,64	0,01507	
30,58	0,1015	157,94	599,54	0,01485	
30,60	0,1016	156,00	599,64	0,01475	
30,62	0,1017	154,44	599,80	0,01492	
30,64	0,1017	156,26	599,80	0,01501	
30,66	0,1016	158,75	599,66	0,01499	
30,68	0,1015	158,75	599,58	0,01514	
30,70	0,1016	157,15	599,63	0,01522	
30,72	0,1015	157,19	599,65	0,01504	
30,74	0,1011	156,86	599,60	0,01484	
30,76	0,1009	154,57	599,58	0,01474	
30,78	0,1010	151,90	599,68	0,01473	
30,80	0,1010	152,10	599,75	0,01485	
30,82	0,1009	154,47	599,67	0,01497	
30,84	0,1009	155,79	599,56	0,01499	
30,86	0,1009	154,35	599,61	0,01495	
30,88	0,1010	153,27	599,73	0,01495	
30,90	0,1010	154,51	599,70	0,01481	
30,92	0,1009	155,66	599,58	0,01470	
30,94	0,1009	154,44	599,58	0,01479	
30,96	0,1010	152,72	599,71	0,01494	
30,98	0,1010	153,42	599,74	0,01501	
31,00	0,1009	155,31	599,62	0,01534	
31,02	0,1009	155,35	599,56	0,01205	
31,04	0,1010	153,29	599,67	-0,00781	
31,06	0,1010	152,80	599,77	-0,03263	
31,08	0,1009	154,32	599,69	-0,04827	
31,10	0,1009	154,20	599,56	-0,05953	
31,12	0,1009	151,49	599,61	-0,06972	
31,14	0,1010	149,87	599,76	-0,07851	
31,16	0,1010	151,03	599,75	-0,08719	
31,18	0,1009	152,24	599,62	-0,09980	
31,20	0,1009	151,10	599,58	-0,1020	
31,22	0,1010	149,54	599,66	-0,09806	
31,24	0,1010	150,20	599,70	-0,09559	
31,26	0,1009	151,93	599,60	-0,09491	
31,28	0,1009	151,99	599,54	-0,09429	
31,30	0,1010	149,96	599,70	-0,09348	
31,32	0,1010	149,48	599,86	-0,09270	
31,34	0,1010	151,06	599,80	-0,09218	
31,36	0,1009	152,59	599,63	-0,09163	
31,38	0,1009	151,94	599,60	-0,09145	
31,40	0,1010	150,79	599,66	-0,09154	
31,42	0,1009	151,47	599,63	-0,09163	
31,44	0,1009	151,77	599,55	-0,09165	
31,46	0,1009	149,47	599,61	-0,09189	
31,48	0,1010	146,70	599,77	-0,09243	
31,50	0,1010	147,73	599,78	-0,09294	
31,52	0,1009	151,01	599,64	-0,09364	
31,54	0,1009	151,75	599,58	-0,09442	
31,56	0,1010	150,29	599,66	-0,09496	
31,58	0,1010	150,56	599,67	-0,09494	
31,60	0,1009	151,93	599,57	-0,09444	
31,62	0,1009	150,26	599,57	-0,09427	
31,64	0,1010	146,27	599,76	-0,09370	
31,66	0,1010	145,79	599,85	-0,09284	
31,68	0,1009	149,30	599,73	-0,09246	
31,70	0,1009	151,15	599,58	-0,09212	
31,72	0,1009	149,58	599,60	-0,09115	
31,74	0,1010	148,46	599,70	-0,09055	
31,76	0,1010	148,67	599,68	-0,09091	
31,78	0,1009	148,53	599,57	-0,09088	
31,80	0,1009	147,01	599,57	-0,09048	
31,82	0,1010	145,46	599,74	-0,09034	
31,84	0,1010	145,83	599,79	-0,09079	
31,86	0,1009	147,99	599,66	-0,09148	
31,88	0,1009	148,50	599,58	-0,09212	
31,90	0,1010	146,66	599,67	-0,09305	
31,92	0,1010	146,11	599,72	-0,09368	
31,94	0,1009	147,97	599,63	-0,09412	
31,96	0,1009	147,62	599,58	-0,09444	
31,98	0,1010	144,55	599,67	-0,09428	
32,00	0,1010	144,68	599,69	-0,09363	
32,02	0,1009	147,36	599,59	-0,09273	
32,04	0,1009	146,61	599,57	-0,09222	
32,06	0,1010	143,13	599,69	-0,09142	
32,08	0,1010	143,28	599,74	-0,09051	
32,10	0,1009	146,36	599,63	-0,08998	
32,12	0,1009	146,56	599,55	-0,08967	
32,14	0,1010	143,77	599,67	-0,08966	
32,16	0,1010	142,71	599,78	-0,08986	
32,18	0,1010	144,35	599,70	-0,09030	
32,20	0,1009	145,66	599,56	-0,09062	
32,22	0,1009	144,31	599,60	-0,09096	
32,24	0,1010	142,52	599,76	-0,09147	
32,26	0,1010	143,39	599,76	-0,09184	
32,28	0,1009	145,23	599,61	-0,09209	
32,30	0,1009	144,06	599,57	-0,09243	
32,32	0,1010	142,02	599,70	-0,09275	
32,34	0,1010	142,40	599,77	-0,09264	
32,36	0,1009	144,73	599,65	-0,09227	
32,38	0,1009	144,41	599,58	-0,09175	
32,40	0,1010	141,28	599,66	-0,09114	
32,42	0,1010	141,28	599,70	-0,09071	
32,44	0,1009	143,95	599,61	-0,09063	
32,46	0,1009	143,41	599,55	-0,09037	
32,48	0,1010	139,80	599,68	-0,08962	
32,50	0,1011	139,22	599,79	-0,08888	
32,52	0,1010	142,51	599,71	-0,08822	
32,54	0,1009	144,55	599,56	-0,08745	
32,56	0,1011	142,10	599,61	-0,08692	
32,58	0,1015	139,98	599,78	-0,08684	
32,60	0,1017	140,86	599,76	-0,08667	
32,62	0,1016	142,21	599,62	-0,08663	
32,64	0,1016	140,53	599,60	-0,08723	
32,66	0,1017	138,88	599,64	-0,08775	
32,68	0,1016	140,14	599,62	-0,08823	
32,70	0,1016	140,99	599,58	-0,08862	
32,72	0,1016	138,60	599,65	-0,08909	
32,74	0,1017	137,06	599,71	-0,08926	
32,76	0,1016	139,52	599,63	-0,08887	
32,78	0,1016	141,41	599,54	-0,08850	
32,80	0,1016	139,50	599,64	-0,08809	
32,82	0,1017	137,53	599,79	-0,08771	
32,84	0,1017	139,41	599,75	-0,08708	
32,86	0,1016	141,89	599,59	-0,08670	
32,88	0,1016	141,09	599,58	-0,08617	
32,90	0,1017	138,51	599,74	-0,08544	
32,92	0,1017	138,75	599,80	-0,08505	
32,94	0,1016	140,56	599,67	-0,08476	
32,96	0,1016	139,75	599,57	-0,08447	
32,98	0,1019	137,01	599,67	-0,08413	
33,00	0,1023	136,11	599,76	-0,08389	
33,02	0,1023	137,85	599,67	-0,08381	
33,04	0,1022	138,37	599,56	-0,08394	
33,06	0,1023	135,45	599,67	-0,08455	
33,08	0,1024	134,23	599,78	-0,08493	
33,10	0,1023	136,52	599,70	-0,08502	
33,12	0,1022	137,87	599,56	-0,08497	
33,14	0,1023	135,64	599,59	-0,08486	
33,16	0,1024	134,17	599,75	-0,08475	
33,18	0,1024	135,46	599,77	-0,08455	
33,20	0,1023	137,34	599,63	-0,08454	
33,22	0,1022	136,13	599,59	-0,08448	
33,24	0,1024	134,02	599,69	-0,08457	
33,26	0,1026	135,13	599,68	-0,08467	
33,28	0,1028	137,71	599,56	-0,08475	
33,30	0,1029	136,65	599,57	-0,08496	
33,32	0,1030	133,00	599,78	-0,08506	
33,34	0,1030	133,14	599,86	-0,08469	
33,36	0,1029	136,27	599,72	-0,08446	
33,38	0,1028	137,43	599,57	-0,08458	
33,40	0,1029	135,70	599,62	-0,08494	
33,42	0,1030	134,45	599,73	-0,08516	
33,44	0,1030	135,04	599,67	-0,08510	
33,46	0,1029	135,82	599,56	-0,08503	
33,48	0,1030	134,26	599,62	-0,08458	
33,50	0,1033	133,33	599,74	-0,08416	
33,52	0,1035	135,90	599,68	-0,08401	
33,54	0,1035	137,69	599,55	-0,08414	
33,56	0,1036	134,85	599,60	-0,08418	
33,58	0,1037	131,98	599,78	-0,08418	
33,60	0,1037	132,90	599,81	-0,08416	
33,62	0,1036	135,17	599,65	-0,08410	
33,64	0,1036	135,31	599,57	-0,08398	
33,66	0,1036	133,46	599,67	-0,08388	
33,68	0,1037	133,62	599,71	-0,08399	
33,70	0,1036	135,05	599,59	-0,08412	
33,72	0,1036	134,21	599,55	-0,08418	
33,74	0,1038	131,77	599,70	-0,08412	
33,76	0,1042	131,94	599,79	-0,08406	
33,78	0,1042	134,41	599,68	-0,08396	
33,80	0,1042	135,23	599,56	-0,08383	
33,82	0,1043	133,37	599,67	-0,08375	
33,84	0,1044	132,59	599,85	-0,08384	
33,86	0,1043	134,10	599,80	-0,08400	
33,88	0,1042	135,44	599,62	-0,08415	
33,90	0,1042	134,35	599,57	-0,08420	
33,92	0,1043	132,58	599,70	-0,08403	
33,94	0,1044	133,19	599,76	-0,08385	
33,96	0,1043	134,91	599,64	-0,08379	
33,98	0,1044	134,04	599,54	-0,08380	
34,00	0,1048	131,46	599,68	-0,08382	
34,02	0,1050	130,78	599,84	-0,08388	
34,04	0,1050	132,97	599,79	-0,08398	
34,06	0,1049	134,41	599,61	-0,08400	
34,08	0,1049	132,78	599,59	-0,08398	
34,10	0,1050	131,58	599,73	-0,08386	
34,12	0,1050	133,03	599,76	-0,08378	
34,14	0,1049	135,10	599,62	-0,08370	
34,16	0,1049	133,88	599,55	-0,08370	
34,18	0,1053	130,57	599,69	-0,08373	
34,20	0,1056	130,72	599,81	-0,08384	
34,22	0,1056	133,77	599,72	-0,08392	
34,24	0,1056	134,87	599,57	-0,08388	
34,26	0,1056	132,71	599,61	-0,08378	
34,28	0,1057	131,49	599,75	-0,08366	
34,30	0,1057	133,11	599,73	-0,08366	
34,32	0,1056	134,95	599,60	-0,08370	
34,34	0,1056	132,98	599,59	-0,08386	
34,36	0,1057	131,25	599,70	-0,08399	
34,38	0,1057	132,90	599,69	-0,08403	
34,40	0,1057	135,09	599,57	-0,08399	
34,42	0,1060	133,85	599,57	-0,08388	
34,44	0,1063	131,81	599,75	-0,08376	
34,46	0,1064	132,77	599,80	-0,08366	
34,48	0,1063	135,00	599,65	-0,08368	
34,50	0,1062	135,25	599,55	-0,08378	
34,52	0,1063	133,45	599,65	-0,08381	
34,54	0,1064	133,54	599,77	-0,08378	
34,56	0,1063	135,60	599,70	-0,08375	
34,58	0,1062	136,38	599,56	-0,08370	
34,60	0,1063	134,51	599,62	-0,08362	
34,62	0,1065	133,29	599,77	-0,08362	
34,64	0,1068	135,67	599,75	-0,08365	
34,66	0,1069	138,35	599,59	-0,08375	
34,68	0,1069	137,10	599,57	-0,08379	
34,70	0,1070	134,52	599,72	-0,08379	
34,72	0,1071	135,71	599,77	-0,08375	
34,74	0,1069	138,44	599,63	-0,08363	
34,76	0,1069	138,03	599,56	-0,08353	
34,78	0,1070	134,48	599,72	-0,08351	
34,80	0,1071	134,18	599,81	-0,08356	
34,82	0,1069	137,22	599,67	-0,08370	
34,84	0,1069	138,30	599,55	-0,08381	
34,86	0,1070	135,40	599,69	-0,08374	
34,88	0,1071	134,54	599,85	-0,08364	
34,90	0,1071	136,87	599,78	-0,08357	
34,92	0,1072	138,15	599,60	-0,08355	
34,94	0,1075	136,21	599,61	-0,08354	
34,96	0,1077	135,01	599,74	-0,08356	
34,98	0,1077	136,56	599,72	-0,08362	
35,00	0,1076	138,29	599,58	-0,08371	
35,02	0,1076	136,21	599,58	-0,08372	
35,04	0,1077	133,85	599,73	-0,08365	
35,06	0,1077	135,58	599,73	-0,08352	
35,08	0,1076	138,21	599,59	-0,08348	
35,10	0,1076	137,96	599,55	-0,08355	
35,12	0,1077	136,00	599,75	-0,08367	
35,14	0,1078	135,83	599,89	-0,08373	
35,16	0,1077	137,71	599,78	-0,08375	
35,18	0,1076	139,03	599,60	-0,08369	
35,20	0,1080	137,67	599,61	-0,08357	
35,22	0,1083	136,46	599,73	-0,08347	
35,24	0,1084	137,65	599,69	-0,08340	
35,26	0,1082	139,00	599,56	-0,08340	
35,28	0,1083	137,34	599,58	-0,08351	
35,30	0,1084	135,23	599,76	-0,08360	
35,32	0,1084	136,24	599,80	-0,08364	
35,34	0,1083	138,35	599,64	-0,08360	
35,36	0,1083	137,37	599,57	-0,08348	
35,38	0,1084	135,22	599,69	-0,08337	
35,40	0,1084	135,52	599,73	-0,08328	
35,42	0,1083	137,78	599,61	-0,08329	
35,44	0,1083	137,11	599,55	-0,08344	
35,46	0,1084	133,93	599,72	-0,08360	
35,48	0,1084	134,08	599,82	-0,08369	
35,50	0,1083	137,20	599,70	-0,08362	
35,52	0,1085	138,53	599,55	-0,08347	
35,54	0,1089	137,02	599,62	-0,08336	
35,56	0,1091	136,11	599,79	-0,08335	
35,58	0,1090	137,50	599,77	-0,08346	
35,60	0,1089	139,03	599,60	-0,08361	
35,62	0,1089	137,87	599,61	-0,08369	
35,64	0,1091	136,04	599,77	-0,08368	
35,66	0,1091	137,57	599,77	-0,08361	
35,68	0,1089	140,10	599,61	-0,08351	
35,70	0,1089	138,82	599,56	-0,08338	
35,72	0,1090	136,41	599,69	-0,08327	
35,74	0,1091	136,68	599,75	-0,08334	
35,76	0,1090	138,62	599,62	-0,08349	
35,78	0,1089	138,91	599,55	-0,08354	
35,80	0,1092	136,81	599,72	-0,08348	
35,82	0,1095	136,33	599,87	-0,08342	
35,84	0,1097	138,55	599,77	-0,08339	
35,86	0,1096	139,86	599,60	-0,08335	
35,88	0,1097	137,91	599,64	-0,08329	
35,90	0,1098	136,60	599,75	-0,08340	
35,92	0,1097	139,05	599,67	-0,08350	
35,94	0,1096	140,23	599,56	-0,08350	
35,96	0,1097	136,11	599,66	-0,08338	
35,98	0,1098	133,02	599,79	-0,08323	
36,00	0,1097	135,42	599,72	-0,08320	
36,02	0,1096	138,27	599,57	-0,08330	
36,04	0,1097	136,26	599,63	-0,08340	
36,06	0,1098	133,88	599,77	-0,08343	
36,08	0,1097	135,83	599,72	-0,08347	
36,10	0,1096	138,38	599,57	-0,08343	
36,12	0,1096	136,41	599,61	-0,08329	
36,14	0,1098	134,06	599,75	-0,08317	
36,16	0,1097	135,93	599,73	-0,08317	
36,18	0,1097	138,44	599,59	-0,08323	
36,20	0,1099	136,42	599,61	-0,08326	
36,22	0,1103	134,02	599,72	-0,08337	
36,24	0,1104	135,96	599,66	-0,08344	
36,26	0,1103	137,86	599,55	-0,08337	
36,28	0,1103	135,07	599,62	-0,08324	
36,30	0,1104	132,18	599,78	-0,08317	
36,32	0,1104	133,88	599,75	-0,08319	
36,34	0,1103	136,81	599,59	-0,08329	
36,36	0,1103	135,58	599,58	-0,08337	
36,38	0,1104	132,98	599,75	-0,08339	
36,40	0,1104	133,32	599,78	-0,08337	
36,42	0,1103	135,30	599,64	-0,08332	
36,44	0,1103	135,36	599,56	-0,08322	
36,46	0,1105	133,44	599,68	-0,08314	
36,48	0,1109	134,12	599,73	-0,08313	
36,50	0,1109	136,65	599,62	-0,08324	
36,52	0,1109	136,12	599,54	-0,08337	
36,54	0,1111	132,82	599,69	-0,08340	
36,56	0,1111	132,12	599,83	-0,08339	
36,58	0,1111	134,35	599,73	-0,08332	
36,60	0,1110	135,95	599,58	-0,08325	
36,62	0,1110	134,55	599,63	-0,08318	
36,64	0,1111	133,51	599,71	-0,08313	
36,66	0,1110	135,42	599,63	-0,08321	
36,68	0,1109	135,75	599,53	-0,08332	
36,70	0,1110	132,23	599,67	-0,08338	
36,72	0,1111	129,98	599,87	-0,08337	
36,74	0,1114	132,23	599,83	-0,08331	
36,76	0,1115	135,20	599,64	-0,08327	
36,78	0,1117	134,79	599,59	-0,08326	
36,80	0,1118	132,99	599,71	-0,08318	
36,82	0,1118	133,60	599,71	-0,08318	
36,84	0,1117	135,31	599,58	-0,08327	
36,86	0,1117	133,80	599,57	-0,08333	
36,88	0,1118	130,44	599,72	-0,08332	
36,90	0,1118	130,74	599,76	-0,08324	
36,92	0,1117	133,91	599,61	-0,08318	
36,94	0,1117	133,73	599,56	-0,08314	
36,96	0,1118	130,71	599,73	-0,08308	
36,98	0,1118	130,98	599,80	-0,08310	
37,00	0,1117	134,13	599,67	-0,08321	
37,02	0,1119	135,22	599,54	-0,08336	
37,04	0,1123	132,39	599,66	-0,08338	
37,06	0,1124	130,79	599,86	-0,08333	
37,08	0,1124	132,62	599,84	-0,08327	
37,10	0,1123	133,97	599,64	-0,08318	
37,12	0,1123	133,42	599,55	-0,08314	
37,14	0,1124	132,20	599,73	-0,08318	
37,16	0,1124	132,37	599,84	-0,08329	
37,18	0,1123	133,31	599,71	-0,08341	
37,20	0,1123	132,57	599,57	-0,08338	
37,22	0,1125	130,41	599,62	-0,08330	
37,24	0,1129	130,21	599,73	-0,08324	
37,26	0,1130	132,28	599,68	-0,08315	
37,28	0,1130	133,16	599,55	-0,08309	
37,30	0,1130	131,33	599,61	-0,08308	
37,32	0,1137	130,04	599,75	-0,08316	
37,34	0,1869	132,46	599,71	-0,08323	
37,36	0,3570	134,96	599,58	-0,08321	
37,38	0,4656	133,08	599,61	-0,08309	
37,40	0,4927	130,70	599,71	-0,08300	
37,42	0,4915	132,40	599,67	-0,08302	
37,44	0,4894	134,46	599,54	-0,08303	
37,46	0,4895	133,02	599,59	-0,08305	
37,48	0,4899	130,10	599,83	-0,08313	
37,50	0,4899	130,73	599,91	-0,08323	
37,52	0,4898	134,03	599,74	-0,08321	
37,54	0,4900	135,21	599,59	-0,08318	
37,56	0,4903	133,61	599,65	-0,08316	
37,58	0,4905	133,62	599,71	-0,08323	
37,60	0,4906	136,64	599,60	-0,08347	
37,62	0,4908	139,11	599,55	-0,08385	
37,64	0,4915	142,01	599,75	-0,08437	
37,66	0,4923	152,45	599,87	-0,08491	
37,68	0,4935	171,47	599,75	-0,08539	
37,70	0,4952	194,04	599,57	-0,08593	
37,72	0,4975	217,53	599,63	-0,08663	
37,74	0,5001	246,05	599,79	-0,08754	
37,76	0,5030	282,29	599,74	-0,08857	
37,78	0,5063	323,64	599,57	-0,08963	
37,80	0,5101	366,01	599,62	-0,09074	
37,82	0,5144	412,64	599,79	-0,09194	
37,84	0,5189	467,48	599,77	-0,09311	
37,86	0,5237	527,54	599,59	-0,09431	
37,88	0,5290	588,37	599,57	-0,09556	
37,90	0,5348	651,72	599,76	-0,09693	
37,92	0,5410	722,13	599,83	-0,09853	
37,94	0,5474	797,54	599,66	-0,1003	
37,96	0,5543	872,51	599,57	-0,1021	
37,98	0,5617	947,78	599,68	-0,1040	
38,00	0,5695	1028,9	599,72	-0,1061	
38,02	0,5775	1113,5	599,59	-0,1083	
38,04	0,5860	1195,4	599,58	-0,1109	
38,06	0,5951	1273,6	599,75	-0,1140	
38,08	0,6045	1354,5	599,79	-0,1174	
38,10	0,6141	1436,1	599,63	-0,1215	
38,12	0,6242	1510,0	599,58	-0,1261	
38,14	0,6348	1576,3	599,70	-0,1312	
38,16	0,6457	1641,0	599,73	-0,1368	
38,18	0,6570	1701,9	599,60	-0,1429	
38,20	0,6688	1752,8	599,56	-0,1497	
38,22	0,6810	1795,3	599,75	-0,1571	
38,24	0,6936	1835,3	599,85	-0,1649	
38,26	0,7063	1874,0	599,71	-0,1731	
38,28	0,7196	1907,1	599,58	-0,1818	
38,30	0,7334	1934,0	599,66	-0,1908	
38,32	0,7477	1960,2	599,71	-0,2001	
38,34	0,7622	1986,7	599,61	-0,2096	
38,36	0,7771	2007,8	599,54	-0,2195	
38,38	0,7924	2023,9	599,71	-0,2299	
38,40	0,8082	2042,6	599,85	-0,2406	
38,42	0,8243	2065,1	599,76	-0,2514	
38,44	0,8407	2085,8	599,59	-0,2626	
38,46	0,8578	2101,9	599,64	-0,2740	
38,48	0,8753	2117,5	599,75	-0,2856	
38,50	0,8929	2136,1	599,67	-0,2976	
38,52	0,9110	2152,8	599,56	-0,3100	
38,54	0,9296	2164,3	599,63	-0,3226	
38,56	0,9486	2176,7	599,76	-0,3354	
38,58	0,9678	2193,0	599,71	-0,3482	
38,60	0,9874	2208,1	599,56	-0,3609	
38,62	1,007	2218,4	599,60	-0,3737	
38,64	1,027	2228,5	599,78	-0,3867	
38,66	1,047	2240,9	599,79	-0,3997	
38,68	1,067	2253,5	599,62	-0,4128	
38,70	1,087	2262,6	599,57	-0,4260	
38,72	1,107	2269,4	599,70	-0,4391	
38,74	1,127	2278,9	599,75	-0,4522	
38,76	1,147	2289,9	599,62	-0,4652	
38,78	1,167	2296,7	599,57	-0,4783	
38,80	1,187	2300,8	599,73	-0,4915	
38,82	1,207	2309,1	599,81	-0,5048	
38,84	1,227	2319,8	599,66	-0,5182	
38,86	1,247	2326,6	599,58	-0,5317	
38,88	1,267	2329,7	599,72	-0,5451	
38,90	1,287	2335,9	599,78	-0,5584	
38,92	1,307	2344,6	599,64	-0,5717	
38,94	1,327	2350,4	599,56	-0,5852	
38,96	1,347	2352,6	599,72	-0,5988	
38,98	1,367	2357,2	599,81	-0,6123	
39,00	1,387	2364,7	599,68	-0,6259	
39,02	1,407	2370,4	599,57	-0,6396	
39,04	1,427	2372,4	599,70	-0,6534	
39,06	1,447	2376,5	599,81	-0,6669	
39,08	1,467	2383,8	599,69	-0,6805	
39,10	1,487	2389,0	599,57	-0,6943	
39,12	1,507	2390,2	599,67	-0,7082	
39,14	1,527	2392,8	599,78	-0,7221	
39,16	1,547	2398,9	599,69	-0,7360	
39,18	1,567	2403,9	599,59	-0,7500	
39,20	1,587	2404,8	599,67	-0,7639	
39,22	1,607	2407,6	599,70	-0,7778	
39,24	1,627	2414,1	599,59	-0,7918	
39,26	1,647	2417,6	599,56	-0,8058	
39,28	1,667	2417,5	599,72	-0,8199	
39,30	1,687	2419,8	599,79	-0,8341	
39,32	1,707	2425,3	599,65	-0,8482	
39,34	1,727	2428,2	599,57	-0,8624	
39,36	1,747	2428,4	599,69	-0,8766	
39,38	1,767	2431,0	599,74	-0,8908	
39,40	1,787	2436,3	599,61	-0,9050	
39,42	1,807	2438,4	599,58	-0,9194	
39,44	1,827	2437,6	599,73	-0,9338	
39,46	1,847	2439,8	599,78	-0,9482	
39,48	1,867	2445,3	599,64	-0,9627	
39,50	1,887	2448,1	599,58	-0,9773	
39,52	1,907	2447,1	599,73	-0,9918	
39,54	1,927	2449,0	599,79	-1,006	
39,56	1,947	2453,7	599,65	-1,021	
39,58	1,967	2455,4	599,57	-1,035	
39,60	1,987	2453,8	599,70	-1,050	
39,62	2,007	2454,5	599,78	-1,065	
39,64	2,027	2459,0	599,65	-1,080	
39,66	2,047	2460,9	599,57	-1,094	
39,68	2,067	2459,0	599,68	-1,109	
39,70	2,087	2460,2	599,73	-1,124	
39,72	2,107	2464,2	599,60	-1,139	
39,74	2,127	2465,5	599,56	-1,154	
39,76	2,147	2463,2	599,76	-1,169	
39,78	2,167	2463,9	599,87	-1,184	
39,80	2,187	2468,7	599,73	-1,199	
39,82	2,207	2471,5	599,61	-1,214	
39,84	2,227	2469,9	599,73	-1,229	
39,86	2,247	2470,7	599,79	-1,244	
39,88	2,267	2474,3	599,65	-1,259	
39,90	2,287	2475,6	599,57	-1,274	
39,92	2,307	2472,7	599,71	-1,289	
39,94	2,327	2472,5	599,77	-1,305	
39,96	2,347	2476,6	599,65	-1,320	
39,98	2,367	2477,5	599,60	-1,335	
40,00	2,387	2475,3	599,72	-1,350	
40,02	2,407	2475,7	599,74	-1,366	
40,04	2,427	2479,5	599,61	-1,381	
40,06	2,447	2480,5	599,58	-1,397	
40,08	2,467	2478,0	599,74	-1,412	
40,10	2,487	2478,1	599,80	-1,428	
40,12	2,507	2481,3	599,66	-1,443	
40,14	2,527	2481,8	599,62	-1,459	
40,16	2,547	2479,2	599,77	-1,474	
40,18	2,567	2480,5	599,79	-1,490	
40,20	2,587	2483,9	599,64	-1,506	
40,22	2,607	2482,9	599,63	-1,521	
40,24	2,627	2479,4	599,74	-1,537	
40,26	2,647	2480,7	599,69	-1,553	
40,28	2,667	2483,7	599,58	-1,569	
40,30	2,687	2482,0	599,64	-1,584	
40,32	2,707	2478,8	599,76	-1,600	
40,34	2,727	2480,6	599,69	-1,616	
40,36	2,747	2483,9	599,58	-1,632	
40,38	2,767	2482,6	599,68	-1,648	
40,40	2,787	2480,9	599,81	-1,664	
40,42	2,807	2482,9	599,72	-1,680	
40,44	2,827	2484,5	599,57	-1,696	
40,46	2,847	2481,9	599,67	-1,712	
40,48	2,867	2479,7	599,86	-1,728	
40,50	2,887	2481,1	599,81	-1,744	
40,52	2,907	2482,7	599,64	-1,760	
40,54	2,927	2480,4	599,68	-1,777	
40,56	2,947	2479,0	599,76	-1,793	
40,58	2,967	2481,2	599,67	-1,809	
40,60	2,987	2482,3	599,57	-1,825	
40,62	3,007	2479,0	599,70	-1,842	
40,64	3,027	2476,5	599,79	-1,858	
40,66	3,047	2478,1	599,67	-1,874	
40,68	3,067	2478,4	599,60	-1,891	
40,70	3,087	2474,7	599,72	-1,907	
40,72	3,107	2474,4	599,75	-1,924	
40,74	3,127	2477,7	599,62	-1,940	
40,76	3,147	2476,9	599,64	-1,957	
40,78	3,167	2473,1	599,76	-1,973	
40,80	3,187	2473,4	599,71	-1,990	
40,82	3,207	2475,4	599,60	-2,006	
40,84	3,227	2472,9	599,65	-2,023	
40,86	3,247	2469,6	599,70	-2,040	
40,88	3,267	2470,8	599,61	-2,056	
40,90	3,287	2470,5	599,59	-2,073	
40,92	3,307	2466,5	599,71	-2,090	
40,94	3,327	2465,4	599,71	-2,107	
40,96	3,347	2467,7	599,60	-2,124	
40,98	3,367	2466,4	599,65	-2,141	
41,00	3,387	2463,0	599,75	-2,158	
41,02	3,407	2463,6	599,68	-2,175	
41,04	3,427	2464,9	599,61	-2,192	
41,06	3,448	2462,0	599,72	-2,209	
41,08	3,467	2459,8	599,76	-2,226	
41,10	3,487	2461,3	599,64	-2,243	
41,12	3,507	2460,6	599,62	-2,260	
41,14	3,527	2456,8	599,75	-2,277	
41,16	3,547	2456,0	599,73	-2,294	
41,18	3,567	2457,4	599,61	-2,312	
41,20	3,587	2455,0	599,66	-2,329	
41,22	3,607	2451,7	599,74	-2,346	
41,24	3,627	2452,9	599,65	-2,363	
41,26	3,647	2453,3	599,60	-2,381	
41,28	3,667	2449,1	599,73	-2,398	
41,30	3,687	2446,3	599,77	-2,416	
41,32	3,707	2447,7	599,64	-2,433	
41,34	3,727	2446,6	599,62	-2,451	
41,36	3,747	2441,5	599,74	-2,468	
41,38	3,767	2440,7	599,72	-2,485	
41,40	3,787	2442,6	599,59	-2,503	
41,42	3,807	2439,7	599,67	-2,521	
41,44	3,827	2435,6	599,80	-2,538	
41,46	3,847	2436,2	599,73	-2,556	
41,48	3,867	2437,2	599,61	-2,573	
41,50	3,887	2433,4	599,71	-2,591	
41,52	3,908	2430,1	599,80	-2,609	
41,54	3,927	2430,6	599,69	-2,626	
41,56	3,947	2429,0	599,62	-2,644	
41,58	3,967	2423,8	599,69	-2,662	
41,60	3,987	2422,1	599,66	-2,680	
41,62	4,007	2423,4	599,57	-2,698	
41,64	4,027	2420,0	599,67	-2,716	
41,66	4,047	2415,3	599,78	-2,734	
41,68	4,067	2415,3	599,69	-2,751	
41,70	4,087	2415,8	599,60	-2,769	
41,72	4,108	2411,4	599,71	-2,788	
41,74	4,127	2408,9	599,76	-2,806	
41,76	4,147	2410,1	599,63	-2,824	
41,78	4,167	2407,6	599,60	-2,842	
41,80	4,187	2401,4	599,75	-2,860	
41,82	4,207	2399,0	599,79	-2,878	
41,84	4,227	2399,6	599,65	-2,896	
41,86	4,247	2397,1	599,66	-2,914	
41,88	4,267	2391,9	599,80	-2,932	
41,90	4,288	2390,5	599,75	-2,951	
41,92	4,307	2391,0	599,63	-2,969	
41,94	4,327	2386,7	599,71	-2,987	
41,96	4,347	2381,9	599,78	-3,006	
41,98	4,367	2382,1	599,66	-3,024	
42,00	4,387	2381,3	599,63	-3,042	
42,02	4,407	2376,0	599,76	-3,061	
42,04	4,427	2372,7	599,74	-3,079	
42,06	4,447	2373,3	599,62	-3,097	
42,08	4,467	2369,6	599,68	-3,116	
42,10	4,487	2364,3	599,76	-3,134	
42,12	4,507	2363,8	599,65	-3,153	
42,14	4,527	2362,4	599,60	-3,172	
42,16	4,547	2356,3	599,75	-3,190	
42,18	4,568	2352,4	599,79	-3,209	
42,20	4,587	2352,3	599,65	-3,227	
42,22	4,607	2349,7	599,61	-3,246	
42,24	4,627	2343,9	599,71	-3,265	
42,26	4,647	2341,4	599,70	-3,284	
42,28	4,667	2341,0	599,60	-3,302	
42,30	4,687	2336,4	599,69	-3,321	
42,32	4,707	2331,4	599,77	-3,340	
42,34	4,727	2330,8	599,67	-3,359	
42,36	4,747	2329,1	599,62	-3,377	
42,38	4,767	2322,2	599,76	-3,396	
42,40	4,787	2317,8	599,79	-3,415	
42,42	4,807	2317,3	599,66	-3,434	
42,44	4,827	2313,7	599,68	-3,453	
42,46	4,847	2307,4	599,80	-3,472	
42,48	4,867	2304,7	599,74	-3,491	
42,50	4,887	2303,0	599,62	-3,510	
42,52	4,907	2296,8	599,70	-3,530	
42,54	4,927	2291,3	599,75	-3,549	
42,56	4,947	2290,2	599,63	-3,568	
42,58	4,967	2286,9	599,64	-3,587	
42,60	4,987	2279,7	599,81	-3,606	
42,62	5,007	2275,8	599,80	-3,625	
42,64	5,027	2274,7	599,66	-3,644	
42,66	5,047	2269,6	599,76	-3,663	
42,68	5,067	2263,2	599,89	-3,682	
42,70	5,087	2261,1	599,78	-3,701	
42,72	5,107	2259,5	599,69	-3,721	
42,74	5,127	2252,3	599,87	-3,740	
42,76	5,147	2245,8	599,95	-3,759	
42,78	5,167	2243,7	599,79	-3,778	
42,80	5,187	2240,6	599,67	-3,798	
42,82	5,207	2233,4	599,81	-3,817	
42,84	5,227	2228,1	599,84	-3,836	
42,86	5,247	2225,6	599,67	-3,856	
42,88	5,267	2220,4	599,66	-3,875	
42,90	5,287	2212,3	599,81	-3,895	
42,92	5,307	2207,5	599,78	-3,914	
42,94	5,327	2205,4	599,63	-3,933	
42,96	5,347	2199,4	599,75	-3,953	
42,98	5,367	2192,6	599,90	-3,972	
43,00	5,387	2189,7	599,80	-3,992	
43,02	5,407	2186,6	599,65	-4,011	
43,04	5,427	2178,4	599,76	-4,031	
43,06	5,447	2171,7	599,86	-4,050	
43,08	5,467	2168,5	599,73	-4,070	
43,10	5,487	2163,9	599,69	-4,089	
43,12	5,507	2154,9	599,92	-4,109	
43,14	5,527	2148,0	599,98	-4,128	
43,16	5,547	2144,8	599,79	-4,148	
43,18	5,567	2140,3	599,67	-4,167	
43,20	5,587	2131,9	599,79	-4,187	
43,22	5,607	2125,4	599,82	-4,207	
43,24	5,627	2121,9	599,67	-4,226	
43,26	5,647	2115,0	599,69	-4,246	
43,28	5,667	2105,5	599,82	-4,266	
43,30	5,687	2099,8	599,74	-4,285	
43,32	5,707	2095,9	599,62	-4,305	
43,34	5,727	2087,5	599,78	-4,325	
43,36	5,747	2079,0	599,91	-4,345	
43,38	5,767	2074,3	599,78	-4,364	
43,40	5,787	2069,6	599,65	-4,384	
43,42	5,807	2059,6	599,82	-4,404	
43,44	5,827	2050,8	599,94	-4,424	
43,46	5,847	2045,6	599,79	-4,444	
43,48	5,867	2040,0	599,68	-4,464	
43,50	5,887	2029,5	599,88	-4,483	
43,52	5,907	2020,7	600,00	-4,503	
43,54	5,927	2014,6	599,83	-4,523	
43,56	5,947	2007,7	599,67	-4,543	
43,58	5,967	1997,0	599,83	-4,563	
43,60	5,987	1987,7	599,95	-4,583	
43,62	6,007	1981,3	599,80	-4,603	
43,64	6,027	1973,5	599,67	-4,623	
43,66	6,047	1961,7	599,84	-4,643	
43,68	6,067	1951,8	599,93	-4,663	
43,70	6,087	1945,0	599,77	-4,683	
43,72	6,107	1936,6	599,70	-4,703	
43,74	6,127	1923,5	599,89	-4,723	
43,76	6,147	1912,1	599,96	-4,743	
43,78	6,167	1903,5	599,78	-4,763	
43,80	6,187	1893,3	599,69	-4,783	
43,82	6,207	1880,5	599,76	-4,803	
43,84	6,227	1870,9	599,71	-4,823	
43,86	6,247	1863,2	599,60	-4,843	
43,88	6,267	1850,1	599,78	-4,864	
43,90	6,287	1836,1	599,97	-4,884	
43,92	6,307	1826,1	599,89	-4,904	
43,94	6,327	1817,0	599,69	-4,924	
43,96	6,347	1803,4	599,75	-4,944	
43,98	6,367	1789,8	599,87	-4,965	
44,00	6,387	1779,3	599,76	-4,985	
44,02	6,407	1767,5	599,65	-5,005	
44,04	6,427	1750,9	599,76	-5,026	
44,06	6,447	1735,0	599,81	-5,046	
44,08	6,467	1723,0	599,67	-5,067	
44,10	6,487	1708,5	599,71	-5,087	
44,12	6,507	1689,6	599,90	-5,108	
44,14	6,527	1673,2	599,89	-5,129	
44,16	6,547	1659,8	599,69	-5,149	
44,18	6,567	1642,9	599,69	-5,170	
44,20	6,587	1621,8	599,86	-5,191	
44,22	6,607	1603,4	599,84	-5,212	
44,24	6,627	1586,3	599,68	-5,233	
44,26	6,647	1564,7	599,86	-5,254	
44,28	6,667	1540,4	600,14	-5,276	
44,30	6,687	1518,5	600,11	-5,297	
44,32	6,707	1495,8	599,87	-5,318	
44,34	6,727	1470,5	599,69	-5,339	
44,36	6,747	1441,8	599,79	-5,361	
44,38	6,767	1413,5	599,84	-5,383	
44,40	6,787	1385,4	599,70	-5,405	
44,42	6,807	1353,9	599,68	-5,427	
44,44	6,827	1316,5	599,83	-5,450	
44,46	6,847	1278,5	599,82	-5,473	
44,48	6,867	1239,6	599,66	-5,496	
44,50	6,887	1193,7	599,79	-5,520	
44,52	6,907	1140,5	600,01	-5,545	
44,54	6,927	1083,7	599,99	-5,569	
44,56	6,947	1023,9	599,77	-5,592	
44,58	6,967	960,57	599,68	-5,615	
44,60	6,987	894,82	599,84	-5,638	
44,62	7,007	834,56	599,89	-5,660	
44,64	7,027	782,23	599,73	-5,682	
44,66	7,047	735,02	599,67	-5,704	
44,68	7,067	689,29	599,83	-5,726	
44,70	7,087	649,98	599,84	-5,748	
44,72	7,107	616,99	599,67	-5,770	
44,74	7,127	582,95	599,74	-5,792	
44,76	7,147	545,03	599,98	-5,814	
44,78	7,167	509,62	600,00	-5,835	
44,80	7,187	478,83	599,78	-5,856	
44,82	7,207	449,42	599,76	-5,878	
44,84	7,227	416,60	600,05	-5,900	
44,86	7,247	384,35	600,16	-5,921	
44,88	7,267	355,47	599,98	-5,941	
44,90	7,287	328,85	599,73	-5,956	
44,92	7,307	300,92	599,88	-5,968	
44,94	7,326	271,20	600,26	-5,975	
44,96	7,341	242,27	600,32	-5,979	
44,98	7,351	215,84	600,09	-5,980	
45,00	7,356	192,38	599,79	-5,981	
45,02	7,358	172,61	599,70	-5,982	
45,04	7,359	157,92	599,89	-5,983	
45,06	7,360	148,86	599,95	-5,984	
45,08	7,360	142,67	599,77	-5,984	
45,10	7,360	137,53	599,69	-5,984	
45,12	7,360	129,41	599,96	-5,985	
45,14	7,360	121,90	600,11	-5,986	
45,16	7,360	117,15	599,97	-5,986	
45,18	7,360	112,69	599,73	-5,986	
45,20	7,360	106,39	599,86	-5,987	
45,22	7,360	100,26	600,15	-5,987	
45,24	7,360	96,47	600,16	-5,988	
45,26	7,360	93,46	599,93	-5,988	
45,28	7,360	91,26	599,70	-5,988	
45,30	7,360	88,03	599,82	-5,988	
45,32	7,360	85,05	600,06	-5,989	
45,34	7,360	82,92	600,03	-5,989	
45,36	7,360	82,18	599,80	-5,989	
45,38	7,360	82,13	599,75	-5,989	
45,40	7,360	81,57	600,02	-5,990	
45,42	7,360	81,48	600,14	-5,990	
45,44	7,360	81,63	599,99	-5,990	
45,46	7,360	82,13	599,75	-5,990	
45,48	7,360	82,02	599,74	-5,990	
45,50	7,360	81,53	599,91	-5,990	
45,52	7,360	81,45	599,90	-5,990	
45,54	7,360	81,85	599,71	-5,990	
45,56	7,360	82,00	599,69	-5,991	
45,58	7,360	81,52	599,89	-5,991	
45,60	7,360	81,46	599,95	-5,991	
45,62	7,360	81,79	599,79	-5,991	
45,64	7,360	82,15	599,68	-5,991	
45,66	7,360	81,76	599,80	-5,991	
45,68	7,360	81,56	599,87	-5,992	
45,70	7,360	81,78	599,73	-5,992	
45,72	7,360	82,14	599,70	-5,992	
45,74	7,360	81,62	599,96	-5,992	
45,76	7,360	81,47	600,11	-5,992	
45,78	7,360	81,66	599,99	-5,992	
45,80	7,360	81,96	599,76	-5,992	
45,82	7,360	82,18	599,72	-5,992	
45,84	7,360	78,48	600,03	-5,993	
45,86	7,360	69,36	600,19	-5,993	
45,88	7,360	63,07	600,08	-5,993	
45,90	7,360	60,33	599,86	-5,993	
45,92	7,360	59,60	599,68	-5,993	
45,94	7,360	59,96	599,85	-5,993	
45,96	7,360	59,40	600,06	-5,993	
45,98	7,360	58,59	600,04	-5,993	
46,00	7,360	58,36	599,84	-5,993	
46,02	7,360	58,81	599,67	-5,993	
46,04	7,360	58,46	599,79	-5,994	
46,06	7,360	58,22	599,95	-5,994	
46,08	7,360	58,34	599,89	-5,994	
46,10	7,360	58,78	599,70	-5,994	
46,12	7,360	58,26	599,74	-5,994	
46,14	7,360	56,67	600,02	-5,994	
46,16	7,360	56,93	600,10	-5,994	
46,18	7,360	57,94	599,96	-5,994	
46,20	7,360	58,64	599,75	-5,994	
46,22	7,360	58,68	599,69	-5,994	
46,24	7,360	58,72	599,81	-5,994	
46,26	7,360	60,13	599,82	-5,995	
46,28	7,360	61,72	599,68	-5,995	
46,30	7,360	60,89	599,77	-5,995	
46,32	7,360	56,98	600,02	-5,995	
46,34	7,360	56,00	600,06	-5,995	
46,36	7,360	57,39	599,91	-5,995	
46,38	7,360	58,62	599,70	-5,995	
46,40	7,360	59,24	599,73	-5,995	
46,42	7,360	59,10	600,02	-5,996	
46,44	7,360	58,69	600,12	-5,996	
46,46	7,360	58,43	599,99	-5,996	
46,48	7,360	57,45	599,77	-5,995	
46,50	7,360	57,18	599,69	-5,996	
46,52	7,360	57,88	599,92	-5,996	
46,54	7,360	58,33	600,05	-5,996	
46,56	7,360	58,44	599,95	-5,996	
46,58	7,360	58,70	599,75	-5,996	
46,60	7,360	58,96	599,68	-5,996	
46,62	7,360	58,24	599,90	-5,996	
46,64	7,360	56,92	600,03	-5,996	
46,66	7,360	55,61	599,94	-5,996	
46,68	7,360	55,30	599,74	-5,996	
46,70	7,360	55,35	599,71	-5,996	
46,72	7,360	54,84	599,95	-5,997	
46,74	7,360	54,75	600,06	-5,997	
46,76	7,360	54,87	599,92	-5,997	
46,78	7,360	55,33	599,72	-5,997	
46,80	7,360	55,51	599,71	-5,997	
46,82	7,360	55,66	599,90	-5,997	
46,84	7,360	55,65	599,94	-5,997	
46,86	7,360	56,53	599,79	-5,997	
46,88	7,360	57,84	599,57	-5,997	
46,90	7,360	59,02	599,35	-5,997	
46,92	7,360	61,80	599,14	-5,997	
46,94	7,360	65,38	598,94	-5,997	
46,96	7,360	68,23	598,73	-5,997	
46,98	7,360	70,56	598,51	-5,997	
47,00	7,360	72,90	598,29	-5,997	
47,02	7,360	75,72	598,08	-5,997	
47,04	7,360	78,30	597,87	-5,997	
47,06	7,360	80,54	597,66	-5,997	
47,08	7,360	82,20	597,45	-5,997	
47,10	7,360	84,00	597,23	-5,997	
47,12	7,360	86,14	597,00	-5,997	
47,14	7,360	88,04	596,78	-5,997	
47,16	7,360	89,86	596,57	-5,997	
47,18	7,360	91,44	596,35	-5,997	
47,20	7,360	93,19	596,14	-5,997	
47,22	7,360	95,22	595,92	-5,997	
47,24	7,360	97,43	595,70	-5,997	
47,26	7,360	99,79	595,48	-5,998	
47,28	7,360	101,62	595,23	-5,998	
47,30	7,360	103,37	594,99	-5,998	
47,32	7,360	105,39	594,77	-5,998	
47,34	7,360	107,62	594,54	-5,998	
47,36	7,360	109,87	594,31	-5,998	
47,38	7,360	111,64	594,07	-5,998	
47,40	7,360	113,44	593,83	-5,998	
47,42	7,360	115,51	593,58	-5,998	
47,44	7,360	117,64	593,35	-5,998	
47,46	7,360	119,25	593,10	-5,998	
47,48	7,360	121,01	592,85	-5,998	
47,50	7,360	122,63	592,59	-5,998	
47,52	7,360	124,58	592,33	-5,998	
47,54	7,360	126,78	592,07	-5,998	
47,56	7,360	128,55	591,83	-5,998	
47,58	7,360	130,29	591,56	-5,998	
47,60	7,360	131,86	591,28	-5,998	
47,62	7,360	133,60	591,02	-5,999	
47,64	7,360	135,16	590,75	-5,999	
47,66	7,360	136,89	590,47	-5,999	
47,68	7,360	138,45	590,18	-5,999	
47,70	7,360	139,67	589,90	-5,999	
47,72	7,360	141,29	589,59	-5,999	
47,74	7,360	142,44	589,28	-5,999	
47,76	7,360	143,75	588,99	-5,999	
47,78	7,360	145,06	588,70	-5,999	
47,80	7,360	146,15	588,40	-5,999	
47,82	7,360	147,78	588,11	-5,999	
47,84	7,360	148,85	587,81	-6,000	
47,86	7,360	149,66	587,51	-6,000	
47,88	7,360	151,10	587,20	-6,000	
47,90	7,360	152,21	586,89	-6,000	
47,92	7,360	153,67	586,57	-6,000	
47,94	7,360	155,14	586,26	-6,000	
47,96	7,360	155,84	585,95	-6,000	
47,98	7,360	156,98	585,63	-6,000	
48,00	7,360	158,38	585,31	-6,000	
48,02	7,360	159,19	584,99	-6,000	
48,04	7,360	160,46	584,67	-6,000	
48,06	7,360	161,84	584,34	-6,001	
48,08	7,360	162,44	584,00	-6,001	
48,10	7,360	163,03	583,66	-6,001	
48,12	7,360	164,55	583,34	-6,001	
48,14	7,360	165,60	583,01	-6,001	
48,16	7,360	165,85	582,67	-6,001	
48,18	7,360	166,32	582,33	-6,001	
48,20	7,360	167,80	581,99	-6,001	
48,22	7,360	168,88	581,66	-6,001	
48,24	7,360	169,26	581,33	-6,002	
48,26	7,360	169,82	580,98	-6,002	
48,28	7,360	171,29	580,65	-6,002	
48,30	7,360	172,37	580,33	-6,002	
48,32	7,360	172,62	579,99	-6,002	
48,34	7,360	172,60	579,63	-6,002	
48,36	7,360	173,06	579,27	-6,002	
48,38	7,360	174,52	578,92	-6,002	
48,40	7,360	175,59	578,58	-6,003	
48,42	7,360	175,88	578,22	-6,003	
48,44	7,360	176,00	577,87	-6,003	
48,46	7,360	177,12	577,53	-6,003	
48,48	7,360	178,60	577,19	-6,003	
48,50	7,360	179,46	576,84	-6,003	
48,52	7,360	179,68	576,48	-6,003	
48,54	7,360	179,65	576,11	-6,003	
48,56	7,360	180,63	575,76	-6,003	
48,58	7,360	182,07	575,42	-6,004	
48,60	7,360	182,81	575,07	-6,004	
48,62	7,360	182,87	574,71	-6,004	
48,64	7,360	183,29	574,36	-6,004	
48,66	7,360	184,77	574,01	-6,004	
48,68	7,360	185,87	573,67	-6,004	
48,70	7,360	186,18	573,31	-6,004	
48,72	7,360	186,14	572,93	-6,004	
48,74	7,360	186,09	572,57	-6,004	
48,76	7,360	186,22	572,23	-6,005	
48,78	7,360	187,35	571,87	-6,005	
48,80	7,360	188,72	571,52	-6,005	
48,82	7,360	189,34	571,16	-6,005	
48,84	7,360	189,44	570,80	-6,005	
48,86	7,360	189,91	570,43	-6,005	
48,88	7,360	191,42	570,06	-6,005	
48,90	7,360	192,54	569,70	-6,005	
48,92	7,360	192,88	569,34	-6,006	
48,94	7,360	192,86	568,98	-6,006	
48,96	7,360	192,77	568,61	-6,006	
48,98	7,360	192,76	568,24	-6,006	
49,00	7,360	192,80	567,89	-6,006	
49,02	7,360	193,26	567,52	-6,006	
49,04	7,360	194,73	567,15	-6,006	
49,06	7,360	195,83	566,77	-6,006	
49,08	7,360	196,12	566,40	-6,007	
49,10	7,360	196,11	566,04	-6,007	
49,12	7,360	196,50	565,68	-6,007	
49,14	7,360	197,94	565,31	-6,007	
49,16	7,360	199,08	564,94	-6,007	
49,18	7,360	199,46	564,58	-6,007	
49,20	7,360	199,51	564,20	-6,007	
49,22	7,360	199,45	563,83	-6,007	
49,24	7,360	199,49	563,45	-6,008	
49,26	7,360	199,48	563,09	-6,008	
49,28	7,360	199,50	562,72	-6,008	
49,30	7,360	200,58	562,34	-6,008	
49,32	7,360	202,05	561,96	-6,008	
49,34	7,360	202,69	561,60	-6,008	
49,36	7,360	202,77	561,23	-6,008	
49,38	7,360	202,77	560,85	-6,008	
49,40	7,360	202,81	560,47	-6,008	
49,42	7,360	202,83	560,10	-6,009	
49,44	7,360	202,93	559,73	-6,009	
49,46	7,360	204,03	559,35	-6,009	
49,48	7,360	205,47	558,98	-6,009	
49,50	7,360	206,14	558,61	-6,009	
49,52	7,360	206,28	558,24	-6,009	
49,54	7,360	206,30	557,88	-6,009	
49,56	7,360	206,31	557,52	-6,010	
49,58	7,360	206,34	557,14	-6,010	
49,60	7,360	207,41	556,78	-6,010	
49,62	7,360	208,79	556,40	-6,010	
49,64	7,360	209,42	556,04	-6,010	
49,66	7,360	209,62	555,71	-6,010	
49,68	7,360	209,69	555,38	-6,010	
49,70	7,360	209,64	555,01	-6,010	
49,72	7,360	209,67	554,66	-6,011	
49,74	7,360	209,74	554,30	-6,011	
49,76	7,360	210,77	553,92	-6,011	
49,78	7,360	212,22	553,55	-6,011	
49,80	7,360	212,81	553,18	-6,011	
49,82	7,360	212,91	552,81	-6,011	
49,84	7,360	212,99	552,44	-6,011	
49,86	7,360	212,91	552,07	-6,011	
49,88	7,360	212,84	551,69	-6,012	
49,90	7,360	213,00	551,33	-6,012	
49,92	7,360	214,14	550,97	-6,012	
49,94	7,360	215,60	550,60	-6,012	
49,96	7,360	216,24	550,23	-6,012	
49,98	7,360	216,35	549,86	-6,012	
50,00	7,360	216,34	549,50	-6,012	
50,02	7,360	216,36	549,14	-6,013	
50,04	7,360	216,39	548,78	-6,013	
50,06	7,360	216,37	548,41	-6,013	
50,08	7,360	216,34	548,05	-6,013	
50,10	7,360	216,36	547,69	-6,013	
50,12	7,360	216,80	547,32	-6,013	
50,14	7,360	218,24	546,95	-6,013	
50,16	7,360	219,30	546,59	-6,013	
50,18	7,360	219,62	546,24	-6,014	
50,20	7,360	219,72	545,88	-6,014	
50,22	7,360	219,76	545,51	-6,014	
50,24	7,360	219,78	545,15	-6,014	
50,26	7,360	219,80	544,79	-6,014	
50,28	7,360	219,80	544,44	-6,014	
50,30	7,360	220,75	544,08	-6,014	
50,32	7,360	222,19	543,74	-6,014	
50,34	7,360	222,99	543,37	-6,015	
50,36	7,360	223,11	543,00	-6,015	
50,38	7,360	223,06	542,64	-6,015	
50,40	7,360	222,99	542,29	-6,015	
50,42	7,360	222,98	541,93	-6,015	
50,44	7,360	223,05	541,57	-6,015	
50,46	7,360	223,11	541,22	-6,015	
50,48	7,360	223,13	540,86	-6,015	
50,50	7,360	223,14	540,50	-6,016	
50,52	7,360	224,18	540,15	-6,016	
50,54	7,360	225,60	539,81	-6,016	
50,56	7,360	226,29	539,46	-6,016	
50,58	7,360	226,41	539,11	-6,016	
50,60	7,360	226,41	538,75	-6,016	
50,62	7,360	226,40	538,40	-6,016	
50,64	7,360	226,41	538,04	-6,017	
50,66	7,360	226,49	537,68	-6,017	
50,68	7,360	226,51	537,33	-6,017	
50,70	7,360	226,48	536,98	-6,017	
50,72	7,360	226,42	536,63	-6,017	
50,74	7,360	226,33	536,28	-6,017	
50,76	7,360	226,42	535,93	-6,017	
50,78	7,360	227,54	535,57	-6,017	
50,80	7,360	229,03	535,20	-6,018	
50,82	7,360	229,66	534,84	-6,018	
50,84	7,360	229,72	534,47	-6,018	
50,86	7,360	229,73	534,12	-6,018	
50,88	7,360	229,76	533,78	-6,018	
50,90	7,360	229,71	533,42	-6,018	
50,92	7,360	229,67	533,07	-6,018	
50,94	7,360	229,69	532,71	-6,018	
50,96	7,360	229,69	532,36	-6,019	
50,98	7,360	229,65	532,00	-6,019	
51,00	7,360	229,61	531,65	-6,019	
51,02	7,360	229,57	531,31	-6,019	
51,04	7,360	229,65	530,98	-6,019	
51,06	7,360	229,64	530,64	-6,019	
51,08	7,360	230,03	530,29	-6,019	
51,10	7,360	231,60	529,94	-6,019	
51,12	7,360	232,82	529,60	-6,020	
51,14	7,360	233,15	529,26	-6,020	
51,16	7,360	233,09	528,92	-6,020	
51,18	7,360	233,02	528,59	-6,020	
51,20	7,360	233,04	528,25	-6,020	
51,22	7,360	233,09	527,91	-6,020	
51,24	7,360	233,11	527,56	-6,020	
51,26	7,360	233,09	527,22	-6,021	
51,28	7,360	233,07	526,89	-6,021	
51,30	7,360	233,04	526,55	-6,021	
51,32	7,360	233,44	526,22	-6,021	
51,34	7,360	234,88	525,89	-6,021	
51,36	7,360	235,96	525,55	-6,021	
51,38	7,360	236,29	525,20	-6,021	
51,40	7,360	236,40	524,86	-6,021	
51,42	7,360	236,46	524,52	-6,022	
51,44	7,360	236,40	524,17	-6,022	
51,46	7,360	236,26	523,83	-6,022	
51,48	7,360	236,21	523,49	-6,022	
51,50	7,360	236,30	523,16	-6,022	
51,52	7,360	236,34	522,82	-6,022	
51,54	7,360	236,33	522,48	-6,022	
51,56	7,360	236,40	522,14	-6,022	
51,58	7,360	236,47	521,81	-6,023	
51,60	7,360	237,54	521,48	-6,023	
51,62	7,360	239,00	521,16	-6,023	
51,64	7,360	239,67	520,82	-6,023	
51,66	7,360	239,65	520,49	-6,023	
51,68	7,360	239,61	520,17	-6,023	
51,70	7,360	239,66	519,84	-6,023	
51,72	7,360	239,63	519,51	-6,024	
51,74	7,360	239,64	519,18	-6,024	
51,76	7,360	239,71	518,87	-6,024	
51,78	7,360	239,68	518,55	-6,024	
51,80	7,360	239,74	518,22	-6,024	
51,82	7,360	239,86	517,91	-6,024	
51,84	7,360	239,93	517,58	-6,024	
51,86	7,360	239,92	517,24	-6,024	
51,88	7,360	239,83	516,90	-6,025	
51,90	7,360	239,82	516,57	-6,025	
51,92	7,360	240,85	516,23	-6,025	
51,94	7,360	242,33	515,90	-6,025	
51,96	7,360	242,98	515,57	-6,025	
51,98	7,360	242,54	515,23	-6,025	
52,00	7,360	242,50	514,89	-6,025	
52,02	7,360	242,87	514,56	-6,025	
52,04	7,360	243,06	514,24	-6,026	
52,06	7,360	243,03	513,92	-6,026	
52,08	7,360	242,98	513,59	-6,026	
52,10	7,360	242,96	513,25	-6,026	
52,12	7,360	243,05	512,92	-6,026	
52,14	7,360	243,15	512,61	-6,026	
52,16	7,360	243,20	512,30	-6,026	
52,18	7,360	243,18	511,97	-6,027	
52,20	7,360	243,12	511,66	-6,027	
52,22	7,360	243,07	511,34	-6,027	
52,24	7,360	243,05	511,02	-6,027	
52,26	7,360	243,08	510,70	-6,027	
52,28	7,360	243,11	510,38	-6,027	
52,30	7,360	243,07	510,05	-6,027	
52,32	7,360	243,07	509,73	-6,027	
52,34	7,360	243,75	509,41	-6,028	
52,36	7,360	243,83	509,09	-6,028	
52,38	7,360	244,45	508,77	-6,028	