Zeit  1 - Standardmessrate [s]	ZwickWeg [mm]	ZwickKraft [N]	Pyrometer [°C]	Maytec [mm]
0	-0,01801	161,49	150,05	0,02999	
0,02000	-0,01800	161,53	150,05	0,03001	
0,04000	-0,01801	161,54	150,05	0,03007	
0,06000	-0,01801	161,49	150,05	0,03016	
0,08000	-0,01801	161,46	150,05	0,03023	
0,1000	-0,01800	161,46	150,05	0,03027	
0,1200	-0,01800	161,47	150,05	0,03023	
0,1400	-0,01801	161,44	150,05	0,03008	
0,1600	-0,01802	161,40	150,05	0,02996	
0,1800	-0,01801	161,45	150,05	0,02989	
0,2000	-0,01802	161,47	150,05	0,02997	
0,2200	-0,01803	161,43	150,05	0,03014	
0,2400	-0,01803	161,40	150,05	0,03023	
0,2600	-0,01802	161,42	150,05	0,03023	
0,2800	-0,01802	161,46	150,05	0,03010	
0,3000	-0,01801	161,47	150,05	0,02994	
0,3200	-0,01801	161,41	150,05	0,02991	
0,3400	-0,01802	161,34	150,05	0,03000	
0,3600	-0,01803	161,35	150,05	0,03008	
0,3800	-0,01803	161,36	150,05	0,03013	
0,4000	-0,01802	161,40	150,05	0,03014	
0,4200	-0,01801	161,44	150,05	0,03004	
0,4400	-0,01801	161,51	150,05	0,02992	
0,4600	-0,01801	161,55	150,05	0,02993	
0,4800	-0,01802	161,55	150,05	0,03002	
0,5000	-0,01801	161,57	150,05	0,03016	
0,5200	-0,01801	161,55	150,05	0,03025	
0,5400	-0,01801	161,52	150,05	0,03019	
0,5600	-0,01801	161,56	150,05	0,03004	
0,5800	-0,01800	161,58	150,05	0,02989	
0,6000	-0,01798	161,52	150,05	0,02989	
0,6200	-0,01798	161,48	150,05	0,02998	
0,6400	-0,01799	161,43	150,05	0,03011	
0,6600	-0,01800	161,38	150,05	0,03018	
0,6800	-0,01801	161,37	150,05	0,03009	
0,7000	-0,01800	161,45	150,05	0,02997	
0,7200	-0,01799	161,47	150,05	0,02992	
0,7400	-0,01800	161,42	150,05	0,02991	
0,7600	-0,01800	161,40	150,05	0,02995	
0,7800	-0,01799	161,39	150,05	0,03011	
0,8000	-0,01799	161,37	150,05	0,03023	
0,8200	-0,01799	161,40	150,05	0,03018	
0,8400	-0,01799	161,44	150,05	0,03005	
0,8600	-0,01799	161,46	150,05	0,02997	
0,8800	-0,01799	161,44	150,05	0,03000	
0,9000	-0,01799	161,37	150,05	0,03006	
0,9200	-0,01799	161,33	150,04	0,03014	
0,9400	-0,01799	161,33	150,05	0,03025	
0,9600	-0,01799	161,35	150,05	0,03028	
0,9800	-0,01801	161,31	150,05	0,03015	
1,000	-0,01802	161,29	150,05	0,03002	
1,020	-0,01802	161,34	150,05	0,03000	
1,040	-0,01801	161,41	150,05	0,03009	
1,060	-0,01800	161,42	150,05	0,03019	
1,080	-0,01800	161,39	150,05	0,03021	
1,100	-0,01800	161,36	150,05	0,03010	
1,120	-0,01800	161,39	150,05	0,03002	
1,140	-0,01800	161,41	150,05	0,02999	
1,160	-0,01799	161,39	150,05	0,02999	
1,180	-0,01798	161,38	150,05	0,03008	
1,200	-0,01799	161,35	150,05	0,03021	
1,220	-0,01800	161,37	150,05	0,03023	
1,240	-0,01801	161,34	150,05	0,03012	
1,260	-0,01801	161,33	150,05	0,02992	
1,280	-0,01801	161,35	150,05	0,02990	
1,300	-0,01801	161,39	150,05	0,02994	
1,320	-0,01799	161,41	150,05	0,03011	
1,340	-0,01797	161,40	150,05	0,03031	
1,360	-0,01797	161,41	150,05	0,03034	
1,380	-0,01798	161,40	150,05	0,03018	
1,400	-0,01799	161,40	150,05	0,03005	
1,420	-0,01799	161,49	150,05	0,03000	
1,440	-0,01798	161,59	150,05	0,02998	
1,460	-0,01797	161,63	150,05	0,03008	
1,480	-0,01796	161,60	150,05	0,03016	
1,500	-0,01797	161,55	150,05	0,03019	
1,520	-0,01796	161,56	150,05	0,03017	
1,540	-0,01796	161,57	150,05	0,03006	
1,560	-0,01798	161,58	150,05	0,02991	
1,580	-0,01799	161,58	150,05	0,02988	
1,600	-0,01799	161,51	150,05	0,02999	
1,620	-0,01799	161,43	150,05	0,03007	
1,640	-0,01799	161,43	150,05	0,03015	
1,660	-0,01800	161,49	150,05	0,03014	
1,680	-0,01800	161,52	150,05	0,03012	
1,700	-0,01799	161,49	150,05	0,03002	
1,720	-0,01799	161,50	150,05	0,02998	
1,740	-0,01799	161,55	150,05	0,03006	
1,760	-0,01799	161,57	150,05	0,03015	
1,780	-0,01799	161,58	150,05	0,03023	
1,800	-0,01798	161,52	150,05	0,03024	
1,820	-0,01798	161,47	150,05	0,03010	
1,840	-0,01798	161,46	150,05	0,02992	
1,860	-0,01798	161,45	150,05	0,02986	
1,880	-0,01799	161,43	150,05	0,02997	
1,900	-0,01799	161,47	150,05	0,03011	
1,920	-0,01801	161,48	150,05	0,03020	
1,940	-0,01800	161,53	150,05	0,03017	
1,960	-0,01800	161,53	150,05	0,03001	
1,980	-0,01799	161,52	150,05	0,02991	
2,000	-0,01799	161,58	150,05	0,02990	
2,020	-0,01800	161,59	150,05	0,02996	
2,040	-0,01801	161,55	150,05	0,03007	
2,060	-0,01802	161,53	150,05	0,03020	
2,080	-0,01802	161,49	150,05	0,03027	
2,100	-0,01801	161,50	150,05	0,03010	
2,120	-0,01800	161,52	150,05	0,02996	
2,140	-0,01802	161,52	150,05	0,02998	
2,160	-0,01803	161,55	150,05	0,03003	
2,180	-0,01803	161,59	150,05	0,03009	
2,200	-0,01803	161,54	150,05	0,03020	
2,220	-0,01803	161,54	150,05	0,03023	
2,240	-0,01802	161,63	150,05	0,03015	
2,260	-0,01801	161,62	150,05	0,02999	
2,280	-0,01802	161,59	150,05	0,02992	
2,300	-0,01803	161,58	150,05	0,02994	
2,320	-0,01803	161,55	150,05	0,03003	
2,340	-0,01805	161,58	150,05	0,03011	
2,360	-0,01804	161,59	150,05	0,03013	
2,380	-0,01803	161,61	150,05	0,03008	
2,400	-0,01802	161,58	150,05	0,02995	
2,420	-0,01801	161,46	150,05	0,02985	
2,440	-0,01802	161,38	150,05	0,02991	
2,460	-0,01800	161,39	150,05	0,03008	
2,480	-0,01799	161,43	150,05	0,03019	
2,500	-0,01799	161,42	150,05	0,03016	
2,520	-0,01800	161,40	150,05	0,03008	
2,540	-0,01801	161,45	150,04	0,02996	
2,560	-0,01800	161,45	150,05	0,02989	
2,580	-0,01801	161,47	150,05	0,02995	
2,600	-0,01802	161,48	150,05	0,03011	
2,620	-0,01802	161,46	150,05	0,03027	
2,640	-0,01801	161,49	150,05	0,03030	
2,660	-0,01799	161,54	150,05	0,03014	
2,680	-0,01799	161,58	150,05	0,02997	
2,700	-0,01799	161,57	150,05	0,02994	
2,720	-0,01799	161,57	150,05	0,02997	
2,740	-0,01798	161,54	150,05	0,03006	
2,760	-0,01797	161,47	150,05	0,03018	
2,780	-0,01797	161,45	150,05	0,03027	
2,800	-0,01798	161,47	150,05	0,03016	
2,820	-0,01799	161,50	150,05	0,02999	
2,840	-0,01799	161,49	150,05	0,02990	
2,860	-0,01799	161,49	150,05	0,02994	
2,880	-0,01800	161,48	150,05	0,03007	
2,900	-0,01800	161,43	150,05	0,03015	
2,920	-0,01799	161,37	150,05	0,03023	
2,940	-0,01799	161,38	150,05	0,03021	
2,960	-0,01802	161,41	150,05	0,03012	
2,980	-0,01802	161,42	150,05	0,03000	
3,000	-0,01802	161,44	150,05	0,02995	
3,020	-0,01801	161,46	150,06	0,03004	
3,040	-0,01800	161,46	150,05	0,03021	
3,060	-0,01800	161,51	150,05	0,03023	
3,080	-0,01800	161,52	150,05	0,03009	
3,100	-0,01801	161,48	150,05	0,02996	
3,120	-0,01801	161,45	150,05	0,02990	
3,140	-0,01801	161,45	150,05	0,02988	
3,160	-0,01801	161,47	150,05	0,02996	
3,180	-0,01801	161,47	150,05	0,03015	
3,200	-0,01802	161,42	150,05	0,03025	
3,220	-0,01802	161,38	150,05	0,03019	
3,240	-0,01802	161,38	150,05	0,02999	
3,260	-0,01801	161,42	150,05	0,02989	
3,280	-0,01801	161,43	150,05	0,02989	
3,300	-0,01802	161,43	150,05	0,03000	
3,320	-0,01803	161,44	150,05	0,03013	
3,340	-0,01803	161,44	150,05	0,03021	
3,360	-0,01802	161,46	150,06	0,03019	
3,380	-0,01800	161,42	150,05	0,03002	
3,400	-0,01800	161,35	150,05	0,02995	
3,420	-0,01801	161,34	150,06	0,02999	
3,440	-0,01801	161,38	150,05	0,03007	
3,460	-0,01800	161,36	150,05	0,03020	
3,480	-0,01799	161,27	150,05	0,03023	
3,500	-0,01800	161,27	150,05	0,03012	
3,520	-0,01801	161,31	150,05	0,02998	
3,540	-0,01801	161,35	150,05	0,02991	
3,560	-0,01800	161,38	150,05	0,02992	
3,580	-0,01800	161,35	150,05	0,03004	
3,600	-0,01801	161,39	150,05	0,03014	
3,620	-0,01801	161,41	150,05	0,03016	
3,640	-0,01801	161,41	150,05	0,03013	
3,660	-0,01801	161,44	150,05	0,03003	
3,680	-0,01802	161,35	150,05	0,03000	
3,700	-0,01803	161,36	150,05	0,02999	
3,720	-0,01802	161,41	150,05	0,03004	
3,740	-0,01801	161,39	150,05	0,03014	
3,760	-0,01801	161,31	150,05	0,03021	
3,780	-0,01801	161,30	150,05	0,03012	
3,800	-0,01802	161,36	150,05	0,02999	
3,820	-0,01801	161,39	150,05	0,02994	
3,840	-0,01799	161,38	150,05	0,02996	
3,860	-0,01799	161,38	150,05	0,03001	
3,880	-0,01800	161,41	150,05	0,03012	
3,900	-0,01801	161,41	150,05	0,03015	
3,920	-0,01799	161,38	150,05	0,03010	
3,940	-0,01799	161,44	150,05	0,02998	
3,960	-0,01800	161,37	150,05	0,02989	
3,980	-0,01800	161,38	150,05	0,02992	
4,000	-0,01800	161,46	150,05	0,03003	
4,020	-0,01800	161,50	150,05	0,03011	
4,040	-0,01801	161,55	150,05	0,03022	
4,060	-0,01801	161,52	150,05	0,03018	
4,080	-0,01801	161,45	150,05	0,03002	
4,100	-0,01800	161,37	150,05	0,02997	
4,120	-0,01800	161,29	150,05	0,03000	
4,140	-0,01801	161,33	150,05	0,03003	
4,160	-0,01802	161,41	150,05	0,03016	
4,180	-0,01801	161,42	150,05	0,03028	
4,200	-0,01801	161,40	150,05	0,03030	
4,220	-0,01802	161,39	150,05	0,03016	
4,240	-0,01800	161,33	150,05	0,03000	
4,260	-0,01799	161,29	150,05	0,02995	
4,280	-0,01800	161,34	150,05	0,03002	
4,300	-0,01800	161,38	150,05	0,03014	
4,320	-0,01800	161,38	150,05	0,03024	
4,340	-0,01800	161,46	150,05	0,03021	
4,360	-0,01801	161,56	150,05	0,03007	
4,380	-0,01803	161,52	150,05	0,02997	
4,400	-0,01803	161,47	150,05	0,02990	
4,420	-0,01802	161,42	150,05	0,02993	
4,440	-0,01800	161,33	150,05	0,03008	
4,460	-0,01800	161,33	150,05	0,03017	
4,480	-0,01800	161,40	150,05	0,03017	
4,500	-0,01800	161,43	150,05	0,03008	
4,520	-0,01801	161,37	150,05	0,02997	
4,540	-0,01801	161,29	150,06	0,02987	
4,560	-0,01801	161,30	150,05	0,02984	
4,580	-0,01801	161,38	150,05	0,02988	
4,600	-0,01801	161,44	150,05	0,02999	
4,620	-0,01801	161,40	150,05	0,03007	
4,640	-0,01850	164,19	150,16	0,02983	
4,660	-0,01818	152,10	150,08	0,02872	
4,680	-0,01767	110,53	149,97	0,02834	
4,700	-0,01779	65,23	150,00	0,02874	
4,720	-0,01793	24,07	150,04	0,02923	
4,740	-0,01654	-8,569	150,06	0,02955	
4,760	-0,01195	-19,04	150,05	0,02963	
4,780	-0,00563	9,555	150,05	0,02960	
4,800	0,00011	53,01	150,05	0,02953	
4,820	0,00442	96,00	150,05	0,02943	
4,840	0,00706	131,14	150,05	0,02939	
4,860	0,00839	155,25	150,05	0,02946	
4,880	0,00881	168,52	150,05	0,02958	
4,900	0,00867	173,65	150,05	0,02966	
4,920	0,00837	174,66	150,05	0,02964	
4,940	0,00800	173,65	150,05	0,02950	
4,960	0,00767	172,10	150,05	0,02936	
4,980	0,00735	170,97	150,05	0,02936	
5,000	0,00705	169,44	150,06	0,02954	
5,020	0,00688	168,31	150,05	0,02966	
5,040	0,00665	167,48	150,05	0,02969	
5,060	0,00635	166,03	150,05	0,02966	
5,080	0,00621	164,98	150,05	0,02959	
5,100	0,00620	164,68	150,05	0,02944	
5,120	0,00621	164,68	150,05	0,02942	
5,140	0,00613	163,64	150,05	0,02955	
5,160	0,00583	162,17	150,05	0,02965	
5,180	0,00560	161,44	150,05	0,02971	
5,200	0,00551	161,27	150,05	0,02970	
5,220	0,00549	161,32	150,05	0,02961	
5,240	0,00550	161,39	150,05	0,02951	
5,260	0,00551	161,40	150,05	0,02946	
5,280	0,00552	161,39	150,05	0,02952	
5,300	0,00554	161,37	150,05	0,02971	
5,320	0,00554	161,36	150,05	0,02982	
5,340	0,00555	161,40	150,05	0,02975	
5,360	0,00555	161,34	150,05	0,02962	
5,380	0,00554	161,35	150,05	0,02956	
5,400	0,00553	161,33	150,05	0,02958	
5,420	0,00553	161,33	150,05	0,02958	
5,440	0,00554	161,37	150,05	0,02964	
5,460	0,00555	161,37	150,05	0,02973	
5,480	0,00555	161,34	150,05	0,02979	
5,500	0,00554	161,35	150,05	0,02978	
5,520	0,00555	161,39	150,05	0,02964	
5,540	0,00554	161,47	150,05	0,02951	
5,560	0,00553	161,46	150,05	0,02940	
5,580	0,00554	161,37	150,05	0,02950	
5,600	0,00554	161,38	150,05	0,02969	
5,620	0,00553	161,43	150,05	0,02977	
5,640	0,00532	161,42	150,05	0,02970	
5,660	0,00502	161,39	150,05	0,02956	
5,680	0,00487	161,38	150,05	0,02950	
5,700	0,00485	161,35	150,05	0,02949	
5,720	0,00485	161,33	150,05	0,02958	
5,740	0,00484	161,40	150,05	0,02966	
5,760	0,00484	161,46	150,05	0,02974	
5,780	0,00484	161,49	150,05	0,02973	
5,800	0,00485	161,46	150,05	0,02960	
5,820	0,00486	161,39	150,05	0,02959	
5,840	0,00486	161,41	150,05	0,02963	
5,860	0,00484	161,40	150,05	0,02965	
5,880	0,00484	161,35	150,05	0,02972	
5,900	0,00485	161,34	150,05	0,02974	
5,920	0,00487	161,34	150,05	0,02974	
5,940	0,00486	161,29	150,05	0,02969	
5,960	0,00484	161,27	150,05	0,02960	
5,980	0,00483	161,21	150,05	0,02950	
6,000	0,00484	161,18	150,05	0,02950	
6,020	0,00485	161,22	150,05	0,02958	
6,040	0,00485	161,20	150,05	0,02974	
6,060	0,00484	161,22	150,05	0,02981	
6,080	0,00483	161,30	150,05	0,02969	
6,100	0,00486	161,31	150,05	0,02952	
6,120	0,00485	161,39	150,05	0,02942	
6,140	0,00482	161,41	150,05	0,02949	
6,160	0,00464	161,29	150,05	0,02965	
6,180	0,00435	161,29	150,05	0,02975	
6,200	0,00419	161,39	150,05	0,02976	
6,220	0,00416	161,35	150,05	0,02966	
6,240	0,00417	161,24	150,05	0,02961	
6,260	0,00419	161,26	150,05	0,02952	
6,280	0,00419	161,30	150,05	0,02956	
6,300	0,00420	161,31	150,05	0,02968	
6,320	0,00421	161,33	150,05	0,02979	
6,340	0,00421	161,34	150,05	0,02978	
6,360	0,00420	161,36	150,05	0,02968	
6,380	0,00420	161,38	150,05	0,02956	
6,400	0,00421	161,39	150,05	0,02952	
6,420	0,00420	161,42	150,05	0,02951	
6,440	0,00420	161,37	150,05	0,02952	
6,460	0,00419	161,35	150,05	0,02962	
6,480	0,00419	161,34	150,05	0,02978	
6,500	0,00419	161,31	150,05	0,02982	
6,520	0,00419	161,33	150,05	0,02967	
6,540	0,00419	161,32	150,05	0,02954	
6,560	0,00420	161,31	150,05	0,02958	
6,580	0,00420	161,32	150,05	0,02968	
6,600	0,00418	161,35	150,05	0,02974	
6,620	0,00418	161,35	150,05	0,02971	
6,640	0,00418	161,32	150,05	0,02966	
6,660	0,00417	161,32	150,05	0,02960	
6,680	0,00417	161,32	150,05	0,02957	
6,700	0,00416	161,33	150,05	0,02955	
6,720	0,00416	161,36	150,05	0,02966	
6,740	0,00418	161,35	150,05	0,02976	
6,760	0,00419	161,37	150,05	0,02975	
6,780	0,00420	161,43	150,05	0,02973	
6,800	0,00420	161,42	150,05	0,02970	
6,820	0,00421	161,33	150,05	0,02960	
6,840	0,00420	161,27	150,05	0,02955	
6,860	0,00419	161,23	150,05	0,02961	
6,880	0,00418	161,27	150,05	0,02971	
6,900	0,00418	161,30	150,05	0,02979	
6,920	0,00400	161,31	150,05	0,02972	
6,940	0,00369	161,38	150,05	0,02962	
6,960	0,00354	161,37	150,05	0,02952	
6,980	0,00351	161,35	150,05	0,02948	
7,000	0,00350	161,36	150,05	0,02954	
7,020	0,00351	161,33	150,05	0,02965	
7,040	0,00352	161,27	150,05	0,02973	
7,060	0,00352	161,32	150,05	0,02973	
7,080	0,00352	161,30	150,05	0,02971	
7,100	0,00353	161,32	150,05	0,02964	
7,120	0,00351	161,33	150,05	0,02961	
7,140	0,00351	161,26	150,05	0,02963	
7,160	0,00350	161,24	150,05	0,02968	
7,180	0,00350	161,30	150,05	0,02978	
7,200	0,00350	161,29	150,05	0,02981	
7,220	0,00349	161,27	150,05	0,02970	
7,240	0,00349	161,35	150,05	0,02961	
7,260	0,00350	161,39	150,05	0,02959	
7,280	0,00349	161,40	150,05	0,02951	
7,300	0,00348	161,39	150,05	0,02958	
7,320	0,00348	161,36	150,05	0,02972	
7,340	0,00349	161,32	150,05	0,02979	
7,360	0,00350	161,25	150,05	0,02977	
7,380	0,00351	161,29	150,05	0,02968	
7,400	0,00351	161,37	150,05	0,02961	
7,420	0,00351	161,37	150,05	0,02965	
7,440	0,00351	161,38	150,05	0,02973	
7,460	0,00352	161,46	150,05	0,02977	
7,480	0,00351	161,43	150,05	0,02978	
7,500	0,00350	161,38	150,05	0,02975	
7,520	0,00349	161,38	150,05	0,02969	
7,540	0,00349	161,35	150,05	0,02966	
7,560	0,00351	161,37	150,05	0,02963	
7,580	0,00350	161,47	150,05	0,02968	
7,600	0,00351	161,51	150,05	0,02973	
7,620	0,00344	161,45	150,05	0,02978	
7,640	0,00315	161,37	150,05	0,02976	
7,660	0,00292	161,33	150,05	0,02963	
7,680	0,00284	161,43	150,05	0,02953	
7,700	0,00283	161,53	150,05	0,02955	
7,720	0,00284	161,46	150,05	0,02964	
7,740	0,00284	161,38	150,05	0,02974	
7,760	0,00284	161,33	150,05	0,02978	
7,780	0,00285	161,34	150,05	0,02982	
7,800	0,00284	161,35	150,05	0,02974	
7,820	0,00282	161,37	150,05	0,02957	
7,840	0,00284	161,33	150,05	0,02946	
7,860	0,00284	161,31	150,05	0,02956	
7,880	0,00284	161,35	150,05	0,02972	
7,900	0,00285	161,37	150,05	0,02978	
7,920	0,00285	161,35	150,05	0,02974	
7,940	0,00283	161,40	150,05	0,02968	
7,960	0,00282	161,45	150,05	0,02960	
7,980	0,00282	161,41	150,05	0,02961	
8,000	0,00282	161,33	150,05	0,02967	
8,020	0,00284	161,28	150,05	0,02977	
8,040	0,00285	161,32	150,05	0,02987	
8,060	0,00284	161,35	150,05	0,02987	
8,080	0,00284	161,31	150,05	0,02979	
8,100	0,00284	161,27	150,05	0,02964	
8,120	0,00285	161,23	150,05	0,02951	
8,140	0,00286	161,18	150,05	0,02952	
8,160	0,00286	161,18	150,05	0,02968	
8,180	0,00287	161,18	150,05	0,02982	
8,200	0,00286	161,22	150,05	0,02984	
8,220	0,00285	161,28	150,05	0,02972	
8,240	0,00284	161,27	150,05	0,02958	
8,260	0,00284	161,29	150,05	0,02953	
8,280	0,00283	161,30	150,05	0,02962	
8,300	0,00284	161,30	150,05	0,02975	
8,320	0,00283	161,30	150,05	0,02980	
8,340	0,00284	161,35	150,05	0,02982	
8,360	0,00285	161,41	150,05	0,02973	
8,380	0,00285	161,41	150,05	0,02960	
8,400	0,00286	161,38	150,05	0,02956	
8,420	0,00286	161,34	150,05	0,02963	
8,440	0,00285	161,31	150,05	0,02976	
8,460	0,00286	161,26	150,05	0,02983	
8,480	0,00285	161,29	150,05	0,02987	
8,500	0,00283	161,33	150,05	0,02981	
8,520	0,00284	161,29	150,05	0,02967	
8,540	0,00284	161,33	150,05	0,02953	
8,560	0,00283	161,41	150,05	0,02958	
8,580	0,00283	161,39	150,05	0,02978	
8,600	0,00283	161,35	150,05	0,02989	
8,620	0,00274	161,27	150,05	0,02985	
8,640	0,00245	161,17	150,05	0,02980	
8,660	0,00220	161,23	150,05	0,02975	
8,680	0,00214	161,31	150,05	0,02960	
8,700	0,00214	161,35	150,05	0,02956	
8,720	0,00216	161,36	150,05	0,02973	
8,740	0,00216	161,31	150,05	0,02987	
8,760	0,00215	161,30	150,05	0,02990	
8,780	0,00215	161,27	150,05	0,02979	
8,800	0,00215	161,25	150,05	0,02966	
8,820	0,00214	161,30	150,05	0,02956	
8,840	0,00215	161,30	150,05	0,02958	
8,860	0,00216	161,27	150,05	0,02976	
8,880	0,00216	161,29	150,05	0,02984	
8,900	0,00215	161,23	150,05	0,02978	
8,920	0,00214	161,18	150,05	0,02971	
8,940	0,00215	161,24	150,05	0,02967	
8,960	0,00217	161,28	150,05	0,02955	
8,980	0,00217	161,32	150,05	0,02949	
9,000	0,00216	161,24	150,05	0,02958	
9,020	0,00215	161,19	150,05	0,02980	
9,040	0,00214	161,15	150,05	0,02992	
9,060	0,00215	161,11	150,05	0,02987	
9,080	0,00214	161,16	150,05	0,02977	
9,100	0,00214	161,16	150,05	0,02967	
9,120	0,00215	161,20	150,05	0,02962	
9,140	0,00215	161,27	150,05	0,02962	
9,160	0,00215	161,31	150,05	0,02972	
9,180	0,00216	161,33	150,05	0,02982	
9,200	0,00218	161,28	150,06	0,02983	
9,220	0,00217	161,23	150,05	0,02975	
9,240	0,00216	161,32	150,05	0,02961	
9,260	0,00216	161,99	150,05	0,02956	
9,280	0,00216	162,04	150,05	0,02961	
9,300	0,00216	161,65	150,05	0,02967	
9,320	0,00215	161,46	150,05	0,02982	
9,340	0,00216	161,39	150,05	0,02985	
9,360	0,00217	161,35	150,05	0,02976	
9,380	0,00216	161,37	150,05	0,02959	
9,400	0,00216	161,41	150,05	0,02952	
9,420	0,00216	161,50	150,05	0,02963	
9,440	0,00217	161,45	150,05	0,02979	
9,460	0,00218	161,40	150,05	0,02984	
9,480	0,00218	161,42	150,05	0,02979	
9,500	0,00218	161,41	150,05	0,02967	
9,520	0,00218	161,36	150,05	0,02954	
9,540	0,00217	161,35	150,05	0,02954	
9,560	0,00209	161,41	150,05	0,02962	
9,580	0,00181	161,48	150,05	0,02974	
9,600	0,00157	161,49	150,05	0,02983	
9,620	0,00150	161,47	150,05	0,02980	
9,640	0,00149	161,56	150,05	0,02961	
9,660	0,00146	161,91	150,05	0,02948	
9,680	0,00146	162,35	150,05	0,02956	
9,700	0,00146	162,04	150,05	0,02970	
9,720	0,00145	161,63	150,05	0,02983	
9,740	0,00146	161,44	150,05	0,02986	
9,760	0,00148	161,42	150,05	0,02977	
9,780	0,00148	161,51	150,05	0,02964	
9,800	0,00149	161,52	150,05	0,02952	
9,820	0,00149	161,48	150,05	0,02952	
9,840	0,00148	161,44	150,05	0,02964	
9,860	0,00149	161,41	150,05	0,02978	
9,880	0,00151	161,42	150,05	0,02989	
9,900	0,00152	161,49	150,05	0,02983	
9,920	0,00152	161,50	150,05	0,02969	
9,940	0,00150	161,49	150,05	0,02962	
9,960	0,00150	161,50	150,05	0,02966	
9,980	0,00150	161,49	150,05	0,02974	
10,00	0,00150	161,44	150,05	0,02988	
10,02	0,00151	161,46	150,05	0,02987	
10,04	0,00150	161,42	150,05	0,02983	
10,06	0,00148	161,35	150,05	0,02972	
10,08	0,00149	161,31	150,05	0,02962	
10,10	0,00151	161,35	150,05	0,02960	
10,12	0,00151	161,43	150,05	0,02973	
10,14	0,00149	161,46	150,05	0,02986	
10,16	0,00150	161,38	150,05	0,02993	
10,18	0,00151	161,36	150,05	0,02990	
10,20	0,00150	161,36	150,05	0,02974	
10,22	0,00149	161,38	150,05	0,02969	
10,24	0,00146	161,39	150,05	0,02962	
10,26	0,00147	161,35	150,05	0,02966	
10,28	0,00149	161,36	150,05	0,02980	
10,30	0,00150	161,42	150,05	0,02982	
10,32	0,00151	161,42	150,04	0,02981	
10,34	0,00149	161,44	150,05	0,02973	
10,36	0,00150	161,47	150,05	0,02962	
10,38	0,00151	161,44	150,05	0,02958	
10,40	0,00150	161,38	150,05	0,02965	
10,42	0,00150	161,35	150,05	0,02979	
10,44	0,00151	161,35	150,05	0,02981	
10,46	0,00150	161,39	150,05	0,02973	
10,48	0,00142	161,41	150,05	0,02963	
10,50	0,00112	161,35	150,05	0,02956	
10,52	0,00088	161,32	150,05	0,02954	
10,54	0,00080	161,36	150,06	0,02965	
10,56	0,00081	161,32	150,05	0,02973	
10,58	0,00081	161,28	150,05	0,02979	
10,60	0,00081	161,26	150,05	0,02986	
10,62	0,00082	161,24	150,05	0,02973	
10,64	0,00083	161,32	150,05	0,02960	
10,66	0,00082	161,35	150,05	0,02958	
10,68	0,00081	161,33	150,05	0,02967	
10,70	0,00080	161,28	150,05	0,02977	
10,72	0,00083	161,19	150,05	0,02982	
10,74	0,00083	161,21	150,05	0,02981	
10,76	0,00082	161,31	150,05	0,02973	
10,78	0,00082	161,32	150,05	0,02968	
10,80	0,00081	161,34	150,06	0,02959	
10,82	0,00081	161,33	150,06	0,02963	
10,84	0,00083	161,29	150,05	0,02972	
10,86	0,00084	161,25	150,05	0,02973	
10,88	0,00083	161,26	150,05	0,02970	
10,90	0,00082	161,21	150,05	0,02970	
10,92	0,00083	161,25	150,05	0,02973	
10,94	0,00083	161,31	150,05	0,02975	
10,96	0,00082	161,31	150,05	0,02979	
10,98	0,00082	161,25	150,05	0,02987	
11,00	0,00082	161,26	150,05	0,02993	
11,02	0,00083	161,29	150,06	0,02996	
11,04	0,00084	161,25	150,05	0,02985	
11,06	0,00085	161,28	150,05	0,02975	
11,08	0,00084	161,37	150,06	0,02965	
11,10	0,00082	161,33	150,05	0,02964	
11,12	0,00083	161,28	150,05	0,02975	
11,14	0,00084	161,22	150,05	0,02985	
11,16	0,00084	161,23	150,05	0,02988	
11,18	0,00070	162,06	150,08	0,02974	
11,20	0,00064	160,33	150,09	0,02955	
11,22	0,00074	151,27	150,06	0,02941	
11,24	0,00082	138,27	150,05	0,02934	
11,26	0,00085	125,80	150,05	0,02938	
11,28	0,00111	113,49	150,05	0,02950	
11,30	0,00197	102,08	150,05	0,02957	
11,32	0,00322	95,61	150,05	0,02959	
11,34	0,00456	92,84	150,05	0,02954	
11,36	0,00591	90,34	150,05	0,02942	
11,38	0,00734	88,22	150,05	0,02937	
11,40	0,00897	87,37	150,05	0,02945	
11,42	0,01056	87,66	150,05	0,02956	
11,44	0,01218	89,51	150,05	0,02962	
11,46	0,01382	92,49	150,05	0,02961	
11,48	0,01532	95,88	150,05	0,02954	
11,50	0,01668	98,98	150,05	0,02945	
11,52	0,01801	100,59	150,05	0,02937	
11,54	0,01935	100,91	150,05	0,02937	
11,56	0,02070	100,48	150,05	0,02948	
11,58	0,02205	99,02	150,05	0,02958	
11,60	0,02340	97,81	150,05	0,02959	
11,62	0,02475	97,34	150,05	0,02955	
11,64	0,02608	97,31	150,05	0,02944	
11,66	0,02742	97,32	150,05	0,02933	
11,68	0,02877	97,30	150,05	0,02930	
11,70	0,03011	97,33	150,05	0,02939	
11,72	0,03137	97,38	150,05	0,02954	
11,74	0,03242	97,38	150,05	0,02964	
11,76	0,03370	97,33	150,05	0,02960	
11,78	0,03526	97,29	150,05	0,02947	
11,80	0,03676	97,29	150,05	0,02936	
11,82	0,03814	97,32	150,05	0,02935	
11,84	0,03947	97,32	150,05	0,02937	
11,86	0,04082	97,30	150,05	0,02940	
11,88	0,04218	97,28	150,05	0,02953	
11,90	0,04353	97,27	150,05	0,02959	
11,92	0,04485	97,22	150,05	0,02950	
11,94	0,04618	97,23	150,05	0,02939	
11,96	0,04752	97,25	150,05	0,02932	
11,98	0,04887	96,93	150,05	0,02936	
12,00	0,05023	95,51	150,05	0,02947	
12,02	0,05158	94,32	150,05	0,02954	
12,04	0,05299	93,94	150,05	0,02958	
12,06	0,05461	93,92	150,05	0,02950	
12,08	0,05619	94,29	150,05	0,02940	
12,10	0,05760	95,73	150,05	0,02932	
12,12	0,05893	96,95	150,05	0,02933	
12,14	0,06029	97,28	150,05	0,02941	
12,16	0,06165	96,33	150,05	0,02955	
12,18	0,06299	94,80	150,05	0,02958	
12,20	0,06435	94,01	150,05	0,02951	
12,22	0,06589	93,96	150,05	0,02936	
12,24	0,06753	94,05	150,05	0,02928	
12,26	0,06903	94,02	150,05	0,02929	
12,28	0,07039	93,97	150,05	0,02938	
12,30	0,07172	93,96	150,05	0,02951	
12,32	0,07307	93,91	150,05	0,02962	
12,34	0,07442	93,56	150,05	0,02958	
12,36	0,07576	92,16	150,05	0,02945	
12,38	0,07729	91,02	150,05	0,02934	
12,40	0,07893	90,70	150,05	0,02932	
12,42	0,08044	90,66	150,05	0,02939	
12,44	0,08182	90,67	150,05	0,02955	
12,46	0,08317	90,64	150,05	0,02963	
12,48	0,08469	90,64	150,05	0,02956	
12,50	0,08632	90,60	150,05	0,02941	
12,52	0,08783	90,54	150,05	0,02931	
12,54	0,08922	90,54	150,04	0,02931	
12,56	0,09073	90,54	150,05	0,02942	
12,58	0,09235	90,55	150,05	0,02956	
12,60	0,09385	90,57	150,05	0,02963	
12,62	0,09524	90,62	150,05	0,02949	
12,64	0,09666	90,61	150,05	0,02936	
12,66	0,09828	90,59	150,05	0,02936	
12,68	0,09987	90,57	150,05	0,02946	
12,70	0,1013	90,59	150,05	0,02955	
12,72	0,1026	90,59	150,05	0,02960	
12,74	0,1041	90,53	150,05	0,02961	
12,76	0,1058	89,62	150,05	0,02955	
12,78	0,1073	88,10	150,05	0,02943	
12,80	0,1087	87,33	150,05	0,02933	
12,82	0,1103	87,23	150,05	0,02936	
12,84	0,1119	87,62	150,05	0,02950	
12,86	0,1134	89,05	150,05	0,02965	
12,88	0,1150	90,19	150,05	0,02970	
12,90	0,1166	89,61	150,05	0,02963	
12,92	0,1181	88,14	150,05	0,02953	
12,94	0,1197	87,38	150,05	0,02946	
12,96	0,1213	87,22	150,05	0,02946	
12,98	0,1228	87,30	150,05	0,02952	
13,00	0,1244	87,33	150,05	0,02959	
13,02	0,1260	87,30	150,05	0,02965	
13,04	0,1275	87,32	150,05	0,02960	
13,06	0,1291	87,32	150,05	0,02947	
13,08	0,1307	87,31	150,05	0,02937	
13,10	0,1322	87,32	150,05	0,02937	
13,12	0,1339	87,33	150,05	0,02949	
13,14	0,1354	87,30	150,05	0,02961	
13,16	0,1369	87,19	150,05	0,02971	
13,18	0,1385	86,85	150,05	0,02969	
13,20	0,1401	85,48	150,14	0,02961	
13,22	0,1418	84,29	150,88	0,02953	
13,24	0,1434	83,96	151,61	0,02948	
13,26	0,1449	83,95	151,99	0,02955	
13,28	0,1466	83,93	152,25	0,02964	
13,30	0,1482	83,92	153,04	0,02963	
13,32	0,1498	83,93	154,21	0,02960	
13,34	0,1515	83,99	155,78	0,02949	
13,36	0,1530	83,97	157,41	0,02939	
13,38	0,1547	83,95	158,89	0,02935	
13,40	0,1564	83,98	160,35	0,02945	
13,42	0,1582	84,03	161,73	0,02963	
13,44	0,1597	84,02	163,13	0,02970	
13,46	0,1614	83,99	164,92	0,02961	
13,48	0,1630	83,99	166,76	0,02941	
13,50	0,1647	83,97	168,10	0,02931	
13,52	0,1663	83,96	169,04	0,02938	
13,54	0,1679	83,06	170,18	0,02949	
13,56	0,1696	81,52	171,51	0,02955	
13,58	0,1713	80,69	172,90	0,02959	
13,60	0,1730	80,56	174,48	0,02958	
13,62	0,1748	80,57	176,16	0,02948	
13,64	0,1765	80,53	177,80	0,02939	
13,66	0,1782	80,57	179,22	0,02936	
13,68	0,1798	80,61	180,57	0,02941	
13,70	0,1815	80,65	182,02	0,02951	
13,72	0,1833	80,67	183,45	0,02968	
13,74	0,1851	80,71	184,72	0,02978	
13,76	0,1869	80,71	185,95	0,02967	
13,78	0,1886	80,64	187,24	0,02955	
13,80	0,1903	80,62	188,68	0,02948	
13,82	0,1921	80,61	190,10	0,02947	
13,84	0,1939	80,57	191,37	0,02953	
13,86	0,1956	80,59	192,66	0,02962	
13,88	0,1973	80,66	194,11	0,02966	
13,90	0,1990	80,68	195,57	0,02962	
13,92	0,2008	80,65	196,93	0,02948	
13,94	0,2026	79,72	198,30	0,02943	
13,96	0,2044	78,22	199,77	0,02946	
13,98	0,2060	77,46	201,25	0,02958	
14,00	0,2077	77,24	202,72	0,02964	
14,02	0,2095	77,23	204,16	0,02963	
14,04	0,2113	77,26	205,57	0,02955	
14,06	0,2131	77,29	206,95	0,02947	
14,08	0,2149	77,01	208,36	0,02942	
14,10	0,2167	75,57	209,81	0,02944	
14,12	0,2185	74,26	211,21	0,02956	
14,14	0,2203	73,82	212,61	0,02969	
14,16	0,2222	73,84	214,03	0,02972	
14,18	0,2240	73,89	215,47	0,02958	
14,20	0,2259	74,17	216,96	0,02945	
14,22	0,2276	74,70	218,43	0,02941	
14,24	0,2296	74,49	219,89	0,02945	
14,26	0,2314	74,10	221,35	0,02958	
14,28	0,2332	73,95	222,82	0,02970	
14,30	0,2350	73,98	224,34	0,02977	
14,32	0,2368	74,05	225,88	0,02969	
14,34	0,2386	74,02	227,38	0,02948	
14,36	0,2405	73,96	228,83	0,02935	
14,38	0,2424	73,95	230,28	0,02940	
14,40	0,2443	73,99	231,75	0,02956	
14,42	0,2463	74,03	233,25	0,02969	
14,44	0,2482	74,00	234,74	0,02975	
14,46	0,2500	73,96	236,19	0,02966	
14,48	0,2518	73,91	237,59	0,02950	
14,50	0,2537	73,64	238,98	0,02938	
14,52	0,2557	72,31	240,39	0,02943	
14,54	0,2577	71,97	241,85	0,02961	
14,56	0,2596	73,11	243,34	0,02972	
14,58	0,2615	73,60	244,85	0,02972	
14,60	0,2634	72,26	246,39	0,02962	
14,62	0,2654	70,96	247,92	0,02948	
14,64	0,2673	70,59	249,41	0,02941	
14,66	0,2692	70,53	250,89	0,02949	
14,68	0,2712	70,47	252,38	0,02962	
14,70	0,2730	69,56	253,86	0,02971	
14,72	0,2749	68,07	255,38	0,02972	
14,74	0,2769	67,32	257,40	0,02959	
14,76	0,2789	67,20	260,46	0,02944	
14,78	0,2809	67,19	264,10	0,02941	
14,80	0,2829	67,18	267,81	0,02942	
14,82	0,2849	67,22	270,56	0,02953	
14,84	0,2869	67,28	272,46	0,02966	
14,86	0,2889	67,27	274,06	0,02972	
14,88	0,2909	67,19	275,62	0,02966	
14,90	0,2930	67,13	277,26	0,02958	
14,92	0,2950	67,13	278,94	0,02951	
14,94	0,2970	67,16	280,45	0,02947	
14,96	0,2990	67,14	282,01	0,02955	
14,98	0,3010	66,24	283,60	0,02964	
15,00	0,3031	64,75	285,13	0,02971	
15,02	0,3051	63,90	286,79	0,02968	
15,04	0,3071	63,71	288,45	0,02959	
15,06	0,3091	63,73	290,04	0,02952	
15,08	0,3113	63,74	291,70	0,02948	
15,10	0,3134	63,73	293,40	0,02958	
15,12	0,3155	63,72	295,04	0,02980	
15,14	0,3175	63,76	296,71	0,02982	
15,16	0,3195	63,78	298,42	0,02973	
15,18	0,3217	63,73	300,07	0,02960	
15,20	0,3238	63,66	301,73	0,02950	
15,22	0,3258	63,68	303,38	0,02942	
15,24	0,3280	63,72	305,01	0,02951	
15,26	0,3302	63,72	306,66	0,02969	
15,28	0,3322	63,70	308,32	0,02976	
15,30	0,3343	63,69	309,99	0,02973	
15,32	0,3365	63,69	311,71	0,02962	
15,34	0,3386	63,69	313,37	0,02946	
15,36	0,3406	62,82	315,09	0,02940	
15,38	0,3426	61,43	316,85	0,02946	
15,40	0,3447	60,69	318,59	0,02958	
15,42	0,3468	60,45	320,34	0,02966	
15,44	0,3490	59,52	322,06	0,02963	
15,46	0,3511	58,02	323,77	0,02960	
15,48	0,3533	57,20	325,52	0,02955	
15,50	0,3554	57,06	327,27	0,02949	
15,52	0,3576	57,63	328,98	0,02947	
15,54	0,3599	59,18	330,39	0,02953	
15,56	0,3621	65,82	331,13	0,02964	
15,58	0,3642	78,73	331,35	0,02968	
15,60	0,3664	93,54	331,47	0,02958	
15,62	0,3684	106,11	331,77	0,02949	
15,64	0,3698	116,14	332,28	0,02950	
15,66	0,3709	119,44	333,10	0,02964	
15,68	0,3716	117,36	334,00	0,02977	
15,70	0,3725	116,49	334,81	0,02984	
15,72	0,3734	118,91	335,50	0,02979	
15,74	0,3743	122,13	336,30	0,02965	
15,76	0,3754	124,23	337,27	0,02955	
15,78	0,3762	125,68	338,18	0,02953	
15,80	0,3768	126,24	338,89	0,02962	
15,82	0,3773	125,13	339,59	0,02971	
15,84	0,3780	122,24	340,46	0,02973	
15,86	0,3789	119,55	341,41	0,02972	
15,88	0,3795	118,61	342,26	0,02962	
15,90	0,3801	117,60	342,99	0,02949	
15,92	0,3809	115,73	343,76	0,02946	
15,94	0,3819	115,19	344,64	0,02959	
15,96	0,3827	115,77	345,46	0,02977	
15,98	0,3833	117,35	346,13	0,02981	
16,00	0,3840	117,22	346,99	0,02974	
16,02	0,3849	114,80	348,02	0,02967	
16,04	0,3857	114,15	348,89	0,02965	
16,06	0,3863	116,23	349,45	0,02965	
16,08	0,3870	116,68	350,13	0,02966	
16,10	0,3879	113,11	351,26	0,02964	
16,12	0,3888	110,31	352,39	0,02971	
16,14	0,3894	110,91	353,06	0,02980	
16,16	0,3899	112,18	353,53	0,02972	
16,18	0,3908	110,51	354,35	0,02959	
16,20	0,3917	108,00	355,45	0,02952	
16,22	0,3925	107,47	356,34	0,02954	
16,24	0,3929	107,66	356,94	0,02968	
16,26	0,3935	106,00	357,66	0,02981	
16,28	0,3944	102,47	358,66	0,02984	
16,30	0,3951	101,89	359,57	0,02980	
16,32	0,3957	103,44	360,25	0,02968	
16,34	0,3964	102,74	360,93	0,02962	
16,36	0,3971	99,39	361,85	0,02958	
16,38	0,3980	98,47	362,79	0,02966	
16,40	0,3987	99,88	363,56	0,02976	
16,42	0,3994	100,03	364,30	0,02973	
16,44	0,4001	98,19	365,14	0,02968	
16,46	0,4008	96,96	366,01	0,02957	
16,48	0,4015	97,28	366,87	0,02959	
16,50	0,4021	96,57	367,68	0,02965	
16,52	0,4028	95,66	368,42	0,02975	
16,54	0,4036	95,32	369,22	0,02982	
16,56	0,4044	95,08	370,09	0,02984	
16,58	0,4052	95,27	370,91	0,02987	
16,60	0,4058	95,68	371,69	0,02974	
16,62	0,4065	94,65	372,51	0,02958	
16,64	0,4072	93,29	373,37	0,02953	
16,66	0,4079	93,31	374,23	0,02960	
16,68	0,4086	94,50	375,02	0,02976	
16,70	0,4094	95,34	375,79	0,02989	
16,72	0,4102	95,20	376,64	0,02987	
16,74	0,4109	95,47	377,52	0,02969	
16,76	0,4115	96,12	378,28	0,02959	
16,78	0,4122	95,61	379,07	0,02960	
16,80	0,4130	94,39	379,98	0,02965	
16,82	0,4138	94,83	380,83	0,02973	
16,84	0,4146	96,37	381,63	0,02974	
16,86	0,4152	96,39	382,41	0,02971	
16,88	0,4159	95,92	383,18	0,02964	
16,90	0,4166	96,84	383,99	0,02959	
16,92	0,4173	96,74	384,88	0,02952	
16,94	0,4179	95,19	385,76	0,02953	
16,96	0,4186	95,08	386,55	0,02968	
16,98	0,4192	95,69	387,35	0,02981	
17,00	0,4200	94,78	388,24	0,02984	
17,02	0,4208	94,97	389,04	0,02968	
17,04	0,4216	96,60	389,80	0,02954	
17,06	0,4223	96,98	390,63	0,02952	
17,08	0,4229	96,83	391,46	0,02959	
17,10	0,4236	98,06	392,26	0,02974	
17,12	0,4243	99,14	393,08	0,02979	
17,14	0,4250	98,13	394,01	0,02977	
17,16	0,4257	98,52	394,85	0,02972	
17,18	0,4263	100,87	395,56	0,02959	
17,20	0,4269	100,88	396,38	0,02954	
17,22	0,4277	99,56	397,27	0,02961	
17,24	0,4283	101,23	398,05	0,02970	
17,26	0,4289	103,88	398,76	0,02981	
17,28	0,4296	102,98	399,64	0,02989	
17,30	0,4304	101,53	400,57	0,02983	
17,32	0,4310	103,32	401,34	0,02973	
17,34	0,4316	104,30	402,14	0,02964	
17,36	0,4324	102,97	402,97	0,02965	
17,38	0,4330	104,10	403,71	0,02979	
17,40	0,4336	105,80	404,57	0,02995	
17,42	0,4342	104,19	405,49	0,02996	
17,44	0,4347	104,27	406,27	0,02978	
17,46	0,4353	105,83	407,05	0,02959	
17,48	0,4360	104,96	407,92	0,02955	
17,50	0,4367	104,50	408,75	0,02962	
17,52	0,4373	106,16	409,49	0,02971	
17,54	0,4379	106,23	410,28	0,02974	
17,56	0,4386	104,91	411,14	0,02979	
17,58	0,4392	104,98	412,00	0,02988	
17,60	0,4398	105,95	412,79	0,03045	
17,62	0,4404	106,05	413,59	0,03103	
17,64	0,4411	105,70	414,49	0,03125	
17,66	0,4417	107,20	415,31	0,03137	
17,68	0,4422	109,91	416,08	0,03143	
17,70	0,4428	109,83	416,98	0,03142	
17,72	0,4434	109,51	417,85	0,03142	
17,74	0,4439	113,01	418,56	0,03133	
17,76	0,4444	115,24	419,34	0,03128	
17,78	0,4451	114,56	420,24	0,03125	
17,80	0,4457	115,97	421,04	0,03123	
17,82	0,4461	118,70	421,73	0,03099	
17,84	0,4466	117,48	422,66	0,03034	
17,86	0,4472	115,70	423,63	0,02988	
17,88	0,4477	117,75	424,39	0,02963	
17,90	0,4482	118,66	425,15	0,02957	
17,92	0,4487	117,03	425,96	0,02958	
17,94	0,4492	116,72	426,79	0,02966	
17,96	0,4497	117,56	427,63	0,02976	
17,98	0,4501	116,16	428,46	0,02982	
18,00	0,4505	114,61	429,25	0,02975	
18,02	0,4509	114,57	430,07	0,02965	
18,04	0,4514	113,98	430,93	0,02959	
18,06	0,4518	114,17	431,75	0,02956	
18,08	0,4524	114,14	432,57	0,02964	
18,10	0,4529	113,68	433,37	0,02977	
18,12	0,4533	113,51	434,17	0,02981	
18,14	0,4538	113,32	435,01	0,02981	
18,16	0,4542	112,82	435,79	0,02971	
18,18	0,4548	112,47	436,59	0,02955	
18,20	0,4554	110,88	437,50	0,02955	
18,22	0,4558	109,75	438,33	0,02973	
18,24	0,4563	110,28	439,14	0,02984	
18,26	0,4567	109,95	440,00	0,02984	
18,28	0,4572	109,68	440,76	0,02987	
18,30	0,4578	110,43	441,57	0,02979	
18,32	0,4583	109,96	442,45	0,02966	
18,34	0,4588	109,74	443,22	0,02962	
18,36	0,4593	109,88	444,04	0,02968	
18,38	0,4599	109,05	444,91	0,02979	
18,40	0,4603	108,63	445,68	0,02984	
18,42	0,4608	109,19	446,52	0,02978	
18,44	0,4614	108,26	447,39	0,02969	
18,46	0,4619	108,52	448,14	0,02965	
18,48	0,4624	109,76	448,95	0,02957	
18,50	0,4630	108,66	449,82	0,02959	
18,52	0,4635	108,50	450,64	0,02979	
18,54	0,4641	109,63	451,46	0,02990	
18,56	0,4646	108,68	452,29	0,02990	
18,58	0,4650	108,36	453,06	0,02979	
18,60	0,4654	109,24	453,85	0,02971	
18,62	0,4660	109,01	454,71	0,02960	
18,64	0,4665	108,57	455,55	0,02958	
18,66	0,4670	109,26	456,36	0,02964	
18,68	0,4674	108,93	457,19	0,02976	
18,70	0,4679	108,10	458,03	0,02985	
18,72	0,4685	108,37	458,83	0,02977	
18,74	0,4690	108,73	459,64	0,02967	
18,76	0,4696	108,94	460,45	0,02968	
18,78	0,4701	108,96	461,25	0,02969	
18,80	0,4706	108,82	462,10	0,02976	
18,82	0,4711	108,51	462,96	0,02989	
18,84	0,4716	108,14	463,77	0,02993	
18,86	0,4721	107,69	464,60	0,02983	
18,88	0,4726	107,08	465,41	0,02968	
18,90	0,4730	107,87	466,16	0,02964	
18,92	0,4736	108,21	467,02	0,02969	
18,94	0,4742	107,37	467,89	0,02979	
18,96	0,4746	107,85	468,68	0,02985	
18,98	0,4751	108,27	469,50	0,02990	
19,00	0,4756	106,88	470,34	0,02997	
19,02	0,4761	106,76	471,15	0,02989	
19,04	0,4767	107,14	471,95	0,02972	
19,06	0,4772	106,00	472,80	0,02958	
19,08	0,4778	104,76	473,62	0,02961	
19,10	0,4782	104,97	474,40	0,02972	
19,12	0,4787	104,52	475,23	0,02978	
19,14	0,4793	102,95	476,09	0,02978	
19,16	0,4797	103,24	476,85	0,02969	
19,18	0,4802	103,63	477,72	0,02962	
19,20	0,4808	102,42	478,61	0,02959	
19,22	0,4812	102,43	479,37	0,02965	
19,24	0,4818	103,08	480,19	0,02976	
19,26	0,4824	101,81	481,04	0,02986	
19,28	0,4828	101,63	481,81	0,02989	
19,30	0,4833	102,79	482,61	0,02982	
19,32	0,4838	101,89	483,45	0,02971	
19,34	0,4843	101,47	484,25	0,02961	
19,36	0,4849	102,22	485,10	0,02961	
19,38	0,4855	102,12	485,93	0,02963	
19,40	0,4860	101,61	486,73	0,02970	
19,42	0,4865	101,35	487,56	0,02978	
19,44	0,4871	101,13	488,36	0,02979	
19,46	0,4877	101,83	489,13	0,02967	
19,48	0,4883	101,74	490,00	0,02962	
19,50	0,4888	100,67	490,83	0,02966	
19,52	0,4893	100,87	491,62	0,02971	
19,54	0,4899	99,95	492,51	0,02978	
19,56	0,4905	99,31	493,34	0,02979	
19,58	0,4910	100,31	494,14	0,02974	
19,60	0,4915	100,44	495,00	0,02963	
19,62	0,4921	100,45	495,73	0,02953	
19,64	0,4926	102,46	496,49	0,02952	
19,66	0,4932	102,27	497,46	0,02962	
19,68	0,4938	100,51	498,32	0,02978	
19,70	0,4943	101,06	499,07	0,02985	
19,72	0,4948	100,67	499,88	0,02981	
19,74	0,4954	98,88	500,66	0,02965	
19,76	0,4959	98,55	501,47	0,02954	
19,78	0,4965	98,04	502,31	0,02959	
19,80	0,4970	96,90	503,09	0,02973	
19,82	0,4975	96,87	503,96	0,02983	
19,84	0,4980	96,16	504,88	0,02989	
19,86	0,4984	96,65	505,61	0,02987	
19,88	0,4990	96,97	506,43	0,02980	
19,90	0,4996	95,11	507,35	0,02967	
19,92	0,5001	95,11	508,08	0,02960	
19,94	0,5007	95,80	508,91	0,02965	
19,96	0,5013	93,07	509,80	0,02981	
19,98	0,5018	92,15	510,52	0,02994	
20,00	0,5023	93,31	511,35	0,02986	
20,02	0,5030	91,14	512,22	0,02969	
20,04	0,5034	89,95	512,98	0,02963	
20,06	0,5040	90,06	513,85	0,02965	
20,08	0,5046	88,50	514,70	0,02975	
20,10	0,5051	88,97	515,40	0,02984	
20,12	0,5057	89,76	516,31	0,02988	
20,14	0,5063	88,50	517,20	0,02988	
20,16	0,5068	89,38	517,90	0,02979	
20,18	0,5075	89,60	518,75	0,02970	
20,20	0,5080	87,76	519,59	0,02970	
20,22	0,5085	87,73	520,34	0,02976	
20,24	0,5092	86,90	521,24	0,02981	
20,26	0,5099	83,99	522,09	0,02987	
20,28	0,5104	84,21	522,81	0,02990	
20,30	0,5110	84,76	523,69	0,02977	
20,32	0,5116	83,39	524,50	0,02960	
20,34	0,5122	83,95	525,24	0,02954	
20,36	0,5129	83,18	526,16	0,02968	
20,38	0,5136	81,42	526,99	0,02987	
20,40	0,5142	82,33	527,76	0,02995	
20,42	0,5147	81,94	528,66	0,02988	
20,44	0,5153	79,74	529,41	0,02978	
20,46	0,5159	80,17	530,16	0,02970	
20,48	0,5166	79,10	531,10	0,02968	
20,50	0,5173	77,03	531,92	0,02977	
20,52	0,5179	77,41	532,71	0,02985	
20,54	0,5186	76,92	533,58	0,02993	
20,56	0,5192	76,30	534,30	0,02995	
20,58	0,5199	76,71	535,11	0,02983	
20,60	0,5207	75,14	536,07	0,02961	
20,62	0,5213	74,24	536,83	0,02955	
20,64	0,5219	75,05	537,61	0,02959	
20,66	0,5227	74,28	538,48	0,02965	
20,68	0,5233	74,64	539,20	0,02977	
20,70	0,5240	75,62	540,02	0,02980	
20,72	0,5247	72,77	540,97	0,02972	
20,74	0,5253	71,01	541,73	0,02964	
20,76	0,5260	71,03	542,58	0,02957	
20,78	0,5267	68,75	543,45	0,02960	
20,80	0,5273	68,87	544,10	0,02978	
20,82	0,5282	70,59	544,91	0,02986	
20,84	0,5290	68,27	545,92	0,02980	
20,86	0,5297	66,48	546,74	0,02974	
20,88	0,5303	67,47	547,47	0,02965	
20,90	0,5310	65,84	548,26	0,02957	
20,92	0,5318	62,74	549,08	0,02956	
20,94	0,5326	62,83	549,88	0,02967	
20,96	0,5334	63,17	550,70	0,02983	
20,98	0,5341	61,73	551,54	0,02989	
21,00	0,5348	61,23	552,35	0,02977	
21,02	0,5356	60,65	553,17	0,02960	
21,04	0,5364	58,98	554,02	0,02960	
21,06	0,5372	57,78	554,78	0,02966	
21,08	0,5380	56,96	555,60	0,02977	
21,10	0,5389	54,78	556,50	0,02986	
21,12	0,5396	53,70	557,27	0,02986	
21,14	0,5404	53,36	558,10	0,02977	
21,16	0,5412	51,49	558,95	0,02962	
21,18	0,5419	51,07	559,65	0,02952	
21,20	0,5428	50,84	560,52	0,02958	
21,22	0,5438	47,72	561,52	0,02966	
21,24	0,5446	46,64	562,28	0,02974	
21,26	0,5454	46,27	563,07	0,02980	
21,28	0,5462	43,89	563,89	0,02977	
21,30	0,5470	43,26	564,58	0,02963	
21,32	0,5479	42,82	565,48	0,02955	
21,34	0,5489	39,73	566,49	0,02959	
21,36	0,5497	38,16	567,25	0,02969	
21,38	0,5506	37,43	568,01	0,02979	
21,40	0,5516	34,19	568,82	0,02987	
21,42	0,5525	32,46	569,57	0,02983	
21,44	0,5535	31,64	570,44	0,02969	
21,46	0,5545	29,56	571,28	0,02958	
21,48	0,5553	29,52	571,97	0,02957	
21,50	0,5564	28,57	572,88	0,02969	
21,52	0,5574	25,30	573,83	0,02983	
21,54	0,5584	24,14	574,57	0,02984	
21,56	0,5594	23,56	575,36	0,02978	
21,58	0,5605	20,31	576,18	0,02965	
21,60	0,5615	18,65	576,95	0,02955	
21,62	0,5626	18,01	577,82	0,02956	
21,64	0,5636	15,71	578,67	0,02968	
21,66	0,5646	14,93	579,40	0,02987	
21,68	0,5659	14,15	580,26	0,02996	
21,70	0,5669	12,39	581,14	0,02991	
21,72	0,5680	11,57	581,91	0,02977	
21,74	0,5692	10,37	582,73	0,02971	
21,76	0,5703	7,815	583,56	0,02972	
21,78	0,5713	7,108	584,33	0,02974	
21,80	0,5727	6,424	585,19	0,02980	
21,82	0,5739	4,938	585,97	0,02990	
21,84	0,5749	4,549	586,74	0,02991	
21,86	0,5761	2,655	587,69	0,02978	
21,88	0,5773	0,5850	588,55	0,02969	
21,90	0,5786	0,5312	589,24	0,02969	
21,92	0,5800	-0,9117	590,08	0,02971	
21,94	0,5812	-4,494	590,99	0,02971	
21,96	0,5824	-5,709	591,73	0,02972	
21,98	0,5835	-5,530	592,39	0,02976	
22,00	0,5848	-7,911	593,39	0,02972	
22,02	0,5861	-10,88	594,43	0,02963	
22,04	0,5874	-10,80	595,15	0,02957	
22,06	0,5887	-10,93	595,77	0,02960	
22,08	0,5901	-13,51	596,65	0,02971	
22,10	0,5915	-15,96	597,58	0,02983	
22,12	0,5927	-14,55	598,23	0,02987	
22,14	0,5941	-15,23	599,06	0,02980	
22,16	0,5955	-19,25	600,18	0,02966	
22,18	0,5968	-20,01	600,98	0,02956	
22,20	0,5981	-17,91	601,45	0,02965	
22,22	0,5995	-18,25	602,19	0,02977	
22,24	0,6012	-21,85	603,41	0,02979	
22,26	0,6028	-22,72	604,43	0,02977	
22,28	0,6042	-21,00	604,90	0,02973	
22,30	0,6055	-20,31	605,41	0,02972	
22,32	0,6069	-21,92	606,50	0,02971	
22,34	0,6084	-23,32	607,75	0,02976	
22,36	0,6096	-20,87	608,38	0,02984	
22,38	0,6108	-18,29	608,61	0,02992	
22,40	0,6121	-18,46	609,33	0,02989	
22,42	0,6136	-19,95	610,73	0,02985	
22,44	0,6151	-20,51	612,09	0,02970	
22,46	0,6163	-18,45	612,74	0,02954	
22,48	0,6175	-17,51	613,26	0,02951	
22,50	0,6191	-19,67	614,14	0,02955	
22,52	0,6207	-18,36	614,95	0,02967	
22,54	0,6219	-13,18	615,64	0,02979	
22,56	0,6231	-11,68	616,46	0,02979	
22,58	0,6244	-12,48	617,27	0,02970	
22,60	0,6257	-9,374	618,03	0,02963	
22,62	0,6270	-6,151	618,86	0,02966	
22,64	0,6284	-4,213	619,70	0,02972	
22,66	0,6297	-0,8145	620,55	0,02979	
22,68	0,6311	2,878	621,35	0,02985	
22,70	0,6324	6,066	622,10	0,02989	
22,72	0,6337	9,347	622,96	0,02978	
22,74	0,6348	11,77	623,80	0,02966	
22,76	0,6358	15,49	624,53	0,02961	
22,78	0,6369	18,27	625,43	0,02965	
22,80	0,6380	19,33	626,35	0,02978	
22,82	0,6391	22,95	627,12	0,02980	
22,84	0,6402	26,23	627,96	0,02974	
22,86	0,6413	27,87	628,75	0,02964	
22,88	0,6423	30,67	629,47	0,02957	
22,90	0,6433	32,88	630,38	0,02958	
22,92	0,6443	33,44	631,27	0,02960	
22,94	0,6452	36,52	632,04	0,02964	
22,96	0,6462	38,86	632,89	0,02980	
22,98	0,6472	39,87	633,69	0,02987	
23,00	0,6482	43,20	634,48	0,02979	
23,02	0,6492	45,47	635,39	0,02969	
23,04	0,6500	46,55	636,14	0,02963	
23,06	0,6509	49,43	636,87	0,02962	
23,08	0,6519	50,63	637,84	0,02971	
23,10	0,6527	51,45	638,66	0,02983	
23,12	0,6535	54,42	639,41	0,02991	
23,14	0,6544	54,79	640,29	0,02993	
23,16	0,6551	54,22	641,06	0,02985	
23,18	0,6559	55,81	641,85	0,02975	
23,20	0,6568	56,61	642,71	0,02969	
23,22	0,6576	57,05	643,46	0,02970	
23,24	0,6585	58,96	644,28	0,02975	
23,26	0,6593	59,00	645,20	0,02985	
23,28	0,6600	59,10	645,97	0,02986	
23,30	0,6607	60,97	646,79	0,02971	
23,32	0,6616	60,84	647,68	0,02961	
23,34	0,6623	61,08	648,43	0,02968	
23,36	0,6632	62,17	649,27	0,02981	
23,38	0,6640	61,28	650,12	0,02984	
23,40	0,6648	61,28	650,84	0,02987	
23,42	0,6656	62,36	651,70	0,02984	
23,44	0,6664	60,76	652,61	0,02975	
23,46	0,6671	60,90	653,34	0,02968	
23,48	0,6679	61,88	654,20	0,02963	
23,50	0,6688	60,37	655,10	0,02972	
23,52	0,6695	60,78	655,81	0,02983	
23,54	0,6703	62,00	656,64	0,02986	
23,56	0,6711	60,86	657,48	0,02990	
23,58	0,6717	61,60	658,18	0,02977	
23,60	0,6725	61,61	659,10	0,02964	
23,62	0,6734	58,21	660,07	0,02966	
23,64	0,6741	57,44	660,83	0,02972	
23,66	0,6748	57,19	661,62	0,02973	
23,68	0,6756	54,75	662,38	0,02979	
23,70	0,6763	54,66	663,09	0,02984	
23,72	0,6772	54,59	664,00	0,02977	
23,74	0,6780	52,53	664,85	0,02963	
23,76	0,6789	53,19	665,59	0,02957	
23,78	0,6798	52,60	666,52	0,02962	
23,80	0,6805	50,83	667,41	0,02973	
23,82	0,6813	51,21	668,16	0,02979	
23,84	0,6821	50,86	668,98	0,02984	
23,86	0,6830	48,24	669,77	0,02982	
23,88	0,6838	47,72	670,56	0,02971	
23,90	0,6846	47,47	671,42	0,02962	
23,92	0,6854	46,40	672,14	0,02967	
23,94	0,6862	46,23	672,90	0,02974	
23,96	0,6872	44,23	673,95	0,02985	
23,98	0,6881	41,95	674,86	0,02992	
24,00	0,6890	41,96	675,58	0,02982	
24,02	0,6899	40,85	676,35	0,02969	
24,04	0,6908	39,31	677,13	0,02957	
24,06	0,6917	39,88	677,95	0,02953	
24,08	0,6926	39,85	678,81	0,02970	
24,10	0,6934	39,32	679,51	0,02986	
24,12	0,6943	39,42	680,36	0,02988	
24,14	0,6955	37,08	681,42	0,02982	
24,16	0,6964	36,43	682,25	0,02973	
24,18	0,6972	37,76	682,91	0,02967	
24,20	0,6982	36,55	683,72	0,02967	
24,22	0,6991	34,64	684,55	0,02975	
24,24	0,7001	35,39	685,28	0,02986	
24,26	0,7011	35,56	686,10	0,02986	
24,28	0,7020	33,57	687,02	0,02984	
24,30	0,7028	33,62	687,76	0,02972	
24,32	0,7037	35,04	688,51	0,02958	
24,34	0,7048	33,21	689,54	0,02957	
24,36	0,7058	31,18	690,49	0,02972	
24,38	0,7066	32,35	691,15	0,02987	
24,40	0,7076	33,26	691,83	0,02992	
24,42	0,7086	30,73	692,72	0,02982	
24,44	0,7097	29,37	693,57	0,02973	
24,46	0,7106	31,12	694,28	0,02963	
24,48	0,7117	30,03	695,20	0,02953	
24,50	0,7128	27,34	696,19	0,02961	
24,52	0,7137	27,60	696,94	0,02977	
24,54	0,7147	28,53	697,64	0,02983	
24,56	0,7158	26,90	698,48	0,02982	
24,58	0,7169	26,22	699,30	0,02974	
24,60	0,7179	27,66	700,07	0,02964	
24,62	0,7188	27,41	700,91	0,02958	
24,64	0,7198	25,94	701,75	0,02968	
24,66	0,7209	26,51	702,53	0,02979	
24,68	0,7219	26,76	703,38	0,02981	
24,70	0,7230	25,81	704,24	0,02978	
24,72	0,7239	26,64	705,00	0,02971	
24,74	0,7250	27,47	705,82	0,02966	
24,76	0,7261	26,70	706,64	0,02964	
24,78	0,7271	26,82	707,41	0,02968	
24,80	0,7281	25,90	708,29	0,02975	
24,82	0,7292	23,58	709,22	0,02988	
24,84	0,7303	23,41	710,00	0,02992	
24,86	0,7313	24,02	710,76	0,02985	
24,88	0,7324	23,21	711,60	0,02972	
24,90	0,7335	22,68	712,42	0,02966	
24,92	0,7345	23,76	713,19	0,02967	
24,94	0,7355	23,22	714,03	0,02975	
24,96	0,7366	21,55	714,89	0,02986	
24,98	0,7377	22,06	715,65	0,02988	
25,00	0,7388	22,81	716,50	0,02981	
25,02	0,7399	21,14	717,41	0,02968	
25,04	0,7409	20,02	718,20	0,02958	
25,06	0,7419	20,23	718,97	0,02961	
25,08	0,7430	18,85	719,81	0,02977	
25,10	0,7440	17,83	720,61	0,02987	
25,12	0,7452	18,22	721,40	0,02989	
25,14	0,7463	17,88	722,24	0,02979	
25,16	0,7473	17,31	723,05	0,02964	
25,18	0,7484	16,74	723,87	0,02960	
25,20	0,7494	15,25	724,68	0,02964	
25,22	0,7505	14,26	725,48	0,02973	
25,24	0,7516	14,24	726,32	0,02978	
25,26	0,7527	14,03	727,17	0,02981	
25,28	0,7539	14,73	727,98	0,02983	
25,30	0,7550	15,17	728,86	0,02976	
25,32	0,7561	15,01	729,71	0,02965	
25,34	0,7571	16,89	730,46	0,02965	
25,36	0,7582	18,12	731,35	0,02971	
25,38	0,7594	18,51	732,19	0,02981	
25,40	0,7605	21,05	732,96	0,02989	
25,42	0,7616	23,36	733,83	0,02992	
25,44	0,7626	25,45	734,56	0,02979	
25,46	0,7636	28,77	735,32	0,02965	
25,48	0,7648	29,59	736,42	0,02962	
25,50	0,7657	30,55	737,33	0,02972	
25,52	0,7667	34,36	738,02	0,02984	
25,54	0,7677	36,37	738,77	0,02991	
25,56	0,7687	36,80	739,48	0,02987	
25,58	0,7697	38,81	740,31	0,02973	
25,60	0,7706	40,30	741,20	0,02966	
25,62	0,7714	41,27	741,87	0,02968	
25,64	0,7724	43,22	742,74	0,02969	
25,66	0,7735	42,56	743,94	0,02976	
25,68	0,7743	43,57	744,79	0,02983	
25,70	0,7751	46,68	745,42	0,02988	
25,72	0,7759	46,48	746,19	0,02986	
25,74	0,7769	45,01	746,98	0,02977	
25,76	0,7777	47,15	747,65	0,02969	
25,78	0,7786	48,59	748,49	0,02971	
25,80	0,7795	47,77	749,45	0,02977	
25,82	0,7803	49,95	750,07	0,02982	
25,84	0,7811	52,82	750,78	0,02985	
25,86	0,7822	50,80	752,12	0,02981	
25,88	0,7831	49,03	753,27	0,02969	
25,90	0,7838	51,96	753,64	0,02966	
25,92	0,7845	54,58	753,93	0,02978	
25,94	0,7854	52,36	755,07	0,02992	
25,96	0,7865	50,10	756,59	0,02994	
25,98	0,7873	52,47	757,28	0,02987	
26,00	0,7879	55,52	757,31	0,02978	
26,02	0,7887	55,00	757,90	0,02968	
26,04	0,7898	51,76	759,46	0,02961	
26,06	0,7907	50,37	760,89	0,02974	
26,08	0,7914	52,53	761,28	0,02988	
26,10	0,7920	53,55	761,57	0,02990	
26,12	0,7931	50,13	762,76	0,02990	
26,14	0,7940	48,42	764,01	0,02976	
26,16	0,7946	52,01	764,46	0,02961	
26,18	0,7953	52,43	764,79	0,02957	
26,20	0,7962	46,33	765,88	0,02971	
26,22	0,7972	42,19	767,17	0,02986	
26,24	0,7979	45,62	767,88	0,02984	
26,26	0,7986	46,43	768,45	0,02974	
26,28	0,7994	43,75	769,11	0,02964	
26,30	0,8002	43,58	769,83	0,02959	
26,32	0,8010	44,24	770,78	0,02958	
26,34	0,8018	42,66	771,49	0,02968	
26,36	0,8023	43,42	772,02	0,02979	
26,38	0,8030	42,49	773,22	0,02980	
26,40	0,8038	38,68	774,65	0,02986	
26,42	0,8044	38,75	775,23	0,02985	
26,44	0,8050	41,78	775,32	0,02974	
26,46	0,8057	40,08	776,13	0,02963	
26,48	0,8068	35,14	777,79	0,02966	
26,50	0,8076	34,02	778,95	0,02977	
26,52	0,8080	36,79	779,05	0,02989	
26,54	0,8086	37,93	779,28	0,02990	
26,56	0,8096	34,76	780,61	0,02976	
26,58	0,8105	31,70	782,19	0,02962	
26,60	0,8110	33,64	782,72	0,02963	
26,62	0,8113	35,65	782,74	0,02969	
26,64	0,8120	31,46	783,67	0,02975	
26,66	0,8131	26,57	785,32	0,02981	
26,68	0,8138	27,38	786,21	0,02984	
26,70	0,8142	31,63	786,19	0,02971	
26,72	0,8147	30,04	786,66	0,02958	
26,74	0,8155	24,85	788,21	0,02951	
26,76	0,8163	23,22	789,61	0,02958	
26,78	0,8168	26,86	789,88	0,02973	
26,80	0,8172	28,75	790,01	0,02976	
26,82	0,8180	24,63	791,23	0,02976	
26,84	0,8188	20,66	792,85	0,02972	
26,86	0,8193	23,05	793,47	0,02964	
26,88	0,8195	26,87	793,42	0,02958	
26,90	0,8201	24,75	794,20	0,02961	
26,92	0,8211	19,93	795,92	0,02972	
26,94	0,8218	19,93	797,02	0,02973	
26,96	0,8221	24,42	797,02	0,02972	
26,98	0,8226	24,54	797,29	0,02969	
27,00	0,8234	19,77	798,75	0,02960	
27,02	0,8242	17,33	800,36	0,02961	
27,04	0,8247	21,06	800,77	0,02976	
27,06	0,8250	25,69	800,22	0,02989	
27,08	0,8255	28,89	799,74	0,02988	
27,10	0,8262	32,19	799,81	0,02977	
27,12	0,8268	39,62	799,76	0,02961	
27,14	0,8272	46,98	799,61	0,02953	
27,16	0,8277	46,30	799,83	0,02961	
27,18	0,8282	45,51	799,90	0,02964	
27,20	0,8285	52,38	799,66	0,02967	
27,22	0,8290	57,04	799,72	0,02973	
27,24	0,8296	57,00	799,82	0,02976	
27,26	0,8299	62,59	799,62	0,02964	
27,28	0,8303	66,88	799,68	0,02953	
27,30	0,8307	65,33	799,91	0,02951	
27,32	0,8309	68,51	799,75	0,02962	
27,34	0,8312	73,91	799,63	0,02978	
27,36	0,8317	72,88	799,79	0,02988	
27,38	0,8320	73,97	799,70	0,02980	
27,40	0,8322	79,30	799,59	0,02969	
27,42	0,8327	78,85	799,85	0,02967	
27,44	0,8330	77,55	799,89	0,02965	
27,46	0,8332	82,48	799,64	0,02964	
27,48	0,8336	83,64	799,75	0,02973	
27,50	0,8341	80,97	799,89	0,02981	
27,52	0,8342	84,46	799,68	0,02983	
27,54	0,8344	87,59	799,66	0,02968	
27,56	0,8347	84,85	799,86	0,02953	
27,58	0,8350	86,18	799,73	0,02946	
27,60	0,8353	90,14	799,59	0,02951	
27,62	0,8357	88,28	799,78	0,02972	
27,64	0,8360	88,12	799,77	0,02989	
27,66	0,8362	92,88	799,60	0,02992	
27,68	0,8365	92,61	799,83	0,02979	
27,70	0,8368	90,81	799,93	0,02964	
27,72	0,8369	94,55	799,69	0,02960	
27,74	0,8372	95,64	799,75	0,02962	
27,76	0,8376	92,47	799,87	0,02971	
27,78	0,8376	95,10	799,66	0,02983	
27,80	0,8378	97,67	799,69	0,02986	
27,82	0,8383	94,80	799,91	0,02977	
27,84	0,8384	95,61	799,76	0,02968	
27,86	0,8386	99,39	799,62	0,02959	
27,88	0,8390	97,33	799,82	0,02959	
27,90	0,8392	96,31	799,78	0,02979	
27,92	0,8394	100,65	799,62	0,02995	
27,94	0,8398	99,18	799,85	0,02996	
27,96	0,8400	95,67	799,92	0,02986	
27,98	0,8401	99,36	799,66	0,02968	
28,00	0,8404	100,95	799,69	0,02955	
28,02	0,8407	97,89	799,84	0,02964	
28,04	0,8408	100,22	799,66	0,02972	
28,06	0,8410	103,25	799,62	0,02979	
28,08	0,8413	99,76	799,86	0,02986	
28,10	0,8416	100,13	799,76	0,02984	
28,12	0,8417	105,11	799,60	0,02973	
28,14	0,8420	103,87	799,80	0,02959	
28,16	0,8423	101,60	799,80	0,02965	
28,18	0,8423	105,40	799,59	0,02976	
28,20	0,8426	105,06	799,77	0,02985	
28,22	0,8430	101,44	799,93	0,02988	
28,24	0,8430	104,09	799,70	0,02978	
28,26	0,8432	105,61	799,74	0,02964	
28,28	0,8437	101,98	799,93	0,02959	
28,30	0,8438	103,21	799,76	0,02955	
28,32	0,8439	107,04	799,63	0,02961	
28,34	0,8443	104,26	799,79	0,02979	
28,36	0,8445	103,56	799,70	0,02988	
28,38	0,8444	107,45	799,60	0,02985	
28,40	0,8448	106,13	799,84	0,02975	
28,42	0,8451	104,65	799,85	0,02970	
28,44	0,8451	108,64	799,65	0,02964	
28,46	0,8455	108,88	799,74	0,02963	
28,48	0,8458	106,58	799,74	0,02974	
28,50	0,8458	110,04	799,56	0,02982	
28,52	0,8462	110,54	799,78	0,02980	
28,54	0,8465	106,61	799,99	0,02972	
28,56	0,8465	108,87	799,76	0,02962	
28,58	0,8466	112,22	799,65	0,02954	
28,60	0,8470	109,22	799,79	0,02963	
28,62	0,8471	109,93	799,67	0,02977	
28,64	0,8472	112,88	799,60	0,02984	
28,66	0,8477	109,37	799,89	0,02984	
28,68	0,8479	107,26	799,92	0,02971	
28,70	0,8479	111,88	799,65	0,02958	
28,72	0,8483	111,87	799,75	0,02954	
28,74	0,8486	108,68	799,90	0,02959	
28,76	0,8485	111,60	799,69	0,02973	
28,78	0,8488	113,54	799,64	0,02986	
28,80	0,8491	109,36	799,77	0,02984	
28,82	0,8492	109,96	799,63	0,02963	
28,84	0,8494	112,72	799,66	0,02952	
28,86	0,8498	109,40	800,02	0,02963	
28,88	0,8499	108,44	799,97	0,02976	
28,90	0,8499	113,10	799,68	0,02984	
28,92	0,8503	112,49	799,80	0,02985	
28,94	0,8505	110,41	799,87	0,02981	
28,96	0,8506	114,27	799,66	0,02976	
28,98	0,8510	114,63	799,72	0,02970	
29,00	0,8512	110,85	799,81	0,02960	
29,02	0,8512	112,77	799,61	0,02962	
29,04	0,8514	116,12	799,61	0,02973	
29,06	0,8518	113,16	799,84	0,02980	
29,08	0,8519	113,58	799,71	0,02986	
29,10	0,8520	116,36	799,64	0,02971	
29,12	0,8524	112,86	799,96	0,02957	
29,14	0,8526	110,54	799,99	0,02953	
29,16	0,8525	115,04	799,70	0,02961	
29,18	0,8527	115,68	799,71	0,02968	
29,20	0,8530	113,08	799,75	0,02974	
29,22	0,8531	116,57	799,57	0,02980	
29,24	0,8532	117,42	799,70	0,02987	
29,26	0,8536	113,14	799,94	0,02986	
29,28	0,8537	114,10	799,78	0,02981	
29,30	0,8538	118,06	799,62	0,02981	
29,32	0,8542	115,98	799,71	0,02980	
29,34	0,8544	115,68	799,59	0,02985	
29,36	0,8545	118,48	799,57	0,02993	
29,38	0,8547	115,71	799,93	0,02994	
29,40	0,8549	113,62	799,97	0,02984	
29,42	0,8550	117,64	799,68	0,02963	
29,44	0,8553	117,80	799,77	0,02960	
29,46	0,8556	114,60	799,87	0,02970	
29,48	0,8557	117,64	799,65	0,02966	
29,50	0,8559	119,13	799,70	0,02848	
29,52	0,8560	115,38	799,89	0,02443	
29,54	0,8562	116,45	799,72	0,02091	
29,56	0,8564	119,61	799,63	0,02082	
29,58	0,8567	116,47	799,82	0,02208	
29,60	0,8567	115,80	799,71	0,02284	
29,62	0,8570	119,84	799,60	0,02310	
29,64	0,8573	117,88	799,88	0,02336	
29,66	0,8574	115,03	799,92	0,02347	
29,68	0,8575	118,63	799,67	0,02378	
29,70	0,8578	119,00	799,72	0,02469	
29,72	0,8580	116,42	799,77	0,02610	
29,74	0,8579	119,87	799,58	0,02678	
29,76	0,8582	120,69	799,72	0,02454	
29,78	0,8586	116,56	799,95	0,01925	
29,80	0,8586	117,97	799,76	0,01701	
29,82	0,8586	121,89	799,61	0,01803	
29,84	0,8590	119,33	799,81	0,01930	
29,86	0,8592	118,63	799,77	0,01958	
29,88	0,8592	122,30	799,61	0,01937	
29,90	0,8594	120,64	799,83	0,01894	
29,92	0,8596	117,93	799,91	0,01849	
29,94	0,8598	121,40	799,65	0,01811	
29,96	0,8599	122,65	799,69	0,01782	
29,98	0,8602	118,61	799,92	0,01747	
30,00	0,8604	119,90	799,78	0,01711	
30,02	0,8605	123,16	799,64	0,01670	
30,04	0,8607	119,96	799,75	0,01612	
30,06	0,8607	119,20	799,64	0,01530	
30,08	0,8610	123,18	799,59	0,01422	
30,10	0,8613	121,45	799,91	0,01190	
30,12	0,8614	119,77	799,95	0,00937	
30,14	0,8612	124,11	799,68	0,00811	
30,16	0,8616	124,74	799,73	0,00792	
30,18	0,8619	122,09	799,83	0,00810	
30,20	0,8619	125,12	799,62	0,00811	
30,22	0,8619	127,72	799,62	0,00796	
30,24	0,8623	123,77	799,93	0,00781	
30,26	0,8626	123,41	799,89	0,00769	
30,28	0,8626	127,90	799,65	0,00760	
30,30	0,8627	126,58	799,74	0,00770	
30,32	0,8630	124,30	799,73	0,00786	
30,34	0,8631	128,35	799,56	0,00789	
30,36	0,8633	127,15	799,86	0,00786	
30,38	0,8634	122,30	800,10	0,00777	
30,40	0,8633	124,17	799,84	0,00753	
30,42	0,8635	127,53	799,63	0,00746	
30,44	0,8639	124,65	799,76	0,00760	
30,46	0,8640	125,01	799,68	0,00757	
30,48	0,8639	128,56	799,61	0,00752	
30,50	0,8642	125,58	799,85	0,00758	
30,52	0,8644	122,92	799,81	0,00751	
30,54	0,8645	125,98	799,62	0,00734	
30,56	0,8647	125,27	799,81	0,00732	
30,58	0,8648	122,45	799,89	0,00743	
30,60	0,8650	125,63	799,65	0,00749	
30,62	0,8653	125,97	799,70	0,00753	
30,64	0,8654	122,45	799,84	0,00762	
30,66	0,8654	124,55	799,65	0,00754	
30,68	0,8657	127,22	799,64	0,00738	
30,70	0,8660	123,65	799,87	0,00740	
30,72	0,8660	123,79	799,76	0,00739	
30,74	0,8660	127,92	799,61	0,00741	
30,76	0,8663	125,42	799,83	0,00755	
30,78	0,8666	123,36	799,83	0,00755	
30,80	0,8666	127,54	799,62	0,00742	
30,82	0,8667	127,10	799,74	0,00741	
30,84	0,8669	124,21	799,82	0,00745	
30,86	0,8670	127,35	799,62	0,00746	
30,88	0,8673	129,15	799,71	0,00751	
30,90	0,8675	125,72	799,87	0,00758	
30,92	0,8673	126,73	799,68	0,00760	
30,94	0,8676	129,67	799,67	0,00752	
30,96	0,8680	126,80	799,84	0,00745	
30,98	0,8680	127,11	799,69	0,00734	
31,00	0,8680	129,75	799,63	0,00730	
31,02	0,8681	126,38	799,88	0,00744	
31,04	0,8683	124,70	799,84	0,00754	
31,06	0,8685	129,15	799,62	0,00753	
31,08	0,8687	128,29	799,70	0,00745	
31,10	0,8688	125,35	799,72	0,00735	
31,12	0,8689	128,69	799,55	0,00730	
31,14	0,8693	129,10	799,72	0,00734	
31,16	0,8694	125,82	799,89	0,00748	
31,18	0,8693	127,88	799,67	0,00759	
31,20	0,8694	129,30	799,74	0,00754	
31,22	0,8697	125,66	800,02	0,00747	
31,24	0,8699	125,91	799,88	0,00744	
31,26	0,8700	129,06	799,68	0,00743	
31,28	0,8701	126,46	799,81	0,00750	
31,30	0,8702	125,51	799,75	0,00765	
31,32	0,8704	129,26	799,58	0,00767	
31,34	0,8707	127,68	799,78	0,00757	
31,36	0,8708	124,70	799,88	0,00758	
31,38	0,8706	127,99	799,64	0,00758	
31,40	0,8708	129,55	799,69	0,00743	
31,42	0,8712	126,36	799,86	0,00731	
31,44	0,8713	128,04	799,70	0,00745	
31,46	0,8713	130,82	799,62	0,00760	
31,48	0,8714	127,90	799,76	0,00758	
31,50	0,8716	127,72	799,64	0,00753	
31,52	0,8719	130,07	799,63	0,00744	
31,54	0,8721	127,37	799,92	0,00737	
31,56	0,8721	125,97	799,91	0,00734	
31,58	0,8719	130,55	799,65	0,00741	
31,60	0,8722	130,77	799,76	0,00753	
31,62	0,8726	128,45	799,84	0,00756	
31,64	0,8726	132,26	799,61	0,00749	
31,66	0,8727	133,46	799,70	0,00744	
31,68	0,8729	129,15	799,96	0,00745	
31,70	0,8730	129,69	799,80	0,00740	
31,72	0,8732	133,17	799,63	0,00740	
31,74	0,8735	130,09	799,83	0,00765	
31,76	0,8734	128,67	799,82	0,00776	
31,78	0,8733	133,09	799,59	0,00762	
31,80	0,8735	131,96	799,78	0,00751	
31,82	0,8739	128,01	799,93	0,00743	
31,84	0,8739	130,66	799,71	0,00732	
31,86	0,8740	132,56	799,70	0,00735	
31,88	0,8742	129,32	799,80	0,00748	
31,90	0,8740	130,80	799,61	0,00758	
31,92	0,8743	132,35	799,72	0,00754	
31,94	0,8747	128,71	800,03	0,00747	
31,96	0,8747	128,28	799,89	0,00746	
31,98	0,8746	132,28	799,64	0,00741	
32,00	0,8748	129,74	799,79	0,00738	
32,02	0,8750	127,54	799,80	0,00747	
32,04	0,8752	131,61	799,61	0,00767	
32,06	0,8754	130,82	799,74	0,00770	
32,08	0,8755	127,67	799,79	0,00755	
32,10	0,8753	130,47	799,59	0,00745	
32,12	0,8754	131,17	799,73	0,00738	
32,14	0,8758	127,66	799,96	0,00735	
32,16	0,8759	129,38	799,76	0,00750	
32,18	0,8760	132,58	799,65	0,00766	
32,20	0,8761	128,80	799,79	0,00753	
32,22	0,8761	127,79	799,69	0,00739	
32,24	0,8763	131,25	799,62	0,00738	
32,26	0,8767	128,84	799,85	0,00730	
32,28	0,8768	126,67	799,81	0,00733	
32,30	0,8767	130,03	799,61	0,00749	
32,32	0,8768	129,70	799,79	0,00765	
32,34	0,8771	127,74	799,88	0,00774	
32,36	0,8772	131,24	799,64	0,00758	
32,38	0,8774	131,55	799,71	0,00732	
32,40	0,8775	126,89	799,92	0,00726	
32,42	0,8774	128,41	799,74	0,00740	
32,44	0,8774	131,46	799,65	0,00744	
32,46	0,8777	128,13	799,85	0,00744	
32,48	0,8780	127,56	799,76	0,00748	
32,50	0,8780	131,32	799,62	0,00749	
32,52	0,8781	128,86	799,83	0,00741	
32,54	0,8781	126,57	799,81	0,00734	
32,56	0,8783	130,09	799,63	0,00741	
32,58	0,8787	129,42	799,88	0,00748	
32,60	0,8788	126,60	800,02	0,00755	
32,62	0,8787	130,11	799,74	0,00763	
32,64	0,8787	132,47	799,66	0,00757	
32,66	0,8789	128,43	799,78	0,00744	
32,68	0,8791	129,21	799,63	0,00738	
32,70	0,8793	131,55	799,66	0,00735	
32,72	0,8795	128,00	799,92	0,00743	
32,74	0,8794	126,40	799,81	0,00756	
32,76	0,8793	130,14	799,61	0,00761	
32,78	0,8795	128,46	799,81	0,00754	
32,80	0,8799	126,75	799,81	0,00735	
32,82	0,8800	130,83	799,63	0,00728	
32,84	0,8801	129,86	799,75	0,00730	
32,86	0,8801	126,34	799,74	0,00744	
32,88	0,8801	128,77	799,61	0,00754	
32,90	0,8806	128,98	799,79	0,00756	
32,92	0,8808	126,05	799,83	0,00756	
32,94	0,8807	127,97	799,61	0,00747	
32,96	0,8808	129,19	799,69	0,00735	
32,98	0,8810	126,38	799,83	0,00743	
33,00	0,8811	128,75	799,63	0,00757	
33,02	0,8814	130,97	799,68	0,00757	
33,04	0,8815	126,86	799,91	0,00754	
33,06	0,8814	127,48	799,75	0,00756	
33,08	0,8814	130,53	799,67	0,00751	
33,10	0,8816	127,71	799,93	0,00740	
33,12	0,8819	126,11	799,89	0,00746	
33,14	0,8820	130,02	799,65	0,00753	
33,16	0,8821	129,36	799,78	0,00751	
33,18	0,8822	126,54	799,83	0,00755	
33,20	0,8820	130,27	799,62	0,00761	
33,22	0,8822	130,60	799,73	0,00758	
33,24	0,8826	126,46	799,86	0,00741	
33,26	0,8826	128,55	799,66	0,00738	
33,28	0,8827	131,40	799,69	0,00748	
33,30	0,8829	127,71	799,92	0,00759	
33,32	0,8829	127,80	799,77	0,00770	
33,34	0,8831	130,41	799,67	0,00771	
33,36	0,8835	126,98	799,89	0,00761	
33,38	0,8835	125,53	799,85	0,00737	
33,40	0,8834	129,18	799,63	0,00735	
33,42	0,8835	127,81	799,75	0,00745	
33,44	0,8838	125,55	799,77	0,00756	
33,46	0,8839	129,40	799,58	0,00765	
33,48	0,8841	129,65	799,71	0,00764	
33,50	0,8842	126,00	799,82	0,00755	
33,52	0,8840	128,15	799,63	0,00741	
33,54	0,8841	129,89	799,71	0,00733	
33,56	0,8845	126,00	799,94	0,00740	
33,58	0,8846	126,45	799,77	0,00753	
33,60	0,8847	129,70	799,66	0,00757	
33,62	0,8849	126,92	799,86	0,00756	
33,64	0,8848	126,76	799,78	0,00740	
33,66	0,8847	130,53	799,61	0,00726	
33,68	0,8851	128,34	799,84	0,00726	
33,70	0,8854	125,61	799,90	0,00741	
33,72	0,8854	129,44	799,65	0,00749	
33,74	0,8855	129,29	799,74	0,00754	
33,76	0,8857	125,25	799,90	0,00756	
33,78	0,8858	127,44	799,69	0,00749	
33,80	0,8860	130,66	799,62	0,00745	
33,82	0,8862	127,26	799,83	0,00744	
33,84	0,8861	127,02	799,75	0,00753	
33,86	0,8860	131,29	799,60	0,00754	
33,88	0,8863	129,51	799,80	0,00755	
33,90	0,8866	127,48	799,80	0,00758	
33,92	0,8867	131,56	799,61	0,00747	
33,94	0,8868	131,33	799,77	0,00736	
33,96	0,8869	128,06	799,84	0,00728	
33,98	0,8867	130,50	799,62	0,00745	
34,00	0,8869	131,02	799,76	0,00763	
34,02	0,8873	126,86	799,96	0,00767	
34,04	0,8874	127,99	799,75	0,00760	
34,06	0,8874	130,68	799,65	0,00746	
34,08	0,8876	127,15	799,87	0,00732	
34,10	0,8876	126,71	799,79	0,00730	
34,12	0,8878	130,42	799,64	0,00739	
34,14	0,8881	128,44	799,81	0,00746	
34,16	0,8882	126,34	799,82	0,00755	
34,18	0,8881	130,43	799,61	0,00752	
34,20	0,8882	130,76	799,74	0,00734	
34,22	0,8883	127,84	799,84	0,00729	
34,24	0,8885	130,46	799,63	0,00733	
34,26	0,8888	131,22	799,73	0,00726	
34,28	0,8889	127,61	799,92	0,00734	
34,30	0,8888	129,00	799,74	0,00754	
34,32	0,8888	131,78	799,61	0,00751	
34,34	0,8890	128,88	799,76	0,00735	
34,36	0,8892	129,04	799,68	0,00725	
34,38	0,8894	132,43	799,59	0,00729	
34,40	0,8895	130,54	799,83	0,00729	
34,42	0,8895	129,33	799,81	0,00787	
34,44	0,8894	132,69	799,63	0,00958	
34,46	0,8896	131,15	799,83	0,00106	
34,48	0,8900	127,66	799,93	-0,00206	
34,50	0,8900	130,30	799,68	0,00726	
34,52	0,8902	131,27	799,68	0,01426	
34,54	0,8902	128,33	799,77	0,01602	
34,56	0,8901	130,68	799,59	0,01580	
34,58	0,8902	132,63	799,67	0,01548	
34,60	0,8905	129,03	799,95	0,01615	
34,62	0,8907	128,95	799,84	0,01685	
34,64	0,8907	132,93	799,64	0,01718	
34,66	0,8909	131,49	799,78	0,01765	
34,68	0,8909	129,85	799,77	0,01882	
34,70	0,8908	134,15	799,58	0,01960	
34,72	0,8911	133,82	799,78	0,02006	
34,74	0,8915	130,19	799,89	0,02058	
34,76	0,8914	132,63	799,66	0,02060	
34,78	0,8915	133,63	799,66	0,02002	
34,80	0,8916	130,00	799,76	0,01910	
34,82	0,8914	131,38	799,60	0,01821	
34,84	0,8916	134,02	799,66	0,01723	
34,86	0,8920	131,74	799,89	0,01691	
34,88	0,8921	131,80	799,75	0,01681	
34,90	0,8921	135,00	799,63	0,01644	
34,92	0,8922	132,96	799,79	0,01614	
34,94	0,8922	132,18	799,71	0,01629	
34,96	0,8923	135,34	799,58	0,01649	
34,98	0,8928	133,63	799,85	0,01690	
35,00	0,8929	131,11	799,93	0,01785	
35,02	0,8928	134,49	799,67	0,01857	
35,04	0,8928	135,18	799,70	0,01904	
35,06	0,8929	131,83	799,83	0,01979	
35,08	0,8931	133,98	799,64	0,02043	
35,10	0,8933	136,16	799,62	0,02040	
35,12	0,8936	132,52	799,89	0,01993	
35,14	0,8936	132,26	799,83	0,01959	
35,16	0,8934	136,35	799,61	0,01894	
35,18	0,8936	134,84	799,76	0,01796	
35,20	0,8937	131,79	799,80	0,01751	
35,22	0,8938	135,27	799,60	0,01720	
35,24	0,8941	135,71	799,74	0,01664	
35,26	0,8943	132,05	799,89	0,01634	
35,28	0,8941	134,13	799,67	0,01638	
35,30	0,8941	135,94	799,73	0,01645	
35,32	0,8943	131,79	800,02	0,01690	
35,34	0,8945	131,77	799,88	0,01785	
35,36	0,8947	135,64	799,64	0,01855	
35,38	0,8949	132,89	799,74	0,01917	
35,40	0,8949	130,63	799,72	0,01986	
35,42	0,8948	134,88	799,56	0,02073	
35,44	0,8949	134,37	799,78	0,02132	
35,46	0,8951	131,06	799,91	0,02135	
35,48	0,8952	133,64	799,68	0,02083	
35,50	0,8955	134,65	799,71	0,01982	
35,52	0,8956	131,18	799,88	0,01897	
35,54	0,8955	133,28	799,69	0,01843	
35,56	0,8955	136,55	799,64	0,01786	
35,58	0,8957	133,18	799,86	0,01738	
35,60	0,8959	132,64	799,77	0,01716	
35,62	0,8961	135,72	799,62	0,01695	
35,64	0,8962	133,18	799,79	0,01700	
35,66	0,8962	131,35	799,75	0,01752	
35,68	0,8961	135,17	799,59	0,01836	
35,70	0,8962	134,38	799,80	0,01917	
35,72	0,8965	131,69	799,88	0,01982	
35,74	0,8966	135,31	799,65	0,02071	
35,76	0,8968	135,73	799,75	0,02126	
35,78	0,8970	131,88	799,95	0,02173	
35,80	0,8968	133,84	799,76	0,02206	
35,82	0,8968	136,81	799,64	0,02198	
35,84	0,8970	133,25	799,77	0,02195	
35,86	0,8973	133,13	799,66	0,02203	
35,88	0,8974	136,39	799,59	0,02184	
35,90	0,8976	133,44	799,84	0,02124	
35,92	0,8976	131,35	799,82	0,02056	
35,94	0,8975	135,11	799,63	0,02009	
35,96	0,8976	134,35	799,78	0,01983	
35,98	0,8977	131,87	799,78	0,02004	
36,00	0,8979	135,32	799,59	0,02044	
36,02	0,8982	135,55	799,81	0,02083	
36,04	0,8983	131,93	800,00	0,02152	
36,06	0,8982	133,97	799,76	0,02209	
36,08	0,8982	136,10	799,68	0,02246	
36,10	0,8983	132,68	799,83	0,02304	
36,12	0,8983	133,73	799,67	0,02389	
36,14	0,8986	137,05	799,64	0,02450	
36,16	0,8989	133,81	799,94	0,02487	
36,18	0,8989	132,10	799,90	0,02501	
36,20	0,8988	135,65	799,68	0,02468	
36,22	0,8989	134,37	799,86	0,02422	
36,24	0,8990	131,47	799,92	0,02429	
36,26	0,8988	135,12	799,66	0,02415	
36,28	0,8991	135,78	799,72	0,02366	
36,30	0,8995	131,99	799,91	0,02330	
36,32	0,8995	133,89	799,72	0,02329	
36,34	0,8995	136,07	799,66	0,02343	
36,36	0,8996	132,53	799,82	0,02374	
36,38	0,8995	132,84	799,68	0,02430	
36,40	0,8996	136,31	799,61	0,02499	
36,42	0,9000	133,54	799,86	0,02553	
36,44	0,9002	132,15	799,79	0,02563	
36,46	0,9002	135,08	799,65	0,02563	
36,48	0,9003	132,90	799,88	0,02543	
36,50	0,9003	130,74	799,90	0,02532	
36,52	0,9002	134,76	799,66	0,02529	
36,54	0,9005	134,78	799,76	0,02529	
36,56	0,9009	131,93	799,81	0,02542	
36,58	0,9008	134,52	799,61	0,02546	
36,60	0,9009	134,81	799,77	0,02555	
36,62	0,9010	130,36	800,00	0,02542	
36,64	0,9009	131,64	799,78	0,02536	
36,66	0,9010	134,88	799,67	0,02527	
36,68	0,9014	132,34	799,88	0,02529	
36,70	0,9015	132,50	799,78	0,02546	
36,72	0,9015	135,83	799,64	0,02563	
36,74	0,9017	132,77	799,93	0,02572	
36,76	0,9017	129,69	799,99	0,02558	
36,78	0,9016	133,18	799,70	0,02541	
36,80	0,9020	133,40	799,73	0,02527	
36,82	0,9023	130,14	799,80	0,02531	
36,84	0,9022	132,96	799,61	0,02541	
36,86	0,9022	134,27	799,78	0,02542	
36,88	0,9023	129,87	800,03	0,02534	
36,90	0,9023	130,47	799,82	0,02528	
36,92	0,9026	133,20	799,71	0,02515	
36,94	0,9030	129,76	799,91	0,02508	
36,96	0,9029	129,60	799,81	0,02521	
36,98	0,9028	133,28	799,64	0,02527	
37,00	0,9030	131,22	799,76	0,02533	
37,02	0,9032	129,65	799,69	0,02535	
37,04	0,9034	133,27	799,58	0,02530	
37,06	0,9037	131,69	799,93	0,02520	
37,08	0,9037	128,32	800,05	0,02516	
37,10	0,9035	131,90	799,74	0,02517	
37,12	0,9036	133,19	799,78	0,02512	
37,14	0,9038	129,70	799,96	0,02520	
37,16	0,9040	131,55	799,75	0,02530	
37,18	0,9042	133,88	799,66	0,02524	
37,20	0,9043	129,81	799,83	0,02508	
37,22	0,9043	128,96	799,70	0,02495	
37,24	0,9042	132,53	799,60	0,02485	
37,26	0,9045	129,62	799,93	0,02486	
37,28	0,9048	126,47	799,96	0,02503	
37,30	0,9048	129,95	799,65	0,02508	
37,32	0,9050	129,51	799,87	0,02493	
37,34	0,9051	125,65	800,18	0,02485	
37,36	0,9050	127,59	799,98	0,02487	
37,38	0,9050	130,48	799,69	0,02483	
37,40	0,9054	127,06	799,77	0,02483	
37,42	0,9056	126,51	799,71	0,02494	
37,44	0,9055	130,45	799,59	0,02498	
37,46	0,9057	128,69	799,85	0,02487	
37,48	0,9058	125,98	799,90	0,02475	
37,50	0,9059	129,66	799,65	0,02464	
37,52	0,9062	130,54	799,78	0,02452	
37,54	0,9064	127,82	799,90	0,02458	
37,56	0,9062	130,29	799,69	0,02471	
37,58	0,9063	131,78	799,70	0,02478	
37,60	0,9066	128,56	799,84	0,02472	
37,62	0,9068	130,07	799,65	0,02461	
37,64	0,9069	133,07	799,65	0,02449	
37,66	0,9071	129,77	799,91	0,02447	
37,68	0,9070	129,22	799,81	0,02466	
37,70	0,9069	132,43	799,65	0,02474	
37,72	0,9073	130,77	799,81	0,02471	
37,74	0,9075	129,43	799,75	0,02468	
37,76	0,9075	132,62	799,59	0,02454	
37,78	0,9077	131,29	799,83	0,02437	
37,80	0,9077	128,34	799,92	0,02442	
37,82	0,9076	131,75	799,68	0,02463	
37,84	0,9079	132,93	799,66	0,02464	
37,86	0,9082	130,08	799,72	0,02463	
37,88	0,9082	132,96	799,55	0,02458	
37,90	0,9083	134,47	799,72	0,02443	
37,92	0,9084	129,74	800,07	0,02431	
37,94	0,9083	129,25	799,93	0,02430	
37,96	0,9085	133,55	799,68	0,02431	
37,98	0,9089	132,07	799,81	0,02436	
38,00	0,9090	131,11	799,77	0,02443	
38,02	0,9089	135,39	799,60	0,02442	
38,04	0,9090	134,58	799,80	0,02431	
38,06	0,9092	131,07	799,89	0,02424	
38,08	0,9093	133,58	799,66	0,02416	
38,10	0,9096	134,61	799,73	0,02412	
38,12	0,9097	130,99	799,87	0,02426	
38,14	0,9096	133,12	799,67	0,02436	
38,16	0,9096	134,53	799,69	0,02427	
38,18	0,9098	130,04	799,91	0,02414	
38,20	0,9099	130,32	799,77	0,02401	
38,22	0,9101	133,79	799,62	0,02390	
38,24	0,9104	131,42	799,78	0,02396	
38,26	0,9104	130,73	799,71	0,02411	
38,28	0,9103	134,74	799,60	0,02418	
38,30	0,9104	133,19	799,83	0,02415	
38,32	0,9106	130,79	799,84	0,02408	
38,34	0,9108	134,14	799,63	0,02392	
38,36	0,9110	134,45	799,76	0,02376	
38,38	0,9111	131,84	799,85	0,02373	
38,40	0,9109	134,55	799,62	0,02382	
38,42	0,9110	135,70	799,70	0,02389	
38,44	0,9113	132,64	799,90	0,02389	
38,46	0,9115	134,31	799,72	0,02382	
38,48	0,9116	136,93	799,67	0,02372	
38,50	0,9117	133,32	799,87	0,02365	
38,52	0,9117	133,17	799,74	0,02368	
38,54	0,9116	137,32	799,64	0,02374	
38,56	0,9120	135,19	799,87	0,02381	
38,58	0,9122	133,00	799,80	0,02386	
38,60	0,9122	135,99	799,60	0,02380	
38,62	0,9124	134,26	799,84	0,02363	
38,64	0,9124	130,72	799,94	0,02353	
38,66	0,9123	133,81	799,69	0,02346	
38,68	0,9124	134,29	799,72	0,02339	
38,70	0,9128	130,47	799,86	0,02352	
38,72	0,9129	132,88	799,67	0,02361	
38,74	0,9130	135,79	799,64	0,02355	
38,76	0,9131	132,62	799,82	0,02346	
38,78	0,9131	132,77	799,69	0,02340	
38,80	0,9133	136,25	799,62	0,02329	
38,82	0,9137	133,67	799,87	0,02331	
38,84	0,9137	132,01	799,83	0,02346	
38,86	0,9136	136,20	799,60	0,02351	
38,88	0,9137	135,55	799,84	0,02338	
38,90	0,9139	132,12	799,97	0,02321	
38,92	0,9140	135,15	799,71	0,02313	
38,94	0,9143	135,87	799,71	0,02305	
38,96	0,9144	131,65	799,83	0,02314	
38,98	0,9143	133,02	799,64	0,02325	
39,00	0,9143	135,73	799,63	0,02321	
39,02	0,9145	132,58	799,87	0,02320	
39,04	0,9147	132,79	799,76	0,02314	
39,06	0,9149	136,48	799,65	0,02294	
39,08	0,9151	133,91	799,89	0,02278	
39,10	0,9150	132,08	799,88	0,02280	
39,12	0,9149	136,14	799,65	0,02297	
39,14	0,9151	135,65	799,72	0,02304	
39,16	0,9155	132,75	799,73	0,02302	
39,18	0,9155	135,97	799,58	0,02297	
39,20	0,9157	136,07	799,82	0,02283	
39,22	0,9158	132,18	800,01	0,02268	
39,24	0,9156	134,07	799,76	0,02270	
39,26	0,9157	136,98	799,68	0,02271	
39,28	0,9162	133,99	799,87	0,02277	
39,30	0,9163	135,05	799,73	0,02291	
39,32	0,9163	138,43	799,64	0,02284	
39,34	0,9164	135,22	799,92	0,02267	
39,36	0,9164	132,62	799,92	0,02263	
39,38	0,9163	136,33	799,66	0,02264	
39,40	0,9166	136,39	799,73	0,02263	
39,42	0,9170	133,25	799,80	0,02276	
39,44	0,9170	136,63	799,59	0,02284	
39,46	0,9171	137,50	799,72	0,02274	
39,48	0,9172	133,30	799,97	0,02257	
39,50	0,9173	134,18	799,80	0,02248	
39,52	0,9175	137,45	799,64	0,02242	
39,54	0,9178	135,06	799,76	0,02248	
39,56	0,9177	134,85	799,68	0,02260	
39,58	0,9176	138,59	799,59	0,02265	
39,60	0,9178	136,63	799,83	0,02257	
39,62	0,9180	134,54	799,83	0,02248	
39,64	0,9181	138,94	799,60	0,02234	
39,66	0,9184	139,47	799,75	0,02228	
39,68	0,9185	136,02	799,88	0,02238	
39,70	0,9183	138,72	799,66	0,02252	
39,72	0,9184	140,31	799,68	0,02256	
39,74	0,9186	136,60	799,83	0,02248	
39,76	0,9188	137,36	799,65	0,02232	
39,78	0,9190	139,08	799,67	0,02219	
39,80	0,9192	135,59	799,96	0,02222	
39,82	0,9191	135,14	799,85	0,02232	
39,84	0,9190	138,64	799,66	0,02232	
39,86	0,9191	136,72	799,83	0,02230	
39,88	0,9193	135,34	799,82	0,02236	
39,90	0,9195	139,08	799,63	0,02226	
39,92	0,9197	138,12	799,81	0,02206	
39,94	0,9198	134,46	799,89	0,02206	
39,96	0,9196	136,71	799,65	0,02217	
39,98	0,9197	137,26	799,74	0,02226	
40,00	0,9201	133,62	799,91	0,02235	
40,02	0,9202	136,04	799,72	0,02232	
40,04	0,9203	139,21	799,65	0,02213	
40,06	0,9205	136,10	799,83	0,02203	
40,08	0,9094	135,70	799,71	0,02197	
40,10	0,7676	138,57	799,60	0,02196	
40,12	0,5834	135,50	799,85	0,02205	
40,14	0,4991	132,88	799,83	0,02217	
40,16	0,4864	136,86	799,63	0,02219	
40,18	0,4898	136,07	799,80	0,02205	
40,20	0,4911	132,64	799,87	0,02194	
40,22	0,4905	135,73	799,64	0,02190	
40,24	0,4904	136,10	799,70	0,02193	
40,26	0,4907	132,06	799,83	0,02202	
40,28	0,4910	134,07	799,65	0,02208	
40,30	0,4911	137,36	799,63	0,02204	
40,32	0,4912	135,08	799,83	0,02194	
40,34	0,4911	135,77	799,72	0,02184	
40,36	0,4910	139,64	799,62	0,02171	
40,38	0,4914	137,19	799,87	0,02163	
40,40	0,4917	136,00	799,87	0,02167	
40,42	0,4918	140,86	799,63	0,02161	
40,44	0,4923	142,17	799,76	0,02138	
40,46	0,4926	141,42	799,84	0,02113	
40,48	0,4929	147,35	799,64	0,02085	
40,50	0,4936	151,43	799,76	0,02053	
40,52	0,4943	152,15	799,94	0,02032	
40,54	0,4948	158,73	799,72	0,02019	
40,56	0,4955	166,27	799,68	0,02000	
40,58	0,4965	169,04	799,89	0,01969	
40,60	0,4973	176,26	799,75	0,01922	
40,62	0,4984	186,66	799,63	0,01869	
40,64	0,4996	191,69	799,83	0,01819	
40,66	0,5006	198,95	799,79	0,01777	
40,68	0,5017	211,25	799,63	0,01742	
40,70	0,5031	219,45	799,84	0,01696	
40,72	0,5046	227,32	799,88	0,01640	
40,74	0,5061	240,97	799,63	0,01579	
40,76	0,5078	251,60	799,76	0,01506	
40,78	0,5095	258,92	799,95	0,01431	
40,80	0,5111	272,81	799,74	0,01371	
40,82	0,5130	287,02	799,68	0,01314	
40,84	0,5150	295,42	799,85	0,01246	
40,86	0,5168	308,08	799,71	0,01171	
40,88	0,5189	324,11	799,60	0,01083	
40,90	0,5211	334,28	799,82	0,00987	
40,92	0,5233	345,10	799,79	0,00897	
40,94	0,5254	360,53	799,61	0,00806	
40,96	0,5279	372,10	799,75	0,00702	
40,98	0,5306	383,12	799,79	0,00611	
41,00	0,5330	400,09	799,59	0,00521	
41,02	0,5355	413,52	799,78	0,00402	
41,04	0,5383	422,62	799,99	0,00269	
41,06	0,5410	437,58	799,77	0,00148	
41,08	0,5439	453,43	799,68	0,00028	
41,10	0,5468	462,50	799,86	-0,00089	
41,12	0,5497	475,06	799,74	-0,00208	
41,14	0,5528	491,12	799,63	-0,00328	
41,16	0,5562	500,64	799,86	-0,00464	
41,18	0,5594	510,75	799,84	-0,00618	
41,20	0,5626	526,05	799,62	-0,00773	
41,22	0,5662	536,65	799,79	-0,00923	
41,24	0,5697	544,62	799,91	-0,01073	
41,26	0,5731	558,58	799,68	-0,01221	
41,28	0,5768	569,67	799,72	-0,01382	
41,30	0,5806	575,22	799,92	-0,01551	
41,32	0,5842	585,70	799,74	-0,01727	
41,34	0,5881	598,47	799,63	-0,01916	
41,36	0,5922	604,63	799,85	-0,02100	
41,38	0,5962	612,01	799,81	-0,02266	
41,40	0,6001	623,86	799,61	-0,02429	
41,42	0,6043	629,13	799,81	-0,02606	
41,44	0,6083	632,77	799,90	-0,02786	
41,46	0,6122	643,64	799,66	-0,02973	
41,48	0,6163	651,25	799,71	-0,03167	
41,50	0,6204	653,36	799,85	-0,03351	
41,52	0,6243	660,57	799,66	-0,03530	
41,54	0,6284	667,99	799,66	-0,03709	
41,56	0,6325	668,86	799,87	-0,03885	
41,58	0,6364	672,87	799,72	-0,04063	
41,60	0,6404	679,73	799,63	-0,04259	
41,62	0,6445	680,28	799,90	-0,04459	
41,64	0,6482	682,06	799,88	-0,04648	
41,66	0,6519	689,01	799,64	-0,04833	
41,68	0,6559	690,91	799,75	-0,05012	
41,70	0,6600	690,59	799,81	-0,05189	
41,72	0,6639	697,01	799,61	-0,05381	
41,74	0,6680	700,12	799,74	-0,05590	
41,76	0,6721	698,78	799,90	-0,05790	
41,78	0,6760	703,42	799,69	-0,05984	
41,80	0,6800	708,66	799,67	-0,06181	
41,82	0,6842	707,32	799,89	-0,06364	
41,84	0,6882	709,68	799,77	-0,06544	
41,86	0,6921	715,61	799,60	-0,06748	
41,88	0,6963	714,48	799,83	-0,06959	
41,90	0,7003	713,19	799,90	-0,07153	
41,92	0,7042	718,94	799,64	-0,07343	
41,94	0,7083	721,08	799,69	-0,07543	
41,96	0,7124	719,06	799,86	-0,07736	
41,98	0,7163	722,95	799,69	-0,07922	
42,00	0,7204	726,83	799,65	-0,08123	
42,02	0,7245	723,78	799,92	-0,08339	
42,04	0,7283	723,51	799,85	-0,08545	
42,06	0,7319	728,62	799,63	-0,08745	
42,08	0,7360	728,37	799,79	-0,08945	
42,10	0,7401	726,81	799,84	-0,09134	
42,12	0,7439	731,66	799,63	-0,09327	
42,14	0,7479	732,65	799,77	-0,09525	
42,16	0,7521	729,54	799,93	-0,09733	
42,18	0,7559	732,98	799,71	-0,09942	
42,20	0,7600	736,66	799,67	-0,1015	
42,22	0,7641	733,86	799,83	-0,1035	
42,24	0,7680	734,85	799,68	-0,1053	
42,26	0,7720	738,79	799,64	-0,1073	
42,28	0,7762	736,74	799,91	-0,1093	
42,30	0,7802	735,82	799,86	-0,1114	
42,32	0,7841	740,08	799,61	-0,1135	
42,34	0,7882	739,52	799,75	-0,1157	
42,36	0,7923	736,50	799,87	-0,1177	
42,38	0,7962	740,02	799,65	-0,1197	
42,40	0,8003	741,34	799,71	-0,1217	
42,42	0,8044	738,69	799,92	-0,1237	
42,44	0,8083	741,17	799,74	-0,1258	
42,46	0,8123	745,15	799,64	-0,1280	
42,48	0,8165	742,21	799,87	-0,1300	
42,50	0,8205	741,06	799,81	-0,1320	
42,52	0,8244	745,47	799,62	-0,1339	
42,54	0,8285	743,95	799,82	-0,1360	
42,56	0,8326	740,94	799,87	-0,1381	
42,58	0,8365	745,19	799,64	-0,1402	
42,60	0,8405	746,17	799,76	-0,1423	
42,62	0,8443	743,07	799,88	-0,1444	
42,64	0,8480	745,37	799,67	-0,1463	
42,66	0,8520	746,90	799,68	-0,1482	
42,68	0,8561	743,52	799,86	-0,1503	
42,70	0,8601	744,39	799,69	-0,1524	
42,72	0,8641	748,03	799,63	-0,1546	
42,74	0,8682	745,32	799,89	-0,1568	
42,76	0,8722	744,28	799,83	-0,1588	
42,78	0,8761	748,77	799,64	-0,1609	
42,80	0,8803	747,73	799,80	-0,1629	
42,82	0,8843	746,22	799,82	-0,1649	
42,84	0,8882	750,57	799,62	-0,1670	
42,86	0,8923	751,13	799,77	-0,1692	
42,88	0,8964	747,39	799,91	-0,1713	
42,90	0,9003	749,68	799,68	-0,1734	
42,92	0,9044	751,02	799,71	-0,1754	
42,94	0,9085	747,52	799,93	-0,1774	
42,96	0,9125	748,49	799,77	-0,1794	
42,98	0,9164	751,87	799,65	-0,1815	
43,00	0,9206	748,86	799,86	-0,1837	
43,02	0,9243	747,77	799,80	-0,1858	
43,04	0,9280	752,20	799,62	-0,1879	
43,06	0,9320	750,84	799,83	-0,1899	
43,08	0,9360	747,78	799,87	-0,1918	
43,10	0,9399	750,96	799,63	-0,1939	
43,12	0,9441	751,20	799,75	-0,1961	
43,14	0,9482	747,31	799,95	-0,1983	
43,16	0,9521	750,04	799,74	-0,2004	
43,18	0,9561	753,86	799,65	-0,2025	
43,20	0,9602	750,92	799,84	-0,2046	
43,22	0,9642	750,61	799,74	-0,2065	
43,24	0,9681	754,23	799,65	-0,2085	
43,26	0,9723	751,88	799,89	-0,2107	
43,28	0,9763	749,96	799,85	-0,2129	
43,30	0,9802	753,53	799,62	-0,2150	
43,32	0,9844	752,88	799,82	-0,2172	
43,34	0,9885	749,54	799,98	-0,2191	
43,36	0,9923	752,67	799,74	-0,2210	
43,38	0,9964	753,90	799,76	-0,2231	
43,40	1,001	750,50	799,91	-0,2253	
43,42	1,004	752,64	799,71	-0,2275	
43,44	1,008	755,18	799,69	-0,2296	
43,46	1,013	751,78	799,86	-0,2316	
43,48	1,016	752,17	799,71	-0,2336	
43,50	1,020	755,31	799,65	-0,2356	
43,52	1,024	752,69	799,90	-0,2377	
43,54	1,028	751,81	799,85	-0,2399	
43,56	1,032	756,35	799,64	-0,2421	
43,58	1,036	755,58	799,80	-0,2443	
43,60	1,040	752,97	799,83	-0,2464	
43,62	1,044	756,29	799,61	-0,2485	
43,64	1,048	755,97	799,77	-0,2506	
43,66	1,052	752,39	799,94	-0,2526	
43,68	1,056	754,53	799,72	-0,2548	
43,70	1,060	756,33	799,69	-0,2570	
43,72	1,064	752,77	799,90	-0,2591	
43,74	1,068	753,85	799,75	-0,2611	
43,76	1,072	757,75	799,62	-0,2632	
43,78	1,076	754,77	799,88	-0,2653	
43,80	1,080	752,87	799,88	-0,2673	
43,82	1,084	756,76	799,67	-0,2694	
43,84	1,088	756,30	799,81	-0,2716	
43,86	1,092	753,09	799,86	-0,2737	
43,88	1,096	756,07	799,64	-0,2758	
43,90	1,100	757,19	799,71	-0,2778	
43,92	1,105	753,97	799,84	-0,2799	
43,94	1,108	755,80	799,65	-0,2820	
43,96	1,113	757,16	799,69	-0,2842	
43,98	1,117	754,12	799,88	-0,2863	
44,00	1,120	755,35	799,71	-0,2884	
44,02	1,124	758,25	799,68	-0,2905	
44,04	1,128	754,89	799,91	-0,2925	
44,06	1,132	754,13	799,80	-0,2945	
44,08	1,136	757,83	799,65	-0,2966	
44,10	1,140	756,18	799,86	-0,2989	
44,12	1,144	754,08	799,85	-0,3011	
44,14	1,148	757,16	799,64	-0,3032	
44,16	1,152	756,35	799,80	-0,3052	
44,18	1,156	754,11	799,86	-0,3073	
44,20	1,160	757,59	799,63	-0,3093	
44,22	1,164	758,03	799,75	-0,3115	
44,24	1,168	753,78	799,92	-0,3137	
44,26	1,172	754,99	799,72	-0,3158	
44,28	1,176	757,39	799,73	-0,3179	
44,30	1,180	754,77	799,89	-0,3199	
44,32	1,184	755,63	799,72	-0,3219	
44,34	1,188	758,24	799,71	-0,3240	
44,36	1,193	754,87	799,97	-0,3261	
44,38	1,196	754,09	799,86	-0,3282	
44,40	1,200	757,56	799,69	-0,3304	
44,42	1,204	755,30	799,88	-0,3326	
44,44	1,208	753,30	799,84	-0,3345	
44,46	1,212	757,52	799,63	-0,3365	
44,48	1,216	757,01	799,79	-0,3386	
44,50	1,220	754,29	799,86	-0,3408	
44,52	1,224	757,94	799,63	-0,3431	
44,54	1,228	759,08	799,76	-0,3453	
44,56	1,232	755,25	800,00	-0,3474	
44,58	1,236	757,10	799,80	-0,3493	
44,60	1,240	760,47	799,68	-0,3514	
44,62	1,244	756,92	799,87	-0,3535	
44,64	1,248	756,55	799,77	-0,3557	
44,66	1,252	760,87	799,62	-0,3579	
44,68	1,256	758,48	799,83	-0,3600	
44,70	1,260	755,23	799,84	-0,3620	
44,72	1,264	759,07	799,64	-0,3640	
44,74	1,268	758,97	799,82	-0,3661	
44,76	1,273	755,62	799,92	-0,3682	
44,78	1,276	759,10	799,67	-0,3704	
44,80	1,280	760,71	799,74	-0,3726	
44,82	1,285	756,95	799,99	-0,3748	
44,84	1,289	758,09	799,80	-0,3767	
44,86	1,293	760,92	799,67	-0,3787	
44,88	1,297	756,67	800,00	-0,3808	
44,90	1,301	754,95	800,04	-0,3830	
44,92	1,305	760,05	799,71	-0,3852	
44,94	1,309	759,65	799,80	-0,3874	
44,96	1,313	754,89	800,01	-0,3895	
44,98	1,316	758,04	799,79	-0,3914	
45,00	1,320	760,29	799,79	-0,3934	
45,02	1,324	755,86	800,04	-0,3955	
45,04	1,328	756,02	799,88	-0,3977	
45,06	1,332	760,34	799,71	-0,3999	
45,08	1,336	758,13	799,88	-0,4022	
45,10	1,340	757,37	799,79	-0,4042	
45,12	1,344	760,97	799,66	-0,4062	
45,14	1,348	758,77	799,92	-0,4083	
45,16	1,352	756,49	799,93	-0,4104	
45,18	1,356	760,43	799,68	-0,4126	
45,20	1,360	760,43	799,78	-0,4148	
45,22	1,364	756,78	799,85	-0,4169	
45,24	1,368	759,42	799,63	-0,4190	
45,26	1,372	760,60	799,75	-0,4211	
45,28	1,377	756,97	799,93	-0,4231	
45,30	1,380	758,27	799,73	-0,4252	
45,32	1,385	760,72	799,70	-0,4274	
45,34	1,389	757,68	799,87	-0,4296	
45,36	1,392	758,03	799,71	-0,4317	
45,38	1,396	761,19	799,65	-0,4338	
45,40	1,400	758,25	799,87	-0,4358	
45,42	1,404	757,42	799,79	-0,4378	
45,44	1,408	761,07	799,63	-0,4400	
45,46	1,412	759,45	799,83	-0,4423	
45,48	1,416	757,05	799,85	-0,4444	
45,50	1,420	760,57	799,63	-0,4466	
45,52	1,424	760,49	799,79	-0,4487	
45,54	1,428	756,84	799,93	-0,4507	
45,56	1,432	759,47	799,69	-0,4528	
45,58	1,436	760,61	799,79	-0,4549	
45,60	1,440	756,89	800,02	-0,4570	
45,62	1,444	758,13	799,83	-0,4592	
45,64	1,448	761,59	799,68	-0,4613	
45,66	1,452	758,55	799,82	-0,4632	
45,68	1,456	758,24	799,70	-0,4652	
45,70	1,460	761,56	799,65	-0,4674	
45,72	1,465	758,94	799,93	-0,4696	
45,74	1,469	756,70	799,88	-0,4718	
45,76	1,472	759,71	799,67	-0,4739	
45,78	1,477	758,77	799,82	-0,4760	
45,80	1,481	756,38	799,83	-0,4780	
45,82	1,485	759,99	799,63	-0,4800	
45,84	1,489	760,21	799,83	-0,4822	
45,86	1,493	756,75	799,95	-0,4844	
45,88	1,496	759,78	799,71	-0,4865	
45,90	1,500	761,81	799,74	-0,4887	
45,92	1,504	758,27	799,86	-0,4907	
45,94	1,508	759,79	799,66	-0,4927	
45,96	1,512	762,08	799,77	-0,4947	
45,98	1,516	758,64	800,03	-0,4969	
46,00	1,520	758,84	799,85	-0,4990	
46,02	1,524	761,61	799,70	-0,5012	
46,04	1,528	758,38	799,86	-0,5034	
46,06	1,532	758,07	799,74	-0,5055	
46,08	1,536	761,62	799,66	-0,5074	
46,10	1,540	760,05	799,95	-0,5094	
46,12	1,544	758,48	799,95	-0,5115	
46,14	1,548	762,77	799,68	-0,5137	
46,16	1,552	762,98	799,80	-0,5159	
46,18	1,557	759,85	799,89	-0,5180	
46,20	1,560	762,81	799,67	-0,5201	
46,22	1,565	763,46	799,75	-0,5222	
46,24	1,569	758,71	799,93	-0,5242	
46,26	1,573	759,87	799,72	-0,5263	
46,28	1,577	762,47	799,70	-0,5285	
46,30	1,581	758,59	799,98	-0,5306	
46,32	1,585	758,01	799,89	-0,5326	
46,34	1,588	762,38	799,69	-0,5346	
46,36	1,592	760,68	799,85	-0,5367	
46,38	1,596	758,94	799,80	-0,5388	
46,40	1,600	762,66	799,64	-0,5409	
46,42	1,604	761,20	799,89	-0,5430	
46,44	1,608	757,97	799,97	-0,5451	
46,46	1,612	761,01	799,70	-0,5472	
46,48	1,616	761,45	799,76	-0,5492	
46,50	1,620	757,56	799,90	-0,5513	
46,52	1,624	759,90	799,70	-0,5533	
46,54	1,628	761,77	799,76	-0,5555	
46,56	1,632	758,16	799,93	-0,5576	
46,58	1,636	759,01	799,74	-0,5597	
46,60	1,640	762,25	799,68	-0,5618	
46,62	1,644	759,21	799,86	-0,5638	
46,64	1,648	759,12	799,72	-0,5658	
46,66	1,652	762,15	799,63	-0,5680	
46,68	1,657	759,30	799,88	-0,5702	
46,70	1,661	757,83	799,84	-0,5724	
46,72	1,664	761,57	799,65	-0,5745	
46,74	1,669	760,50	799,82	-0,5767	
46,76	1,673	757,89	799,83	-0,5786	
46,78	1,677	761,55	799,64	-0,5806	
46,80	1,681	762,31	799,84	-0,5827	
46,82	1,685	759,62	799,97	-0,5849	
46,84	1,688	762,07	799,70	-0,5871	
46,86	1,692	763,57	799,70	-0,5892	
46,88	1,696	759,17	799,94	-0,5913	
46,90	1,700	759,92	799,78	-0,5932	
46,92	1,704	763,49	799,68	-0,5953	
46,94	1,708	759,99	799,88	-0,5975	
46,96	1,712	758,14	799,79	-0,5997	
46,98	1,716	761,91	799,65	-0,6018	
47,00	1,720	760,36	799,86	-0,6038	
47,02	1,724	757,69	799,84	-0,6057	
47,04	1,728	761,14	799,64	-0,6077	
47,06	1,732	760,67	799,82	-0,6098	
47,08	1,736	757,87	799,91	-0,6119	
47,10	1,740	760,91	799,69	-0,6141	
47,12	1,744	761,77	799,79	-0,6163	
47,14	1,749	758,99	799,94	-0,6184	
47,16	1,752	761,13	799,69	-0,6204	
47,18	1,757	762,99	799,72	-0,6226	
47,20	1,761	758,92	799,98	-0,6247	
47,22	1,765	758,78	799,84	-0,6268	
47,24	1,769	762,07	799,67	-0,6289	
47,26	1,773	759,34	799,82	-0,6311	
47,28	1,777	757,82	799,74	-0,6333	
47,30	1,781	761,76	799,61	-0,6353	
47,32	1,785	760,30	799,80	-0,6374	
47,34	1,788	757,84	799,74	-0,6394	
47,36	1,792	759,92	799,63	-0,6415	
47,38	1,796	758,19	799,84	-0,6437	
47,40	1,800	755,83	799,83	-0,6457	
47,42	1,804	759,46	799,62	-0,6477	
47,44	1,808	759,59	799,83	-0,6498	
47,46	1,812	757,11	799,97	-0,6517	
47,48	1,816	760,07	799,72	-0,6539	
47,50	1,820	761,15	799,73	-0,6561	
47,52	1,824	757,13	799,90	-0,6582	
47,54	1,828	758,13	799,72	-0,6603	
47,56	1,832	760,82	799,72	-0,6624	
47,58	1,837	757,82	800,00	-0,6645	
47,60	1,840	757,23	799,87	-0,6664	
47,62	1,844	760,97	799,68	-0,6685	
47,64	1,849	758,90	799,87	-0,6707	
47,66	1,853	756,64	799,84	-0,6729	
47,68	1,856	760,07	799,65	-0,6750	
47,70	1,861	759,77	799,88	-0,6771	
47,72	1,865	756,97	799,93	-0,6791	
47,74	1,868	760,12	799,70	-0,6812	
47,76	1,872	760,36	799,86	-0,6834	
47,78	1,876	756,85	799,96	-0,6856	
47,80	1,880	759,36	799,71	-0,6878	
47,82	1,884	761,07	799,72	-0,6900	
47,84	1,888	757,98	799,81	-0,6921	
47,86	1,892	759,42	799,61	-0,6941	
47,88	1,896	760,49	799,81	-0,6962	
47,90	1,900	756,99	800,16	-0,6983	
47,92	1,904	757,81	799,99	-0,7005	
47,94	1,908	762,49	799,70	-0,7027	
47,96	1,912	760,39	799,91	-0,7048	
47,98	1,916	757,97	799,99	-0,7069	
48,00	1,920	761,90	799,72	-0,7088	
48,02	1,924	761,54	799,74	-0,7109	
48,04	1,928	756,87	799,82	-0,7130	
48,06	1,932	758,69	799,62	-0,7151	
48,08	1,936	760,33	799,80	-0,7174	
48,10	1,941	757,07	800,02	-0,7195	
48,12	1,944	758,30	799,79	-0,7216	
48,14	1,948	760,21	799,80	-0,7235	
48,16	1,953	757,60	800,02	-0,7256	
48,18	1,957	758,50	799,84	-0,7277	
48,20	1,960	762,18	799,68	-0,7299	
48,22	1,965	760,46	799,88	-0,7320	
48,24	1,969	759,93	799,82	-0,7341	
48,26	1,973	763,69	799,63	-0,7362	
48,28	1,977	761,67	799,93	-0,7383	
48,30	1,980	757,23	800,07	-0,7403	
48,32	1,984	760,07	799,76	-0,7424	
48,34	1,988	761,30	799,79	-0,7446	
48,36	1,992	757,53	800,03	-0,7467	
48,38	1,996	758,76	799,84	-0,7487	
48,40	2,000	761,34	799,73	-0,7508	
48,42	2,004	758,08	799,98	-0,7528	
48,44	2,008	757,18	799,90	-0,7548	
48,46	2,012	761,16	799,68	-0,7569	
48,48	2,016	759,86	799,79	-0,7591	
48,50	2,020	757,58	799,75	-0,7613	
48,52	2,024	761,01	799,61	-0,7634	
48,54	2,028	760,52	799,88	-0,7655	
48,56	2,032	757,73	799,97	-0,7675	
48,58	2,036	760,82	799,71	-0,7695	
48,60	2,040	761,44	799,87	-0,7718	
48,62	2,045	757,59	800,07	-0,7740	
48,64	2,048	759,53	799,81	-0,7761	
48,66	2,053	761,99	799,72	-0,7782	
48,68	2,057	758,37	799,88	-0,7802	
48,70	2,060	758,07	799,73	-0,7822	
48,72	2,064	760,49	799,74	-0,7842	
48,74	2,068	757,75	800,06	-0,7864	
48,76	2,072	756,12	799,97	-0,7886	
48,78	2,076	760,10	799,72	-0,7907	
48,80	2,080	760,03	799,92	-0,7929	
48,82	2,084	758,26	799,98	-0,7948	
48,84	2,088	761,46	799,71	-0,7968	
48,86	2,092	761,06	799,79	-0,7990	
48,88	2,096	757,00	799,91	-0,8012	
48,90	2,100	759,30	799,71	-0,8033	
48,92	2,104	760,76	799,78	-0,8054	
48,94	2,108	757,18	799,93	-0,8074	
48,96	2,112	758,21	799,71	-0,8093	
48,98	2,116	760,77	799,76	-0,8115	
49,00	2,120	757,91	800,10	-0,8136	
49,02	2,124	757,64	799,99	-0,8157	
49,04	2,128	761,75	799,72	-0,8178	
49,06	2,133	759,56	799,88	-0,8200	
49,08	2,137	757,83	799,87	-0,8221	
49,10	2,140	761,15	799,71	-0,8242	
49,12	2,145	759,76	799,90	-0,8264	
49,14	2,149	757,01	799,88	-0,8284	
49,16	2,153	759,43	799,71	-0,8306	
49,18	2,156	759,30	800,06	-0,8328	
49,20	2,160	757,24	800,22	-0,8349	
49,22	2,164	760,74	799,87	-0,8369	
49,24	2,168	762,42	799,83	-0,8390	
49,26	2,172	758,01	800,08	-0,8411	
49,28	2,176	758,82	799,90	-0,8431	
49,30	2,180	762,28	799,74	-0,8451	
49,32	2,184	758,85	800,00	-0,8472	
49,34	2,188	756,53	799,96	-0,8492	
49,36	2,192	760,24	799,72	-0,8513	
49,38	2,196	758,82	799,87	-0,8533	
49,40	2,200	755,87	799,90	-0,8554	
49,42	2,204	759,27	799,67	-0,8576	
49,44	2,208	759,62	799,77	-0,8598	
49,46	2,212	756,61	799,80	-0,8620	
49,48	2,216	758,90	799,63	-0,8641	
49,50	2,220	759,14	799,96	-0,8662	
49,52	2,225	755,93	800,21	-0,8682	
49,54	2,228	757,79	799,87	-0,8701	
49,56	2,232	760,54	799,84	-0,8722	
49,58	2,237	756,84	800,23	-0,8744	
49,60	2,241	757,01	800,16	-0,8765	
49,62	2,244	762,35	799,76	-0,8786	
49,64	2,249	760,41	800,04	-0,8808	
49,66	2,253	755,55	800,46	-0,8828	
49,68	2,257	757,58	800,27	-0,8848	
49,70	2,260	761,51	799,81	-0,8869	
49,72	2,264	758,77	799,89	-0,8891	
49,74	2,268	755,92	800,09	-0,8912	
49,76	2,272	759,36	799,83	-0,8933	
49,78	2,276	761,21	799,72	-0,8953	
49,80	2,280	756,43	799,97	-0,8974	
49,82	2,284	755,72	799,87	-0,8995	
49,84	2,288	760,17	799,67	-0,9016	
49,86	2,292	758,32	799,85	-0,9038	
49,88	2,296	756,27	799,84	-0,9059	
49,90	2,300	759,57	799,65	-0,9080	
49,92	2,304	758,49	799,84	-0,9101	
49,94	2,309	755,49	799,90	-0,9121	
49,96	2,312	758,88	799,67	-0,9142	
49,98	2,316	760,08	799,79	-0,9164	
50,00	2,321	756,81	799,95	-0,9185	
50,02	2,324	758,68	799,72	-0,9206	
50,04	2,329	760,35	799,72	-0,9227	
50,06	2,333	756,01	799,95	-0,9247	
50,08	2,337	755,70	799,82	-0,9267	
50,10	2,340	759,59	799,69	-0,9288	
50,12	2,344	757,74	799,91	-0,9310	
50,14	2,348	756,78	799,86	-0,9331	
50,16	2,352	760,30	799,66	-0,9352	
50,18	2,356	758,74	799,87	-0,9373	
50,20	2,360	755,84	799,91	-0,9393	
50,22	2,364	759,30	799,69	-0,9413	
50,24	2,368	759,73	799,83	-0,9434	
50,26	2,372	756,60	799,94	-0,9456	
50,28	2,376	759,24	799,70	-0,9477	
50,30	2,380	760,89	799,75	-0,9498	
50,32	2,384	757,25	799,94	-0,9518	
50,34	2,388	758,11	799,74	-0,9538	
50,36	2,392	760,89	799,71	-0,9560	
50,38	2,396	758,03	799,93	-0,9582	
50,40	2,400	757,20	799,80	-0,9602	
50,42	2,404	760,55	799,68	-0,9623	
50,44	2,409	758,28	799,91	-0,9644	
50,46	2,413	756,20	799,86	-0,9665	
50,48	2,416	759,50	799,66	-0,9685	
50,50	2,421	758,46	799,85	-0,9706	
50,52	2,425	755,82	799,92	-0,9727	
50,54	2,429	759,35	799,66	-0,9748	
50,56	2,433	759,84	799,78	-0,9771	
50,58	2,437	756,11	800,03	-0,9792	
50,60	2,441	757,53	799,84	-0,9812	
50,62	2,445	760,49	799,74	-0,9832	
50,64	2,449	757,22	799,94	-0,9852	
50,66	2,453	756,65	799,82	-0,9874	
50,68	2,456	759,67	799,70	-0,9896	
50,70	2,460	757,41	799,92	-0,9918	
50,72	2,464	755,27	799,85	-0,9938	
50,74	2,468	758,47	799,67	-0,9958	
50,76	2,472	757,38	799,92	-0,9979	
50,78	2,476	755,22	799,98	-0,9999	
50,80	2,480	759,21	799,70	-1,002	
50,82	2,484	759,80	799,78	-1,004	
50,84	2,488	756,42	799,92	-1,006	
50,86	2,492	759,03	799,71	-1,009	
50,88	2,496	760,82	799,79	-1,011	
50,90	2,501	757,22	800,04	-1,013	
50,92	2,504	757,86	799,85	-1,015	
50,94	2,508	761,58	799,69	-1,017	
50,96	2,513	758,77	799,92	-1,019	
50,98	2,517	757,16	799,89	-1,021	
51,00	2,520	761,03	799,67	-1,023	
51,02	2,525	759,91	799,85	-1,025	
51,04	2,529	757,21	799,92	-1,027	
51,06	2,532	760,13	799,69	-1,030	
51,08	2,536	760,04	799,77	-1,032	
51,10	2,540	756,57	799,88	-1,034	
51,12	2,544	759,17	799,65	-1,036	
51,14	2,548	760,22	799,78	-1,038	
51,16	2,552	756,44	800,01	-1,040	
51,18	2,556	757,69	799,79	-1,042	
51,20	2,560	759,85	799,76	-1,044	
51,22	2,564	756,52	800,03	-1,046	
51,24	2,568	756,44	799,87	-1,048	
51,26	2,572	760,35	799,73	-1,051	
51,28	2,576	758,24	799,94	-1,053	
51,30	2,580	756,84	799,85	-1,055	
51,32	2,584	759,74	799,71	-1,057	
51,34	2,589	757,78	800,02	-1,059	
51,36	2,593	755,23	800,04	-1,060	
51,38	2,596	759,08	799,73	-1,061	
51,40	2,601	759,47	799,80	-1,062	
51,42	2,605	755,76	799,87	-1,064	
51,44	2,609	758,23	799,66	-1,066	
51,46	2,613	759,16	799,77	-1,068	
51,48	2,617	756,00	799,90	-1,070	
51,50	2,621	757,69	799,70	-1,073	
51,52	2,625	759,75	799,77	-1,075	
51,54	2,628	756,85	800,00	-1,077	
51,56	2,632	757,85	799,82	-1,079	
51,58	2,636	760,84	799,69	-1,081	
51,60	2,640	758,05	799,86	-1,084	
51,62	2,644	757,05	799,76	-1,087	
51,64	2,648	760,54	799,64	-1,090	
51,66	2,652	758,40	799,88	-1,092	
51,68	2,656	756,20	799,85	-1,095	
51,70	2,660	759,49	799,67	-1,097	
51,72	2,664	758,14	799,95	-1,099	
51,74	2,668	754,45	800,06	-1,101	
51,76	2,672	757,12	799,77	-1,103	
51,78	2,676	758,46	799,80	-1,105	
51,80	2,681	756,11	799,97	-1,107	
51,82	2,684	758,95	799,76	-1,109	
51,84	2,688	761,95	799,74	-1,111	
51,86	2,693	758,45	800,01	-1,113	
51,88	2,697	757,72	799,88	-1,115	
51,90	2,701	761,16	799,73	-1,117	
51,92	2,705	758,55	799,98	-1,120	
51,94	2,709	756,02	799,96	-1,122	
51,96	2,713	759,63	799,70	-1,124	
51,98	2,717	759,20	799,84	-1,126	
52,00	2,721	756,04	799,91	-1,128	
52,02	2,725	759,41	799,67	-1,130	
52,04	2,729	760,46	799,75	-1,132	
52,06	2,733	756,49	799,95	-1,134	
52,08	2,736	757,56	799,74	-1,136	
52,10	2,740	760,41	799,71	-1,138	
52,12	2,744	757,21	800,00	-1,141	
52,14	2,748	756,47	799,88	-1,143	
52,16	2,752	760,51	799,69	-1,145	
52,18	2,756	758,15	800,01	-1,147	
52,20	2,760	755,03	800,11	-1,149	
52,22	2,764	759,16	799,78	-1,151	
52,24	2,768	759,77	799,87	-1,153	
52,26	2,773	755,13	800,09	-1,155	
52,28	2,776	756,97	799,87	-1,157	
52,30	2,780	759,88	799,75	-1,160	
52,32	2,785	756,75	799,90	-1,162	
52,34	2,789	756,98	799,75	-1,164	
52,36	2,793	761,02	799,69	-1,166	
52,38	2,797	758,61	800,07	-1,168	
52,40	2,801	755,98	800,09	-1,170	
52,42	2,805	759,78	799,75	-1,172	
52,44	2,809	759,24	799,90	-1,174	
52,46	2,813	754,99	800,12	-1,176	
52,48	2,817	757,74	799,86	-1,178	
52,50	2,821	760,70	799,75	-1,181	
52,52	2,825	756,60	800,02	-1,183	
52,54	2,828	756,20	799,94	-1,185	
52,56	2,832	761,13	799,71	-1,187	
52,58	2,836	759,50	799,92	-1,189	
52,60	2,840	756,46	799,97	-1,191	
52,62	2,844	759,76	799,71	-1,193	
52,64	2,848	760,03	799,82	-1,195	
52,66	2,852	756,69	799,94	-1,197	
52,68	2,856	759,15	799,71	-1,199	
52,70	2,860	760,30	799,80	-1,202	
52,72	2,865	756,30	800,01	-1,204	
52,74	2,868	756,52	799,80	-1,206	
52,76	2,872	758,53	799,71	-1,208	
52,78	2,877	755,33	799,89	-1,210	
52,80	2,881	755,36	799,76	-1,212	
52,82	2,884	759,34	799,66	-1,214	
52,84	2,889	757,56	799,93	-1,216	
52,86	2,893	755,90	799,90	-1,218	
52,88	2,897	758,92	799,74	-1,220	
52,90	2,901	757,52	799,95	-1,223	
52,92	2,905	755,23	799,92	-1,225	
52,94	2,909	758,62	799,70	-1,227	
52,96	2,913	757,85	799,95	-1,229	
52,98	2,917	754,44	800,03	-1,231	
53,00	2,921	757,04	799,75	-1,233	
53,02	2,925	757,36	799,87	-1,235	
53,04	2,929	753,53	800,02	-1,237	
53,06	2,932	755,60	799,78	-1,239	
53,08	2,936	757,45	799,83	-1,242	
53,10	2,940	753,90	800,04	-1,244	
53,12	2,944	754,45	799,85	-1,246	
53,14	2,948	758,10	799,76	-1,248	
53,16	2,952	755,73	800,01	-1,250	
53,18	2,956	755,21	799,91	-1,252	
53,20	2,960	758,54	799,72	-1,254	
53,22	2,965	756,94	799,94	-1,256	
53,24	2,969	754,97	799,90	-1,258	
53,26	2,972	758,59	799,70	-1,261	
53,28	2,977	757,95	799,95	-1,263	
53,30	2,981	754,52	800,04	-1,265	
53,32	2,985	757,09	799,75	-1,267	
53,34	2,989	757,53	799,79	-1,269	
53,36	2,993	753,57	799,96	-1,271	
53,38	2,997	755,58	799,75	-1,273	
53,40	3,001	757,52	799,78	-1,275	
53,42	3,005	753,63	800,00	-1,278	
53,44	3,009	753,62	799,82	-1,280	
53,46	3,012	756,93	799,72	-1,282	
53,48	3,016	754,65	799,92	-1,284	
53,50	3,020	753,82	799,80	-1,286	
53,52	3,024	757,02	799,75	-1,288	
53,54	3,028	755,33	800,01	-1,290	
53,56	3,032	754,62	799,92	-1,292	
53,58	3,036	758,71	799,68	-1,294	
53,60	3,040	757,42	799,86	-1,297	
53,62	3,044	754,46	799,90	-1,299	
53,64	3,048	757,89	799,66	-1,301	
53,66	3,052	758,07	799,85	-1,303	
53,68	3,057	753,77	800,05	-1,305	
53,70	3,060	755,58	799,79	-1,307	
53,72	3,064	757,53	799,80	-1,309	
53,74	3,069	753,84	800,07	-1,312	
53,76	3,073	754,24	799,90	-1,314	
53,78	3,077	758,07	799,76	-1,316	
53,80	3,081	755,40	800,07	-1,318	
53,82	3,085	753,10	800,06	-1,320	
53,84	3,089	756,94	799,73	-1,322	
53,86	3,093	756,99	799,87	-1,324	
53,88	3,097	753,46	800,04	-1,326	
53,90	3,101	756,27	799,77	-1,328	
53,92	3,105	757,32	799,81	-1,331	
53,94	3,109	752,94	800,05	-1,333	
53,96	3,112	753,26	799,84	-1,335	
53,98	3,116	756,54	799,76	-1,337	
54,00	3,120	753,74	800,00	-1,339	
54,02	3,124	753,02	799,86	-1,341	
54,04	3,128	756,97	799,68	-1,343	
54,06	3,132	755,10	799,89	-1,345	
54,08	3,136	752,65	799,89	-1,347	
54,10	3,140	755,89	799,64	-1,349	
54,12	3,144	756,01	799,60	-1,352	
54,14	3,148	752,73	799,63	-1,354	
54,16	3,152	754,96	799,52	-1,356	
54,18	3,157	755,75	799,88	-1,358	
54,20	3,161	752,47	800,19	-1,360	
54,22	3,165	753,26	799,92	-1,362	
54,24	3,169	756,26	799,84	-1,364	
54,26	3,173	754,03	800,02	-1,366	
54,28	3,177	754,64	799,83	-1,368	
54,30	3,181	757,47	799,76	-1,370	
54,32	3,185	754,71	800,05	-1,373	
54,34	3,189	752,61	799,98	-1,375	
54,36	3,193	755,97	799,73	-1,377	
54,38	3,197	755,23	799,86	-1,379	
54,40	3,201	753,20	799,82	-1,381	
54,42	3,204	756,17	799,65	-1,383	
54,44	3,208	755,23	799,95	-1,385	
54,46	3,212	752,07	800,10	-1,387	
54,48	3,216	754,69	799,78	-1,390	
54,50	3,220	756,30	799,82	-1,392	
54,52	3,224	752,68	800,08	-1,394	
54,54	3,228	754,12	799,89	-1,396	
54,56	3,232	757,82	799,71	-1,398	
54,58	3,236	755,09	799,93	-1,400	
54,60	3,240	753,65	799,85	-1,402	
54,62	3,244	757,26	799,70	-1,405	
54,64	3,249	755,30	800,04	-1,407	
54,66	3,253	752,05	800,12	-1,409	
54,68	3,256	755,68	799,78	-1,411	
54,70	3,261	755,90	799,86	-1,413	
54,72	3,265	751,26	800,10	-1,415	
54,74	3,269	753,05	799,88	-1,417	
54,76	3,273	755,72	799,78	-1,419	
54,78	3,277	752,34	799,97	-1,421	
54,80	3,281	751,83	799,82	-1,423	
54,82	3,285	754,87	799,74	-1,426	
54,84	3,289	752,45	800,04	-1,428	
54,86	3,293	751,04	800,00	-1,430	
54,88	3,297	755,52	799,72	-1,432	
54,90	3,301	755,00	799,91	-1,434	
54,92	3,304	751,47	800,04	-1,436	
54,94	3,308	755,10	799,75	-1,438	
54,96	3,312	756,42	799,84	-1,440	
54,98	3,316	752,78	800,09	-1,443	
55,00	3,320	753,80	799,86	-1,445	
55,02	3,324	757,10	799,77	-1,447	
55,04	3,328	753,11	800,17	-1,449	
55,06	3,333	750,76	800,19	-1,451	
55,08	3,336	755,28	799,81	-1,453	
55,10	3,340	755,38	799,92	-1,455	
55,12	3,345	750,77	800,16	-1,457	
55,14	3,349	752,75	799,92	-1,459	
55,16	3,353	755,63	799,79	-1,462	
55,18	3,357	751,98	799,99	-1,464	
55,20	3,361	750,86	799,85	-1,466	
55,22	3,365	754,13	799,77	-1,468	
55,24	3,369	752,20	800,05	-1,470	
55,26	3,373	751,07	799,97	-1,472	
55,28	3,377	754,61	799,72	-1,474	
55,30	3,381	753,41	799,91	-1,476	
55,32	3,385	750,75	799,94	-1,479	
55,34	3,389	754,62	799,72	-1,481	
55,36	3,393	754,57	799,95	-1,483	
55,38	3,397	750,84	800,12	-1,485	
55,40	3,401	752,80	799,81	-1,487	
55,42	3,404	754,50	799,86	-1,489	
55,44	3,408	750,59	800,23	-1,491	
55,46	3,412	750,50	800,09	-1,494	
55,48	3,416	755,11	799,76	-1,496	
55,50	3,420	753,18	800,06	-1,498	
55,52	3,425	749,63	800,28	-1,500	
55,54	3,428	752,70	799,94	-1,502	
55,56	3,432	754,94	799,85	-1,504	
55,58	3,437	750,39	800,23	-1,506	
55,60	3,441	749,71	800,19	-1,509	
55,62	3,444	754,44	799,80	-1,511	
55,64	3,449	753,10	800,10	-1,513	
55,66	3,453	748,18	800,59	-1,515	
55,68	3,457	749,52	800,42	-1,517	
55,70	3,461	753,94	799,88	-1,519	
55,72	3,465	752,82	799,98	-1,521	
55,74	3,469	749,72	800,45	-1,523	
55,76	3,473	751,82	800,34	-1,525	
55,78	3,477	754,53	799,85	-1,527	
55,80	3,480	751,63	799,99	-1,530	
55,82	3,484	748,12	800,34	-1,532	
55,84	3,488	751,01	800,11	-1,534	
55,86	3,492	754,87	799,78	-1,536	
55,88	3,496	751,37	800,24	-1,538	
55,90	3,500	748,07	800,59	-1,540	
55,92	3,504	751,35	800,25	-1,543	
55,94	3,508	755,26	799,82	-1,545	
55,96	3,512	751,63	800,35	-1,547	
55,98	3,516	747,84	800,86	-1,549	
56,00	3,520	749,58	800,60	-1,551	
56,02	3,524	752,39	799,95	-1,553	
56,04	3,528	751,31	800,03	-1,555	
56,06	3,533	747,61	800,73	-1,557	
56,08	3,537	748,62	800,83	-1,560	
56,10	3,541	750,00	800,27	-1,562	
56,12	3,544	750,04	799,86	-1,564	
56,14	3,549	746,50	800,36	-1,566	
56,16	3,553	746,74	800,70	-1,568	
56,18	3,557	750,27	800,33	-1,570	
56,20	3,561	752,90	799,84	-1,572	
56,22	3,565	749,44	800,23	-1,575	
56,24	3,569	746,71	800,68	-1,577	
56,26	3,573	749,36	800,40	-1,579	
56,28	3,577	752,48	799,86	-1,581	
56,30	3,581	749,86	800,06	-1,583	
56,32	3,585	746,72	800,43	-1,585	
56,34	3,589	749,25	800,19	-1,587	
56,36	3,592	752,51	799,80	-1,589	
56,38	3,596	750,00	800,12	-1,592	
56,40	3,600	747,52	800,37	-1,594	
56,42	3,604	750,16	800,02	-1,596	
56,44	3,608	751,66	799,87	-1,598	
56,46	3,613	746,78	800,32	-1,600	
56,48	3,617	745,53	800,38	-1,602	
56,50	3,620	750,58	799,90	-1,604	
56,52	3,624	751,54	799,85	-1,606	
56,54	3,629	746,88	800,22	-1,608	
56,56	3,633	747,48	800,12	-1,610	
56,58	3,637	751,19	799,78	-1,613	
56,60	3,641	748,74	800,06	-1,615	
56,62	3,645	745,14	800,29	-1,617	
56,64	3,649	748,70	799,96	-1,619	
56,66	3,653	751,72	799,81	-1,621	
56,68	3,657	746,97	800,25	-1,623	
56,70	3,661	745,50	800,31	-1,625	
56,72	3,665	750,49	799,87	-1,628	
56,74	3,669	750,47	799,99	-1,630	
56,76	3,673	745,02	800,50	-1,632	
56,78	3,676	745,62	800,41	-1,634	
56,80	3,680	750,54	799,89	-1,636	
56,82	3,684	750,27	800,06	-1,638	
56,84	3,688	745,53	800,63	-1,640	
56,86	3,692	746,16	800,55	-1,642	
56,88	3,696	749,24	799,99	-1,644	
56,90	3,700	747,35	800,06	-1,647	
56,92	3,705	742,96	800,51	-1,649	
56,94	3,709	745,13	800,41	-1,651	
56,96	3,712	749,12	799,88	-1,653	
56,98	3,716	748,40	799,90	-1,655	
57,00	3,721	744,52	800,33	-1,657	
57,02	3,725	745,33	800,23	-1,659	
57,04	3,728	748,61	799,81	-1,661	
57,06	3,733	746,35	800,11	-1,664	
57,08	3,737	742,13	800,54	-1,666	
57,10	3,741	744,79	800,31	-1,668	
57,12	3,745	749,06	799,84	-1,670	
57,14	3,749	746,79	800,12	-1,672	
57,16	3,753	744,26	800,47	-1,674	
57,18	3,757	747,78	800,15	-1,676	
57,20	3,761	749,78	799,89	-1,678	
57,22	3,765	745,10	800,37	-1,681	
57,24	3,769	742,87	800,60	-1,683	
57,26	3,772	746,04	800,19	-1,685	
57,28	3,776	748,90	799,82	-1,687	
57,30	3,780	746,30	800,24	-1,689	
57,32	3,784	745,17	800,53	-1,691	
57,34	3,788	747,42	800,16	-1,693	
57,36	3,792	748,91	799,85	-1,695	
57,38	3,796	744,36	800,34	-1,697	
57,40	3,801	742,31	800,63	-1,699	
57,42	3,804	745,87	800,23	-1,701	
57,44	3,808	749,02	799,83	-1,704	
57,46	3,813	745,23	800,37	-1,706	
57,48	3,817	742,19	800,81	-1,708	
57,50	3,821	744,88	800,47	-1,710	
57,52	3,824	747,92	799,87	-1,712	
57,54	3,829	744,73	800,21	-1,714	
57,56	3,833	741,42	800,78	-1,716	
57,58	3,837	744,36	800,59	-1,718	
57,60	3,841	747,12	799,97	-1,721	
57,62	3,845	745,37	800,08	-1,723	
57,64	3,849	742,67	800,69	-1,725	
57,66	3,853	745,03	800,67	-1,727	
57,68	3,857	748,47	800,08	-1,729	
57,70	3,861	748,07	799,99	-1,731	
57,72	3,865	742,98	800,68	-1,733	
57,74	3,869	743,24	800,86	-1,735	
57,76	3,873	746,14	800,34	-1,737	
57,78	3,876	747,34	799,82	-1,740	
57,80	3,880	743,47	800,50	-1,742	
57,82	3,884	741,53	801,27	-1,744	
57,84	3,888	742,83	801,14	-1,746	
57,86	3,892	743,23	800,41	-1,748	
57,88	3,896	743,22	799,89	-1,750	
57,90	3,900	742,52	800,26	-1,752	
57,92	3,905	743,91	800,54	-1,754	
57,94	3,909	745,55	800,14	-1,756	
57,96	3,912	746,32	799,84	-1,758	
57,98	3,917	742,39	800,56	-1,761	
58,00	3,921	740,18	801,06	-1,763	
58,02	3,925	742,93	800,73	-1,765	
58,04	3,929	745,87	800,04	-1,767	
58,06	3,933	746,14	799,98	-1,769	
58,08	3,937	744,11	800,65	-1,771	
58,10	3,941	744,44	800,79	-1,773	
58,12	3,945	745,55	800,26	-1,775	
58,14	3,949	746,37	799,82	-1,777	
58,16	3,953	742,49	800,39	-1,779	
58,18	3,956	741,06	800,86	-1,782	
58,20	3,960	743,61	800,55	-1,784	
58,22	3,964	746,22	799,91	-1,786	
58,24	3,968	744,11	800,14	-1,788	
58,26	3,972	740,22	800,81	-1,790	
58,28	3,976	741,90	800,77	-1,792	
58,30	3,980	745,17	800,13	-1,794	
58,32	3,984	745,50	799,97	-1,796	
58,34	3,989	740,99	800,72	-1,798	
58,36	3,993	740,59	801,03	-1,800	
58,38	3,997	742,18	800,56	-1,802	
58,40	4,000	743,33	799,90	-1,804	
58,42	4,005	741,59	800,16	-1,807	
58,44	4,009	740,62	800,77	-1,809	
58,46	4,013	742,04	800,67	-1,811	
58,48	4,017	743,20	800,03	-1,813	
58,50	4,021	742,37	800,06	-1,815	
58,52	4,025	739,06	800,92	-1,817	
58,54	4,029	739,52	801,19	-1,819	
58,56	4,033	741,51	800,71	-1,821	
58,58	4,037	743,00	799,99	-1,823	
58,60	4,041	743,05	800,01	-1,825	
58,62	4,045	742,07	800,74	-1,828	
58,64	4,049	741,93	800,92	-1,830	
58,66	4,053	742,29	800,39	-1,832	
58,68	4,057	743,22	799,86	-1,834	
58,70	4,061	740,84	800,33	-1,836	
58,72	4,065	740,62	800,82	-1,838	
58,74	4,069	742,82	800,53	-1,840	
58,76	4,072	744,45	799,90	-1,842	
58,78	4,076	742,52	800,12	-1,844	
58,80	4,081	739,23	800,81	-1,846	
58,82	4,085	740,08	800,82	-1,849	
58,84	4,088	742,09	800,17	-1,850	
58,86	4,092	742,39	799,97	-1,853	
58,88	4,097	738,73	800,81	-1,855	
58,90	4,101	738,79	801,26	-1,857	
58,92	4,105	741,04	800,88	-1,859	
58,94	4,109	742,66	800,14	-1,861	
58,96	4,113	743,20	799,91	-1,863	
58,98	4,117	742,15	800,55	-1,865	
59,00	4,121	741,84	800,81	-1,867	
59,02	4,125	742,21	800,32	-1,869	
59,04	4,129	743,04	799,88	-1,871	
59,06	4,133	739,71	800,50	-1,874	
59,08	4,137	737,98	801,06	-1,876	
59,10	4,141	740,12	800,80	-1,878	
59,12	4,145	742,29	800,12	-1,880	
59,14	4,148	742,70	799,84	-1,882	
59,16	4,152	740,52	800,47	-1,884	
59,18	4,156	740,66	800,82	-1,886	
59,20	4,160	741,79	800,42	-1,888	
59,22	4,164	743,07	799,86	-1,890	
59,24	4,168	740,62	800,25	-1,893	
59,26	4,172	738,88	800,87	-1,895	
59,28	4,177	740,49	800,73	-1,897	
59,30	4,180	742,44	800,07	-1,899	
59,32	4,184	742,42	799,97	-1,901	
59,34	4,189	739,20	800,78	-1,903	
59,36	4,193	739,49	801,11	-1,905	
59,38	4,197	741,41	800,62	-1,907	
59,40	4,200	742,76	799,93	-1,909	
59,42	4,205	739,97	800,14	-1,911	
59,44	4,209	737,80	800,77	-1,913	
59,46	4,213	739,34	800,69	-1,916	
59,48	4,217	740,56	800,06	-1,918	
59,50	4,221	739,25	799,97	-1,920	
59,52	4,225	736,01	800,54	-1,922	
59,54	4,229	737,72	800,59	-1,924	
59,56	4,233	741,37	800,04	-1,926	
59,58	4,237	741,29	799,90	-1,928	
59,60	4,241	735,92	800,46	-1,930	
59,62	4,245	736,45	800,61	-1,932	
59,64	4,248	740,52	800,13	-1,934	
59,66	4,252	742,42	799,82	-1,936	
59,68	4,256	738,20	800,30	-1,938	
59,70	4,260	737,03	800,52	-1,940	
59,72	4,264	740,39	800,07	-1,943	
59,74	4,268	741,68	799,93	-1,945	
59,76	4,273	736,31	800,55	-1,947	
59,78	4,277	735,17	800,75	-1,949	
59,80	4,281	738,98	800,27	-1,951	
59,82	4,284	741,03	799,83	-1,953	
59,84	4,289	737,87	800,38	-1,955	
59,86	4,293	736,37	800,88	-1,957	
59,88	4,297	737,74	800,59	-1,959	
59,90	4,301	739,50	799,93	-1,961	
59,92	4,305	738,24	800,13	-1,964	
59,94	4,309	735,59	800,89	-1,966	
59,96	4,313	736,68	800,96	-1,968	
59,98	4,317	738,51	800,37	-1,970	
60,00	4,321	739,69	799,84	-1,972	
60,02	4,325	736,46	800,30	-1,974	
60,04	4,329	734,89	800,80	-1,976	
60,06	4,333	736,32	800,50	-1,978	
60,08	4,337	738,27	799,90	-1,980	
60,10	4,341	734,88	800,21	-1,982	
60,12	4,345	731,28	800,83	-1,985	
60,14	4,349	734,04	800,72	-1,987	
60,16	4,352	736,54	800,10	-1,989	
60,18	4,356	736,36	799,90	-1,991	
60,20	4,360	734,19	800,58	-1,993	
60,22	4,365	735,64	800,91	-1,995	
60,24	4,369	737,98	800,49	-1,997	
60,26	4,372	739,64	799,87	-1,999	
60,28	4,376	738,01	800,17	-2,001	
60,30	4,381	736,21	800,90	-2,004	
60,32	4,385	737,32	800,87	-2,006	
60,34	4,389	738,80	800,23	-2,008	
60,36	4,393	739,42	799,85	-2,010	
60,38	4,397	736,13	800,54	-2,012	
60,40	4,401	734,97	801,07	-2,014	
60,42	4,405	735,70	800,74	-2,016	
60,44	4,409	736,44	800,02	-2,018	
60,46	4,413	735,63	800,09	-2,020	
60,48	4,417	732,88	800,97	-2,022	
60,50	4,421	733,44	801,22	-2,024	
60,52	4,425	734,98	800,74	-2,026	
60,54	4,429	736,05	800,03	-2,028	
60,56	4,433	736,26	799,93	-2,030	
60,58	4,437	735,29	800,63	-2,033	
60,60	4,441	735,14	800,86	-2,035	
60,62	4,444	735,52	800,38	-2,037	
60,64	4,448	736,42	799,88	-2,039	
60,66	4,452	734,06	800,40	-2,041	
60,68	4,457	733,20	800,98	-2,043	
60,70	4,460	735,18	800,77	-2,045	
60,72	4,464	736,55	800,08	-2,047	
60,74	4,468	735,84	799,99	-2,049	
60,76	4,473	732,99	800,67	-2,052	
60,78	4,477	733,41	800,84	-2,054	
60,80	4,481	734,94	800,31	-2,056	
60,82	4,484	736,08	799,83	-2,058	
60,84	4,489	732,69	800,32	-2,060	
60,86	4,493	731,69	800,79	-2,062	
60,88	4,497	733,93	800,52	-2,064	
60,90	4,501	736,15	799,92	-2,066	
60,92	4,505	734,38	800,15	-2,068	
60,94	4,509	731,47	800,90	-2,070	
60,96	4,513	733,00	800,96	-2,072	
60,98	4,517	735,16	800,38	-2,074	
61,00	4,521	736,60	799,84	-2,077	
61,02	4,525	734,75	800,29	-2,079	
61,04	4,529	733,68	800,84	-2,081	
61,06	4,533	734,62	800,65	-2,083	
61,08	4,537	735,89	800,01	-2,085	
61,10	4,541	735,55	799,93	-2,087	
61,12	4,545	732,95	800,62	-2,089	
61,14	4,548	733,45	800,80	-2,091	
61,16	4,552	735,07	800,27	-2,093	
61,18	4,556	736,13	799,86	-2,095	
61,20	4,561	732,32	800,57	-2,098	
61,22	4,565	730,76	801,14	-2,100	
61,24	4,569	733,25	800,87	-2,102	
61,26	4,573	735,57	800,16	-2,104	
61,28	4,576	735,98	799,92	-2,106	
61,30	4,581	733,94	800,48	-2,108	
61,32	4,585	734,11	800,63	-2,110	
61,34	4,589	735,50	800,13	-2,112	
61,36	4,593	735,70	799,91	-2,114	
61,38	4,597	731,46	800,51	-2,116	
61,40	4,601	731,22	800,71	-2,118	
61,42	4,605	734,24	800,20	-2,120	
61,44	4,609	735,44	799,91	-2,123	
61,46	4,613	730,70	800,50	-2,125	
61,48	4,617	729,73	800,77	-2,127	
61,50	4,621	733,15	800,31	-2,129	
61,52	4,624	735,84	799,87	-2,131	
61,54	4,628	732,50	800,43	-2,133	
61,56	4,632	730,82	800,92	-2,135	
61,58	4,636	733,26	800,59	-2,137	
61,60	4,640	735,90	799,94	-2,139	
61,62	4,644	733,68	800,15	-2,142	
61,64	4,648	730,68	800,76	-2,144	
61,66	4,652	732,60	800,69	-2,146	
61,68	4,656	735,46	800,05	-2,148	
61,70	4,660	735,44	800,03	-2,150	
61,72	4,664	730,86	800,91	-2,152	
61,74	4,669	730,28	801,22	-2,154	
61,76	4,673	731,88	800,72	-2,156	
61,78	4,676	732,97	799,99	-2,158	
61,80	4,680	732,20	800,00	-2,160	
61,82	4,685	731,06	800,60	-2,162	
61,84	4,689	731,41	800,62	-2,164	
61,86	4,693	733,15	800,05	-2,166	
61,88	4,697	734,30	799,93	-2,168	
61,90	4,701	730,26	800,73	-2,171	
61,92	4,705	729,75	801,06	-2,173	
61,94	4,709	731,69	800,59	-2,175	
61,96	4,713	733,17	799,92	-2,177	
61,98	4,717	731,64	800,27	-2,179	
62,00	4,721	730,35	801,09	-2,181	
62,02	4,725	731,16	801,11	-2,183	
62,04	4,728	732,12	800,43	-2,185	
62,06	4,732	732,87	799,92	-2,187	
62,08	4,736	730,36	800,56	-2,190	
62,10	4,740	729,67	801,14	-2,192	
62,12	4,744	731,08	800,85	-2,194	
62,14	4,748	732,52	800,09	-2,196	
62,16	4,752	731,49	800,06	-2,198	
62,18	4,756	727,23	801,00	-2,200	
62,20	4,761	726,80	801,36	-2,202	
62,22	4,765	728,15	800,90	-2,204	
62,24	4,768	729,22	800,15	-2,206	
62,26	4,772	729,84	799,93	-2,208	
62,28	4,777	729,43	800,59	-2,210	
62,30	4,781	729,00	800,86	-2,212	
62,32	4,785	728,99	800,37	-2,214	
62,34	4,788	730,28	799,89	-2,216	
62,36	4,793	728,05	800,58	-2,219	
62,38	4,797	726,48	801,32	-2,221	
62,40	4,801	727,64	801,16	-2,223	
62,42	4,805	728,75	800,46	-2,225	
62,44	4,809	729,72	799,83	-2,227	
62,46	4,813	729,59	800,17	-2,229	
62,48	4,817	729,07	800,75	-2,231	
62,50	4,820	728,77	800,62	-2,233	
62,52	4,824	730,05	799,99	-2,235	
62,54	4,828	730,30	800,07	-2,237	
62,56	4,832	727,08	800,97	-2,240	
62,58	4,836	727,45	801,27	-2,242	
62,60	4,840	728,93	800,80	-2,244	
62,62	4,844	729,53	800,07	-2,246	
62,64	4,848	730,20	799,92	-2,248	
62,66	4,852	729,93	800,62	-2,250	
62,68	4,857	729,13	800,89	-2,252	
62,70	4,861	728,78	800,43	-2,254	
62,72	4,864	730,32	799,83	-2,256	
62,74	4,868	729,62	800,25	-2,258	
62,76	4,873	727,80	801,07	-2,260	
62,78	4,877	727,95	801,09	-2,263	
62,80	4,881	728,59	800,45	-2,265	
62,82	4,885	729,59	799,87	-2,267	
62,84	4,889	728,32	800,39	-2,269	
62,86	4,893	727,45	801,06	-2,271	
62,88	4,897	728,09	800,90	-2,273	
62,90	4,901	729,10	800,18	-2,275	
62,92	4,905	728,78	800,04	-2,277	
62,94	4,909	724,95	801,04	-2,279	
62,96	4,913	725,31	801,55	-2,282	
62,98	4,916	726,91	801,13	-2,283	
63,00	4,920	726,68	800,32	-2,285	
63,02	4,924	726,93	799,88	-2,288	
63,04	4,928	727,43	800,50	-2,290	
63,06	4,932	727,53	800,96	-2,292	
63,08	4,936	728,03	800,62	-2,294	
63,10	4,940	729,23	799,94	-2,296	
63,12	4,944	727,59	800,13	-2,298	
63,14	4,949	723,85	801,01	-2,300	
63,16	4,953	723,79	801,19	-2,302	
63,18	4,957	725,01	800,62	-2,304	
63,20	4,960	726,19	799,92	-2,306	
63,22	4,964	725,38	800,14	-2,308	
63,24	4,969	724,28	800,85	-2,311	
63,26	4,973	724,68	800,84	-2,313	
63,28	4,977	726,29	800,21	-2,314	
63,30	4,981	727,98	799,92	-2,317	
63,32	4,985	724,95	800,71	-2,319	
63,34	4,989	724,16	801,22	-2,321	
63,36	4,993	725,33	800,89	-2,323	
63,38	4,997	726,12	800,15	-2,325	
63,40	5,001	726,03	799,93	-2,327	
63,42	5,005	724,36	800,63	-2,329	
63,44	5,009	724,33	800,95	-2,331	
63,46	5,013	725,00	800,50	-2,333	
63,48	5,016	726,15	799,87	-2,335	
63,50	5,020	724,16	800,27	-2,337	
63,52	5,024	722,72	801,09	-2,339	
63,54	5,028	723,97	801,07	-2,341	
63,56	5,032	725,29	800,38	-2,343	
63,58	5,036	725,84	799,93	-2,345	
63,60	5,040	723,25	800,61	-2,348	
63,62	5,045	723,06	801,13	-2,350	
63,64	5,049	724,51	800,81	-2,352	
63,66	5,052	725,76	800,08	-2,354	
63,68	5,056	725,15	800,00	-2,356	
63,70	5,061	722,28	800,79	-2,358	
63,72	5,065	722,70	801,05	-2,360	
63,74	5,069	724,50	800,54	-2,362	
63,76	5,073	726,03	799,88	-2,364	
63,78	5,077	723,85	800,22	-2,366	
63,80	5,081	721,89	800,96	-2,369	
63,82	5,085	723,46	800,93	-2,370	
63,84	5,089	725,18	800,27	-2,372	
63,86	5,092	725,84	799,91	-2,374	
63,88	5,096	722,99	800,74	-2,377	
63,90	5,100	721,96	801,34	-2,379	
63,92	5,104	722,38	801,01	-2,381	
63,94	5,108	722,55	800,25	-2,383	
63,96	5,112	722,76	799,88	-2,385	
63,98	5,116	721,97	800,50	-2,387	
64,00	5,120	722,94	800,84	-2,389	
64,02	5,124	724,61	800,39	-2,391	
64,04	5,128	725,97	799,89	-2,393	
64,06	5,132	722,31	800,50	-2,395	
64,08	5,136	719,19	801,13	-2,397	
64,10	5,140	720,24	800,90	-2,399	
64,12	5,144	722,00	800,17	-2,401	
64,14	5,148	722,36	799,88	-2,403	
64,16	5,153	719,74	800,53	-2,406	
64,18	5,157	720,02	800,85	-2,408	
64,20	5,161	721,61	800,40	-2,410	
64,22	5,165	723,03	799,88	-2,412	
64,24	5,169	720,75	800,31	-2,414	
64,26	5,173	720,18	800,74	-2,416	
64,28	5,177	723,07	800,40	-2,418	
64,30	5,181	725,71	799,87	-2,420	
64,32	5,185	722,05	800,43	-2,422	
64,34	5,189	717,73	801,11	-2,424	
64,36	5,193	719,18	800,91	-2,426	
64,38	5,197	721,64	800,17	-2,428	
64,40	5,200	720,92	799,94	-2,430	
64,42	5,204	717,10	800,71	-2,432	
64,44	5,208	717,97	801,10	-2,435	
64,46	5,212	719,49	800,68	-2,436	
64,48	5,216	719,98	799,97	-2,438	
64,50	5,220	718,64	800,13	-2,441	
64,52	5,224	716,81	800,98	-2,443	
64,54	5,228	717,45	801,12	-2,445	
64,56	5,232	718,57	800,51	-2,447	
64,58	5,236	719,70	799,91	-2,449	
64,60	5,240	717,93	800,43	-2,451	
64,62	5,245	716,78	801,07	-2,453	
64,64	5,249	717,74	800,89	-2,455	
64,66	5,253	718,86	800,18	-2,457	
64,68	5,257	718,96	799,91	-2,459	
64,70	5,261	716,25	800,64	-2,461	
64,72	5,265	716,52	801,00	-2,463	
64,74	5,269	718,04	800,56	-2,466	
64,76	5,273	719,44	799,91	-2,468	
64,78	5,277	717,27	800,27	-2,470	
64,80	5,281	715,22	801,00	-2,472	
64,82	5,285	716,67	800,94	-2,474	
64,84	5,288	718,44	800,28	-2,476	
64,86	5,292	719,21	799,88	-2,478	
64,88	5,296	716,63	800,53	-2,480	
64,90	5,300	716,36	800,99	-2,482	
64,92	5,304	717,78	800,64	-2,484	
64,94	5,308	719,12	799,96	-2,486	
64,96	5,312	716,48	800,20	-2,488	
64,98	5,316	713,43	801,06	-2,490	
65,00	5,320	714,54	801,17	-2,492	
65,02	5,324	715,61	800,57	-2,494	
65,04	5,328	716,38	799,88	-2,496	
65,06	5,332	715,22	800,23	-2,498	
65,08	5,337	714,12	801,04	-2,501	
65,10	5,341	714,65	801,08	-2,503	
65,12	5,345	715,32	800,45	-2,504	
65,14	5,348	716,23	799,91	-2,506	
65,16	5,353	714,86	800,49	-2,509	
65,18	5,357	713,99	801,12	-2,511	
65,20	5,361	714,62	800,90	-2,513	
65,22	5,365	715,62	800,17	-2,514	
65,24	5,369	715,67	799,99	-2,517	
65,26	5,373	712,89	800,91	-2,519	
65,28	5,377	713,12	801,38	-2,521	
65,30	5,381	714,66	800,96	-2,523	
65,32	5,384	715,75	800,17	-2,525	
65,34	5,388	716,09	799,97	-2,527	
65,36	5,392	715,11	800,69	-2,529	
65,38	5,396	714,90	800,98	-2,531	
65,40	5,400	715,18	800,49	-2,533	
65,42	5,404	716,11	799,86	-2,535	
65,44	5,408	713,96	800,28	-2,537	
65,46	5,413	712,53	800,98	-2,539	
65,48	5,417	713,85	800,90	-2,541	
65,50	5,420	715,18	800,23	-2,543	
65,52	5,424	715,57	799,88	-2,545	
65,54	5,429	712,39	800,64	-2,548	
65,56	5,433	712,31	801,18	-2,550	
65,58	5,437	714,20	800,85	-2,551	
65,60	5,441	715,64	800,11	-2,553	
65,62	5,445	715,96	799,92	-2,555	
65,64	5,449	714,36	800,63	-2,558	
65,66	5,453	714,31	800,90	-2,560	
65,68	5,457	715,04	800,41	-2,562	
65,70	5,461	716,14	799,88	-2,564	
65,72	5,465	713,13	800,52	-2,566	
65,74	5,469	710,93	801,26	-2,568	
65,76	5,473	712,96	801,11	-2,570	
65,78	5,477	714,82	800,40	-2,572	
65,80	5,481	714,85	799,85	-2,574	
65,82	5,485	712,75	800,35	-2,576	
65,84	5,489	711,63	800,89	-2,578	
65,86	5,492	711,67	800,65	-2,580	
65,88	5,496	712,50	799,98	-2,582	
65,90	5,500	711,52	800,09	-2,584	
65,92	5,504	708,60	800,94	-2,586	
65,94	5,508	709,45	801,11	-2,588	
65,96	5,512	711,30	800,53	-2,590	
65,98	5,516	712,77	799,87	-2,592	
66,00	5,520	711,38	800,14	-2,594	
66,02	5,525	710,19	800,76	-2,597	
66,04	5,529	711,27	800,65	-2,598	
66,06	5,532	713,96	800,02	-2,600	
66,08	5,536	714,21	800,09	-2,603	
66,10	5,541	710,49	800,92	-2,605	
66,12	5,545	710,04	801,12	-2,607	
66,14	5,549	711,40	800,57	-2,609	
66,16	5,553	712,83	799,93	-2,610	
66,18	5,557	710,59	800,36	-2,613	
66,20	5,561	708,32	801,10	-2,615	
66,22	5,565	708,55	801,04	-2,617	
66,24	5,568	708,86	800,37	-2,619	
66,26	5,572	709,65	799,86	-2,621	
66,28	5,576	708,72	800,67	-2,623	
66,30	5,580	708,15	801,55	-2,625	
66,32	5,584	708,39	801,44	-2,627	
66,34	5,588	708,63	800,74	-2,629	
66,36	5,592	709,37	799,99	-2,631	
66,38	5,596	710,18	800,09	-2,633	
66,40	5,600	709,80	800,77	-2,635	
66,42	5,604	708,95	800,83	-2,637	
66,44	5,608	709,40	800,24	-2,639	
66,46	5,612	711,27	799,89	-2,641	
66,48	5,617	709,05	800,72	-2,643	
66,50	5,621	707,97	801,39	-2,646	
66,52	5,625	708,71	801,11	-2,647	
66,54	5,629	708,98	800,35	-2,649	
66,56	5,632	709,79	799,85	-2,651	
66,58	5,637	709,56	800,52	-2,653	
66,60	5,641	708,89	801,20	-2,655	
66,62	5,645	708,63	801,04	-2,658	
66,64	5,649	708,71	800,36	-2,659	
66,66	5,653	709,57	799,86	-2,661	
66,68	5,657	708,80	800,46	-2,664	
66,70	5,661	708,22	801,08	-2,666	
66,72	5,665	708,40	800,84	-2,668	
66,74	5,669	709,03	800,12	-2,669	
66,76	5,672	708,81	799,99	-2,672	
66,78	5,677	706,06	800,80	-2,674	
66,80	5,681	706,41	801,14	-2,676	
66,82	5,685	708,01	800,69	-2,678	
66,84	5,688	709,33	799,99	-2,679	
66,86	5,692	708,94	800,03	-2,682	
66,88	5,696	707,70	800,81	-2,684	
66,90	5,700	707,96	801,01	-2,686	
66,92	5,704	708,60	800,47	-2,688	
66,94	5,708	709,63	799,86	-2,690	
66,96	5,712	707,54	800,32	-2,692	
66,98	5,717	706,12	801,05	-2,694	
67,00	5,721	707,45	800,97	-2,696	
67,02	5,725	708,72	800,31	-2,698	
67,04	5,728	709,47	799,87	-2,700	
67,06	5,733	706,71	800,63	-2,703	
67,08	5,737	705,62	801,30	-2,704	
67,10	5,741	706,51	801,07	-2,706	
67,12	5,745	706,44	800,32	-2,708	
67,14	5,749	706,50	799,85	-2,710	
67,16	5,753	705,41	800,41	-2,713	
67,18	5,757	704,96	800,87	-2,715	
67,20	5,761	705,87	800,54	-2,716	
67,22	5,764	708,38	799,91	-2,718	
67,24	5,768	707,13	800,25	-2,721	
67,26	5,772	704,10	801,05	-2,723	
67,28	5,776	705,49	801,06	-2,725	
67,30	5,780	708,03	800,42	-2,727	
67,32	5,784	709,09	799,87	-2,729	
67,34	5,788	706,83	800,41	-2,731	
67,36	5,792	705,86	801,01	-2,733	
67,38	5,796	707,11	800,78	-2,735	
67,40	5,800	707,58	800,07	-2,737	
67,42	5,804	706,17	800,03	-2,739	
67,44	5,809	702,86	800,88	-2,741	
67,46	5,813	703,13	801,17	-2,743	
67,48	5,817	704,67	800,69	-2,745	
67,50	5,820	705,95	799,98	-2,747	
67,52	5,824	705,40	800,08	-2,749	
67,54	5,829	704,20	800,91	-2,751	
67,56	5,833	704,59	801,09	-2,753	
67,58	5,837	705,26	800,51	-2,755	
67,60	5,841	706,24	799,89	-2,757	
67,62	5,845	704,58	800,45	-2,759	
67,64	5,849	703,43	801,25	-2,761	
67,66	5,853	704,34	801,14	-2,763	
67,68	5,856	705,35	800,42	-2,765	
67,70	5,860	705,99	799,90	-2,767	
67,72	5,864	703,45	800,53	-2,770	
67,74	5,868	703,01	801,11	-2,772	
67,76	5,872	704,47	800,85	-2,774	
67,78	5,876	705,72	800,12	-2,775	
67,80	5,880	705,78	799,97	-2,777	
67,82	5,884	702,96	800,91	-2,780	
67,84	5,888	702,98	801,36	-2,782	
67,86	5,892	703,27	800,92	-2,784	
67,88	5,896	703,14	800,12	-2,785	
67,90	5,900	702,84	800,06	-2,787	
67,92	5,904	702,01	800,90	-2,790	
67,94	5,909	703,11	801,19	-2,792	
67,96	5,913	704,71	800,67	-2,794	
67,98	5,916	706,08	799,98	-2,796	
68,00	5,921	704,22	800,24	-2,798	
68,02	5,925	702,72	800,87	-2,800	
68,04	5,929	703,95	800,77	-2,802	
68,06	5,933	705,51	800,09	-2,803	
68,08	5,937	705,46	800,04	-2,806	
68,10	5,941	701,42	801,14	-2,808	
68,12	5,945	700,28	801,70	-2,810	
68,14	5,949	701,30	801,29	-2,812	
68,16	5,953	701,84	800,50	-2,814	
68,18	5,957	702,59	799,89	-2,815	
68,20	5,960	703,82	800,39	-2,818	
68,22	5,964	703,18	801,07	-2,820	
68,24	5,968	702,28	800,93	-2,822	
68,26	5,972	702,14	800,27	-2,824	
68,28	5,976	702,69	799,86	-2,826	
68,30	5,980	701,22	800,54	-2,828	
68,32	5,984	701,52	801,06	-2,830	
68,34	5,988	703,71	800,74	-2,832	
68,36	5,992	705,64	800,01	-2,834	
68,38	5,996	705,23	800,09	-2,836	
68,40	6,001	702,15	801,17	-2,838	
68,42	6,005	701,22	801,59	-2,840	
68,44	6,009	701,68	801,08	-2,842	
68,46	6,013	702,36	800,23	-2,844	
68,48	6,017	702,77	799,99	-2,846	
68,50	6,021	701,78	800,81	-2,848	
68,52	6,025	701,52	801,22	-2,850	
68,54	6,029	701,84	800,77	-2,852	
68,56	6,033	702,76	800,02	-2,854	
68,58	6,037	700,90	800,24	-2,856	
68,60	6,041	698,57	801,11	-2,858	
68,62	6,045	699,86	801,21	-2,860	
68,64	6,049	701,48	800,56	-2,862	
68,66	6,052	702,78	799,90	-2,864	
68,68	6,056	701,71	800,34	-2,866	
68,70	6,060	700,71	801,02	-2,868	
68,72	6,064	701,24	800,89	-2,870	
68,74	6,068	702,20	800,17	-2,872	
68,76	6,072	702,16	799,98	-2,874	
68,78	6,076	698,08	801,00	-2,876	
68,80	6,081	696,89	801,58	-2,878	
68,82	6,085	697,92	801,21	-2,880	
68,84	6,089	698,73	800,41	-2,882	
68,86	6,092	699,82	799,93	-2,884	
68,88	6,097	700,13	800,59	-2,886	
68,90	6,101	699,37	801,12	-2,888	
68,92	6,105	698,85	800,80	-2,890	
68,94	6,109	699,17	800,08	-2,892	
68,96	6,113	699,15	799,98	-2,894	
68,98	6,117	697,85	800,66	-2,896	
69,00	6,121	699,07	800,83	-2,898	
69,02	6,125	701,22	800,27	-2,900	
69,04	6,129	702,31	799,88	-2,902	
69,06	6,133	697,60	800,59	-2,904	
69,08	6,137	695,24	801,15	-2,906	
69,10	6,141	697,00	800,82	-2,908	
69,12	6,145	699,04	800,07	-2,910	
69,14	6,149	698,64	800,09	-2,912	
69,16	6,153	696,11	801,01	-2,914	
69,18	6,157	696,59	801,34	-2,916	
69,20	6,160	697,92	800,84	-2,918	
69,22	6,164	698,89	800,08	-2,920	
69,24	6,168	699,31	799,99	-2,922	
69,26	6,172	698,41	800,91	-2,924	
69,28	6,177	698,26	801,31	-2,926	
69,30	6,181	698,53	800,86	-2,928	
69,32	6,184	699,06	800,09	-2,930	
69,34	6,188	699,41	799,94	-2,932	
69,36	6,193	698,44	800,76	-2,934	
69,38	6,197	698,19	801,13	-2,936	
69,40	6,201	698,48	800,69	-2,938	
69,42	6,205	699,24	799,98	-2,940	
69,44	6,209	698,78	800,10	-2,942	
69,46	6,213	697,55	801,07	-2,944	
69,48	6,217	697,84	801,37	-2,946	
69,50	6,221	697,80	800,85	-2,948	
69,52	6,225	696,95	800,09	-2,950	
69,54	6,229	696,70	800,01	-2,952	
69,56	6,233	695,79	800,88	-2,954	
69,58	6,237	695,26	801,24	-2,956	
69,60	6,240	695,38	800,78	-2,958	
69,62	6,244	697,24	800,02	-2,960	
69,64	6,248	698,04	800,10	-2,962	
69,66	6,252	696,29	801,03	-2,964	
69,68	6,256	695,90	801,31	-2,966	
69,70	6,260	695,79	800,78	-2,968	
69,72	6,264	696,05	800,02	-2,970	
69,74	6,268	695,78	800,14	-2,972	
69,76	6,273	694,86	801,05	-2,974	
69,78	6,277	694,83	801,26	-2,976	
69,80	6,281	695,16	800,68	-2,978	
69,82	6,284	696,08	799,95	-2,980	
69,84	6,289	695,23	800,33	-2,982	
69,86	6,293	694,21	801,20	-2,984	
69,88	6,297	694,72	801,24	-2,986	
69,90	6,301	695,26	800,55	-2,988	
69,92	6,305	696,01	799,93	-2,990	
69,94	6,309	694,20	800,49	-2,992	
69,96	6,313	693,46	801,20	-2,994	
69,98	6,317	694,47	801,02	-2,996	
70,00	6,321	695,40	800,29	-2,998	
70,02	6,325	696,18	799,85	-2,999	
70,04	6,329	694,69	800,65	-3,002	
70,06	6,333	694,31	801,36	-3,003	
70,08	6,337	694,97	801,11	-3,005	
70,10	6,340	695,56	800,35	-3,007	
70,12	6,344	695,64	799,90	-3,009	
70,14	6,348	693,77	800,62	-3,011	
70,16	6,352	693,79	801,19	-3,013	
70,18	6,356	694,76	800,87	-3,015	
70,20	6,360	695,68	800,10	-3,017	
70,22	6,364	693,92	800,14	-3,019	
70,24	6,369	690,66	801,12	-3,021	
70,26	6,373	690,51	801,45	-3,023	
70,28	6,377	691,46	800,91	-3,025	
70,30	6,380	692,50	800,10	-3,027	
70,32	6,384	692,03	800,13	-3,029	
70,34	6,389	690,75	800,97	-3,031	
70,36	6,393	691,01	801,17	-3,033	
70,38	6,397	691,67	800,57	-3,035	
70,40	6,401	692,83	799,93	-3,037	
70,42	6,405	691,21	800,58	-3,039	
70,44	6,409	689,87	801,50	-3,041	
70,46	6,413	690,77	801,43	-3,042	
70,48	6,417	691,73	800,69	-3,044	
70,50	6,421	692,29	799,93	-3,046	
70,52	6,425	691,51	800,23	-3,048	
70,54	6,429	691,10	800,96	-3,050	
70,56	6,432	691,47	800,91	-3,052	
70,58	6,436	691,98	800,23	-3,054	
70,60	6,440	692,26	799,91	-3,056	
70,62	6,444	689,06	800,81	-3,058	
70,64	6,449	688,80	801,45	-3,060	
70,66	6,452	690,70	801,14	-3,062	
70,68	6,456	691,32	800,36	-3,064	
70,70	6,460	690,88	799,90	-3,066	
70,72	6,465	689,60	800,61	-3,068	
70,74	6,469	688,64	801,23	-3,070	
70,76	6,473	688,48	800,94	-3,071	
70,78	6,477	688,98	800,17	-3,073	
70,80	6,480	689,08	800,03	-3,075	
70,82	6,485	687,62	800,90	-3,078	
70,84	6,489	688,16	801,26	-3,080	
70,86	6,493	688,72	800,78	-3,081	
70,88	6,497	689,30	800,03	-3,083	
70,90	6,501	688,56	800,15	-3,085	
70,92	6,505	687,30	800,96	-3,087	
70,94	6,509	687,68	801,07	-3,089	
70,96	6,513	688,58	800,44	-3,091	
70,98	6,517	690,01	799,91	-3,093	
71,00	6,521	687,48	800,67	-3,095	
71,02	6,525	685,99	801,43	-3,097	
71,04	6,529	687,23	801,20	-3,099	
71,06	6,532	688,39	800,42	-3,101	
71,08	6,536	689,37	799,92	-3,103	
71,10	6,540	688,46	800,77	-3,105	
71,12	6,544	687,85	801,58	-3,107	
71,14	6,548	686,86	801,36	-3,109	
71,16	6,552	685,70	800,57	-3,110	
71,18	6,556	686,26	799,91	-3,112	
71,20	6,560	686,72	800,61	-3,115	
71,22	6,565	685,82	801,61	-3,117	
71,24	6,569	685,16	801,60	-3,118	
71,26	6,573	685,03	800,89	-3,120	
71,28	6,577	685,76	800,07	-3,122	
71,30	6,581	686,65	800,23	-3,124	
71,32	6,585	686,32	801,26	-3,126	
71,34	6,589	685,50	801,57	-3,128	
71,36	6,593	685,19	801,04	-3,130	
71,38	6,597	685,39	800,25	-3,132	
71,40	6,601	687,08	799,87	-3,134	
71,42	6,605	687,42	800,55	-3,136	
71,44	6,609	686,25	801,02	-3,138	
71,46	6,613	686,60	800,65	-3,140	
71,48	6,617	688,57	799,97	-3,142	
71,50	6,621	687,49	800,20	-3,144	
71,52	6,625	685,19	801,06	-3,146	
71,54	6,629	686,24	801,16	-3,148	
71,56	6,632	686,70	800,52	-3,149	
71,58	6,636	686,62	799,90	-3,151	
71,60	6,640	684,30	800,53	-3,154	
71,62	6,644	683,40	801,34	-3,155	
71,64	6,648	684,42	801,20	-3,157	
71,66	6,652	685,25	800,44	-3,159	
71,68	6,656	686,00	799,87	-3,161	
71,70	6,660	684,58	800,38	-3,163	
71,72	6,665	684,17	800,91	-3,165	
71,74	6,669	684,81	800,61	-3,167	
71,76	6,672	685,93	799,97	-3,169	
71,78	6,677	683,68	800,35	-3,171	
71,80	6,681	680,22	801,19	-3,173	
71,82	6,685	681,86	801,20	-3,175	
71,84	6,689	684,27	800,53	-3,176	
71,86	6,693	684,79	799,90	-3,178	
71,88	6,697	682,79	800,40	-3,181	
71,90	6,701	681,48	801,11	-3,183	
71,92	6,705	681,51	800,96	-3,185	
71,94	6,708	682,04	800,24	-3,187	
71,96	6,712	682,27	799,97	-3,189	
71,98	6,716	679,55	800,81	-3,191	
72,00	6,720	679,61	801,29	-3,193	
72,02	6,724	681,14	800,89	-3,195	
72,04	6,728	682,38	800,11	-3,196	
72,06	6,732	682,17	800,09	-3,198	
72,08	6,736	680,80	801,12	-3,200	
72,10	6,741	680,85	801,53	-3,202	
72,12	6,745	680,25	801,04	-3,204	
72,14	6,748	679,39	800,25	-3,206	
72,16	6,752	679,94	799,93	-3,208	
72,18	6,757	679,89	800,69	-3,210	
72,20	6,761	679,22	801,16	-3,212	
72,22	6,765	679,91	800,77	-3,213	
72,24	6,769	681,72	800,05	-3,215	
72,26	6,773	681,94	799,97	-3,217	
72,28	6,777	680,84	800,61	-3,219	
72,30	6,781	681,04	800,73	-3,221	
72,32	6,785	682,03	800,18	-3,223	
72,34	6,789	682,93	799,99	-3,225	
72,36	6,793	679,19	800,86	-3,227	
72,38	6,797	678,20	801,34	-3,229	
72,40	6,801	680,28	800,95	-3,231	
72,42	6,805	682,01	800,18	-3,233	
72,44	6,808	682,70	799,99	-3,234	
72,46	6,812	681,74	800,88	-3,236	
72,48	6,816	681,47	801,31	-3,238	
72,50	6,820	681,71	800,87	-3,240	
72,52	6,824	681,79	800,10	-3,242	
72,54	6,828	680,32	800,10	-3,244	
72,56	6,833	678,33	800,98	-3,246	
72,58	6,837	677,96	801,24	-3,248	
72,60	6,841	678,31	800,68	-3,249	
72,62	6,844	679,18	799,95	-3,251	
72,64	6,848	678,48	800,16	-3,253	
72,66	6,853	677,90	800,97	-3,255	
72,68	6,857	679,82	801,04	-3,257	
72,70	6,861	681,52	800,42	-3,259	
72,72	6,865	682,51	799,91	-3,261	
72,74	6,869	679,43	800,71	-3,263	
72,76	6,873	677,24	801,54	-3,265	
72,78	6,877	677,62	801,37	-3,267	
72,80	6,881	678,39	800,60	-3,269	
72,82	6,885	679,43	799,97	-3,270	
72,84	6,889	678,67	800,67	-3,272	
72,86	6,893	677,46	801,53	-3,274	
72,88	6,897	676,18	801,40	-3,276	
72,90	6,901	675,47	800,65	-3,278	
72,92	6,904	676,16	799,94	-3,280	
72,94	6,908	676,65	800,36	-3,282	
72,96	6,912	676,20	801,12	-3,284	
72,98	6,916	675,56	801,06	-3,285	
73,00	6,920	675,90	800,39	-3,287	
73,02	6,924	678,10	799,83	-3,289	
73,04	6,928	677,35	800,49	-3,291	
73,06	6,933	676,75	801,29	-3,293	
73,08	6,937	677,13	801,15	-3,295	
73,10	6,941	676,40	800,42	-3,297	
73,12	6,944	676,37	799,90	-3,298	
73,14	6,949	675,36	800,67	-3,300	
73,16	6,953	674,83	801,47	-3,302	
73,18	6,957	675,06	801,28	-3,304	
73,20	6,961	675,34	800,50	-3,306	
73,22	6,965	676,29	799,90	-3,308	
73,24	6,969	675,50	800,68	-3,310	
73,26	6,973	674,82	801,61	-3,312	
73,28	6,977	675,01	801,53	-3,314	
73,30	6,981	675,24	800,81	-3,315	
73,32	6,985	676,01	800,02	-3,317	
73,34	6,989	676,90	800,08	-3,319	
73,36	6,993	676,37	800,73	-3,321	
73,38	6,997	676,13	800,74	-3,323	
73,40	7,000	677,74	800,13	-3,324	
73,42	7,004	678,07	800,08	-3,326	
73,44	7,008	673,51	801,13	-3,328	
73,46	7,012	672,20	801,59	-3,330	
73,48	7,016	673,91	801,10	-3,332	
73,50	7,020	675,40	800,25	-3,334	
73,52	7,024	676,03	800,03	-3,336	
73,54	7,028	675,06	800,95	-3,338	
73,56	7,033	674,78	801,43	-3,340	
73,58	7,037	675,06	801,00	-3,341	
73,60	7,040	675,64	800,19	-3,343	
73,62	7,044	675,54	800,02	-3,345	
73,64	7,049	674,22	800,96	-3,347	
73,66	7,053	674,42	801,42	-3,349	
73,68	7,057	675,07	800,97	-3,351	
73,70	7,061	675,58	800,18	-3,352	
73,72	7,065	676,08	799,90	-3,354	
73,74	7,069	675,16	800,70	-3,356	
73,76	7,073	674,84	801,18	-3,358	
73,78	7,077	675,06	800,80	-3,360	
73,80	7,081	675,82	800,06	-3,362	
73,82	7,085	674,84	800,20	-3,364	
73,84	7,089	672,57	801,23	-3,366	
73,86	7,093	672,77	801,53	-3,368	
73,88	7,097	672,66	800,95	-3,369	
73,90	7,101	672,67	800,11	-3,371	
73,92	7,104	672,43	800,06	-3,373	
73,94	7,108	671,47	800,88	-3,375	
73,96	7,112	671,45	801,12	-3,377	
73,98	7,116	671,79	800,60	-3,378	
74,00	7,120	672,69	799,93	-3,380	
74,02	7,124	671,33	800,29	-3,382	
74,04	7,129	669,85	801,10	-3,384	
74,06	7,133	670,69	801,09	-3,386	
74,08	7,137	671,73	800,41	-3,388	
74,10	7,140	672,50	799,94	-3,389	
74,12	7,145	670,39	800,71	-3,391	
74,14	7,149	670,06	801,36	-3,393	
74,16	7,153	671,14	801,05	-3,395	
74,18	7,157	672,07	800,25	-3,397	
74,20	7,161	672,37	799,98	-3,399	
74,22	7,165	670,26	800,79	-3,401	
74,24	7,169	670,21	801,22	-3,402	
74,26	7,173	671,34	800,79	-3,404	
74,28	7,177	672,51	800,04	-3,406	
74,30	7,180	671,02	800,13	-3,408	
74,32	7,184	668,51	800,92	-3,410	
74,34	7,188	669,76	801,03	-3,411	
74,36	7,192	671,59	800,40	-3,413	
74,38	7,196	672,69	799,92	-3,415	
74,40	7,200	669,58	800,73	-3,417	
74,42	7,204	667,25	801,51	-3,419	
74,44	7,208	667,57	801,31	-3,420	
74,46	7,212	668,32	800,54	-3,422	
74,48	7,216	669,55	799,90	-3,424	
74,50	7,220	670,24	800,28	-3,426	
74,52	7,225	669,54	800,90	-3,428	
74,54	7,229	670,00	800,76	-3,429	
74,56	7,233	671,62	800,11	-3,431	
74,58	7,236	671,65	800,03	-3,433	
74,60	7,241	667,44	800,94	-3,435	
74,62	7,245	666,43	801,33	-3,437	
74,64	7,249	667,71	800,87	-3,439	
74,66	7,253	668,97	800,10	-3,440	
74,68	7,257	669,33	800,07	-3,442	
74,70	7,261	668,35	801,09	-3,444	
74,72	7,265	668,16	801,52	-3,446	
74,74	7,269	668,48	801,06	-3,448	
74,76	7,273	668,48	800,26	-3,449	
74,78	7,277	668,68	799,94	-3,451	
74,80	7,281	668,18	800,64	-3,453	
74,82	7,285	668,27	801,02	-3,455	
74,84	7,289	668,60	800,59	-3,457	
74,86	7,293	669,36	799,91	-3,459	
74,88	7,296	667,65	800,22	-3,460	
74,90	7,301	665,15	801,23	-3,462	
74,92	7,304	665,85	801,42	-3,464	
74,94	7,308	666,00	800,83	-3,466	
74,96	7,312	665,99	800,03	-3,468	
74,98	7,316	666,69	800,10	-3,470	
75,00	7,321	666,42	801,12	-3,471	
75,02	7,325	665,62	801,46	-3,473	
75,04	7,329	665,25	800,91	-3,475	
75,06	7,333	665,75	800,08	-3,477	
75,08	7,337	665,86	800,14	-3,478	
75,10	7,341	664,94	801,13	-3,480	
75,12	7,345	664,83	801,48	-3,482	
75,14	7,349	665,07	800,93	-3,484	
75,16	7,353	665,81	800,09	-3,485	
75,18	7,357	665,18	800,26	-3,487	
75,20	7,361	662,75	801,43	-3,489	
75,22	7,365	661,70	801,84	-3,491	
75,24	7,369	661,75	801,29	-3,493	
75,26	7,373	662,06	800,39	-3,494	
75,28	7,376	663,63	800,00	-3,496	
75,30	7,380	664,13	800,80	-3,498	
75,32	7,384	663,01	801,32	-3,500	
75,34	7,388	662,07	800,96	-3,502	
75,36	7,392	662,18	800,17	-3,503	
75,38	7,396	662,57	800,02	-3,505	
75,40	7,400	661,63	801,05	-3,507	
75,42	7,404	661,46	801,58	-3,509	
75,44	7,408	661,82	801,15	-3,511	
75,46	7,412	662,08	800,33	-3,512	
75,48	7,416	662,72	799,90	-3,514	
75,50	7,420	662,36	800,67	-3,516	
75,52	7,425	661,87	801,29	-3,518	
75,54	7,429	661,75	800,96	-3,520	
75,56	7,432	662,11	800,19	-3,521	
75,58	7,436	661,86	799,98	-3,523	
75,60	7,441	660,06	800,60	-3,525	
75,62	7,445	660,32	800,78	-3,527	
75,64	7,449	661,51	800,24	-3,528	
75,66	7,453	662,31	799,96	-3,530	
75,68	7,457	658,19	801,06	-3,532	
75,70	7,461	656,24	801,91	-3,534	
75,72	7,465	657,78	801,67	-3,535	
75,74	7,468	658,48	800,92	-3,537	
75,76	7,472	658,04	800,12	-3,539	
75,78	7,476	661,16	799,97	-3,541	
75,80	7,480	661,92	800,77	-3,543	
75,82	7,484	659,94	801,13	-3,544	
75,84	7,488	659,29	800,69	-3,546	
75,86	7,492	661,21	799,97	-3,548	
75,88	7,496	661,27	800,17	-3,550	
75,90	7,500	660,03	801,07	-3,552	
75,92	7,504	660,59	801,25	-3,553	
75,94	7,508	660,35	800,67	-3,555	
75,96	7,512	659,97	799,96	-3,557	
75,98	7,516	659,01	800,29	-3,558	
76,00	7,521	658,07	801,25	-3,560	
76,02	7,525	658,15	801,40	-3,562	
76,04	7,529	658,47	800,79	-3,564	
76,06	7,532	659,29	800,00	-3,565	
76,08	7,536	659,53	800,28	-3,567	
76,10	7,541	658,95	801,37	-3,569	
76,12	7,545	658,51	801,66	-3,571	
76,14	7,549	657,97	801,09	-3,572	
76,16	7,553	656,72	800,27	-3,574	
76,18	7,557	657,68	799,88	-3,576	
76,20	7,561	658,69	800,65	-3,578	
76,22	7,565	658,55	801,26	-3,580	
76,24	7,569	658,46	800,99	-3,581	
76,26	7,572	658,70	800,23	-3,583	
76,28	7,576	659,36	799,92	-3,585	
76,30	7,580	658,41	800,95	-3,587	
76,32	7,584	658,05	801,69	-3,589	
76,34	7,588	658,22	801,38	-3,590	
76,36	7,592	657,31	800,57	-3,592	
76,38	7,596	656,94	799,95	-3,593	
76,40	7,600	657,27	800,56	-3,595	
76,42	7,604	657,28	801,31	-3,597	
76,44	7,608	657,74	801,15	-3,599	
76,46	7,612	658,26	800,41	-3,601	
76,48	7,616	659,11	799,86	-3,602	
76,50	7,620	657,29	800,63	-3,604	
76,52	7,625	655,33	801,48	-3,606	
76,54	7,629	654,81	801,35	-3,608	
76,56	7,633	654,99	800,62	-3,609	
76,58	7,636	656,03	799,91	-3,611	
76,60	7,641	656,03	800,48	-3,613	
76,62	7,645	653,94	801,63	-3,615	
76,64	7,649	652,16	801,83	-3,616	
76,66	7,653	651,66	801,24	-3,618	
76,68	7,656	651,77	800,41	-3,620	
76,70	7,660	654,44	799,89	-3,621	
76,72	7,664	656,31	800,52	-3,624	
76,74	7,668	654,74	801,13	-3,626	
76,76	7,672	654,28	800,85	-3,627	
76,78	7,676	655,39	800,11	-3,629	
76,80	7,680	654,50	800,21	-3,631	
76,82	7,684	651,68	801,12	-3,633	
76,84	7,688	652,54	801,32	-3,634	
76,86	7,692	654,37	800,70	-3,636	
76,88	7,696	655,88	799,96	-3,638	
76,90	7,700	654,53	800,38	-3,639	
76,92	7,705	651,82	801,34	-3,641	
76,94	7,709	651,20	801,38	-3,643	
76,96	7,713	651,53	800,65	-3,644	
76,98	7,716	652,54	799,93	-3,646	
77,00	7,721	651,95	800,39	-3,648	
77,02	7,725	651,15	801,16	-3,650	
77,04	7,729	651,28	801,06	-3,651	
77,06	7,733	651,98	800,30	-3,653	
77,08	7,737	652,26	800,06	-3,654	
77,10	7,741	648,35	801,16	-3,656	
77,12	7,745	646,80	801,86	-3,658	
77,14	7,749	647,64	801,51	-3,660	
77,16	7,753	648,35	800,68	-3,661	
77,18	7,757	649,60	799,93	-3,663	
77,20	7,761	651,63	800,32	-3,665	
77,22	7,765	650,56	801,23	-3,666	
77,24	7,769	648,91	801,31	-3,668	
77,26	7,772	648,34	800,65	-3,670	
77,28	7,776	649,13	799,96	-3,671	
77,30	7,780	648,59	800,45	-3,673	
77,32	7,784	647,94	801,29	-3,675	
77,34	7,788	648,05	801,25	-3,677	
77,36	7,792	648,29	800,56	-3,678	
77,38	7,796	649,21	799,92	-3,680	
77,40	7,800	648,61	800,51	-3,682	
77,42	7,805	647,92	801,38	-3,683	
77,44	7,809	648,06	801,32	-3,685	
77,46	7,813	648,33	800,61	-3,687	
77,48	7,816	649,16	799,91	-3,688	
77,50	7,821	648,65	800,37	-3,690	
77,52	7,825	647,96	801,24	-3,692	
77,54	7,829	648,06	801,24	-3,694	
77,56	7,833	648,30	800,56	-3,695	
77,58	7,837	649,03	799,90	-3,697	
77,60	7,841	647,85	800,33	-3,699	
77,62	7,845	647,24	801,03	-3,700	
77,64	7,848	647,77	800,91	-3,702	
77,66	7,852	648,59	800,20	-3,704	
77,68	7,856	648,78	800,03	-3,705	
77,70	7,860	645,95	800,99	-3,707	
77,72	7,864	645,97	801,49	-3,709	
77,74	7,868	647,50	801,03	-3,710	
77,76	7,872	647,62	800,18	-3,712	
77,78	7,876	646,52	800,15	-3,714	
77,80	7,880	644,87	801,25	-3,715	
77,82	7,884	644,53	801,74	-3,717	
77,84	7,888	644,82	801,25	-3,719	
77,86	7,892	645,04	800,39	-3,720	
77,88	7,896	646,51	799,85	-3,722	
77,90	7,900	647,34	800,62	-3,724	
77,92	7,905	646,30	801,43	-3,725	
77,94	7,909	645,26	801,25	-3,727	
77,96	7,913	645,07	800,48	-3,729	
77,98	7,916	645,77	799,95	-3,730	
78,00	7,921	643,85	800,74	-3,732	
78,02	7,925	641,89	801,54	-3,734	
78,04	7,929	641,48	801,33	-3,735	
78,06	7,933	641,71	800,49	-3,737	
78,08	7,937	642,47	800,01	-3,739	
78,10	7,941	641,58	801,01	-3,741	
78,12	7,945	641,13	801,92	-3,742	
78,14	7,948	641,36	801,77	-3,744	
78,16	7,952	640,48	801,04	-3,745	
78,18	7,956	639,75	800,21	-3,747	
78,20	7,960	643,55	799,98	-3,749	
78,22	7,964	644,96	800,69	-3,751	
78,24	7,968	643,11	800,99	-3,752	
78,26	7,972	642,21	800,50	-3,754	
78,28	7,976	643,57	799,90	-3,755	
78,30	7,980	641,81	800,60	-3,757	
78,32	7,984	639,33	801,64	-3,759	
78,34	7,988	639,98	801,63	-3,761	
78,36	7,992	640,07	800,89	-3,762	
78,38	7,996	639,57	800,06	-3,764	
78,40	8,000	640,99	800,08	-3,765	
78,42	8,005	642,12	801,07	-3,767	
78,44	8,009	641,88	801,42	-3,769	
78,46	8,013	641,50	800,88	-3,770	
78,48	8,016	642,10	800,05	-3,772	
78,50	8,021	641,62	800,24	-3,774	
78,52	8,025	639,89	801,34	-3,775	
78,54	8,029	638,80	801,64	-3,777	
78,56	8,033	638,39	801,06	-3,778	
78,58	8,037	638,49	800,23	-3,780	
78,60	8,041	639,78	799,95	-3,782	
78,62	8,044	639,63	800,83	-3,784	
78,64	8,048	638,66	801,36	-3,785	
78,66	8,052	638,24	800,98	-3,787	
78,68	8,056	638,49	800,20	-3,788	
78,70	8,060	639,00	799,97	-3,790	
78,72	8,064	638,11	800,85	-3,792	
78,74	8,068	637,82	801,36	-3,793	
78,76	8,072	638,07	800,97	-3,795	
78,78	8,076	638,58	800,19	-3,797	
78,80	8,080	639,14	800,01	-3,798	
78,82	8,085	638,15	801,01	-3,800	
78,84	8,089	637,87	801,57	-3,802	
78,86	8,093	638,20	801,14	-3,803	
78,88	8,097	638,64	800,29	-3,805	
78,90	8,100	639,20	799,97	-3,806	
78,92	8,105	638,27	800,80	-3,808	
78,94	8,109	637,96	801,33	-3,810	
78,96	8,113	638,29	800,98	-3,811	
78,98	8,117	638,87	800,21	-3,813	
79,00	8,121	639,27	800,01	-3,814	
79,02	8,125	638,36	800,93	-3,816	
79,04	8,129	638,13	801,42	-3,818	
79,06	8,133	638,33	801,02	-3,820	
79,08	8,137	638,56	800,25	-3,821	
79,10	8,140	639,21	799,89	-3,823	
79,12	8,144	637,83	800,74	-3,824	
79,14	8,148	635,88	801,41	-3,826	
79,16	8,152	635,03	801,14	-3,828	
79,18	8,156	635,09	800,39	-3,829	
79,20	8,160	635,93	799,92	-3,831	
79,22	8,164	635,68	800,66	-3,833	
79,24	8,169	635,26	801,30	-3,834	
79,26	8,173	635,13	801,02	-3,836	
79,28	8,177	635,40	800,24	-3,837	
79,30	8,180	635,80	799,97	-3,839	
79,32	8,185	634,21	800,92	-3,841	
79,34	8,189	633,91	801,53	-3,843	
79,36	8,193	634,54	801,16	-3,844	
79,38	8,197	635,10	800,35	-3,846	
79,40	8,201	635,79	799,98	-3,847	
79,42	8,205	634,91	800,80	-3,849	
79,44	8,209	634,56	801,37	-3,851	
79,46	8,213	634,83	801,05	-3,852	
79,48	8,217	635,19	800,30	-3,854	
79,50	8,221	635,92	799,92	-3,855	
79,52	8,225	634,50	800,84	-3,854	
79,54	8,229	632,53	801,59	-3,854	
79,56	8,233	631,71	801,33	-3,854	
79,58	8,237	631,73	800,54	-3,856	
79,60	8,240	632,76	799,92	-3,857	
79,62	8,244	633,24	800,53	-3,859	
79,64	8,248	632,54	801,21	-3,861	
79,66	8,252	631,87	800,96	-3,862	
79,68	8,256	632,14	800,17	-3,864	
79,70	8,260	631,90	800,10	-3,865	
79,72	8,265	628,81	801,24	-3,867	
79,74	8,269	627,55	801,83	-3,870	
79,76	8,273	627,88	801,47	-3,874	
79,78	8,277	628,26	800,72	-3,877	
79,80	8,280	629,69	799,99	-3,879	
79,82	8,285	633,35	800,05	-3,881	
79,84	8,289	633,85	800,76	-3,883	
79,86	8,293	632,53	800,83	-3,884	
79,88	8,297	632,11	800,22	-3,886	
79,90	8,301	632,91	799,93	-3,887	
79,92	8,305	629,75	800,79	-3,889	
79,94	8,309	628,75	801,34	-3,891	
79,96	8,313	630,41	800,98	-3,892	
79,98	8,317	631,49	800,18	-3,894	
80,00	8,320	630,52	800,08	-3,895	
80,02	8,324	628,44	801,12	-3,897	
80,04	8,328	627,84	801,64	-3,899	
80,06	8,332	628,04	801,21	-3,900	
80,08	8,336	628,41	800,39	-3,902	
80,10	8,340	629,68	799,95	-3,903	
80,12	8,344	629,87	800,72	-3,905	
80,14	8,348	629,00	801,30	-3,907	
80,16	8,352	628,43	800,96	-3,908	
80,18	8,356	628,75	800,17	-3,910	
80,20	8,360	628,62	800,07	-3,911	
80,22	8,365	626,70	801,10	-3,913	
80,24	8,369	626,90	801,56	-3,914	
80,26	8,373	627,99	801,06	-3,916	
80,28	8,377	628,80	800,21	-3,917	
80,30	8,380	629,28	800,00	-3,919	
80,32	8,385	627,76	801,03	-3,921	
80,34	8,389	625,92	801,60	-3,922	
80,36	8,393	625,08	801,18	-3,924	
80,38	8,397	625,15	800,34	-3,925	
80,40	8,401	626,39	799,92	-3,927	
80,42	8,405	626,95	800,79	-3,929	
80,44	8,409	626,58	801,48	-3,930	
80,46	8,413	625,72	801,18	-3,932	
80,48	8,417	625,31	800,37	-3,933	
80,50	8,421	625,93	799,93	-3,935	
80,52	8,425	625,08	800,88	-3,936	
80,54	8,428	624,58	801,69	-3,938	
80,56	8,432	624,71	801,43	-3,940	
80,58	8,436	624,50	800,59	-3,941	
80,60	8,440	624,07	799,97	-3,942	
80,62	8,444	622,82	800,77	-3,944	
80,64	8,448	621,77	801,72	-3,946	
80,66	8,452	621,49	801,62	-3,947	
80,68	8,456	621,57	800,82	-3,949	
80,70	8,460	622,56	800,02	-3,950	
80,72	8,464	623,43	800,35	-3,952	
80,74	8,469	622,55	801,22	-3,954	
80,76	8,473	622,21	801,27	-3,955	
80,78	8,477	623,56	800,60	-3,957	
80,80	8,480	625,46	799,89	-3,958	
80,82	8,485	624,21	800,48	-3,960	
80,84	8,489	622,03	801,55	-3,961	
80,86	8,493	621,40	801,64	-3,963	
80,88	8,497	621,57	800,96	-3,964	
80,90	8,501	622,18	800,10	-3,966	
80,92	8,505	623,20	800,07	-3,967	
80,94	8,509	623,02	801,12	-3,969	
80,96	8,513	622,09	801,59	-3,971	
80,98	8,516	621,65	801,13	-3,972	
81,00	8,520	621,36	800,29	-3,973	
81,02	8,524	621,22	800,03	-3,975	
81,04	8,528	619,98	801,12	-3,977	
81,06	8,532	618,65	801,87	-3,978	
81,08	8,536	618,24	801,57	-3,980	
81,10	8,540	618,27	800,77	-3,981	
81,12	8,544	619,27	799,98	-3,982	
81,14	8,548	621,90	800,32	-3,984	
81,16	8,553	621,35	801,40	-3,986	
81,18	8,557	619,36	801,63	-3,987	
81,20	8,561	618,38	801,01	-3,989	
81,22	8,564	618,65	800,16	-3,990	
81,24	8,568	619,71	800,09	-3,992	
81,26	8,573	620,81	800,99	-3,993	
81,28	8,577	621,48	801,33	-3,995	
81,30	8,581	621,74	800,84	-3,996	
81,32	8,585	622,33	800,08	-3,998	
81,34	8,589	622,03	800,15	-3,999	
81,36	8,593	620,69	801,14	-4,001	
81,38	8,597	620,88	801,48	-4,002	
81,40	8,601	621,51	800,97	-4,004	
81,42	8,605	621,70	800,16	-4,005	
81,44	8,609	621,27	800,05	-4,007	
81,46	8,612	619,99	801,02	-4,009	
81,48	8,616	618,75	801,47	-4,010	
81,50	8,620	618,29	801,00	-4,012	
81,52	8,624	618,61	800,17	-4,013	
81,54	8,628	619,08	800,01	-4,015	
81,56	8,632	618,16	801,03	-4,016	
81,58	8,636	617,89	801,56	-4,018	
81,60	8,640	618,13	801,15	-4,019	
81,62	8,644	618,38	800,35	-4,021	
81,64	8,648	619,45	799,93	-4,022	
81,66	8,653	618,97	800,76	-4,024	
81,68	8,657	618,20	801,45	-4,025	
81,70	8,661	618,15	801,19	-4,027	
81,72	8,665	618,38	800,42	-4,028	
81,74	8,668	619,33	799,89	-4,030	
81,76	8,673	619,16	800,66	-4,031	
81,78	8,677	618,46	801,51	-4,033	
81,80	8,681	617,17	801,36	-4,034	
81,82	8,685	615,74	800,66	-4,036	
81,84	8,689	615,92	799,94	-4,037	
81,86	8,693	617,19	800,15	-4,039	
81,88	8,697	616,80	800,97	-4,040	
81,90	8,701	616,63	801,05	-4,042	
81,92	8,705	617,51	800,40	-4,043	
81,94	8,709	618,71	799,92	-4,044	
81,96	8,713	615,84	800,80	-4,046	
81,98	8,716	613,97	801,64	-4,048	
82,00	8,720	614,36	801,45	-4,049	
82,02	8,724	614,84	800,69	-4,051	
82,04	8,728	614,65	799,93	-4,052	
82,06	8,732	615,80	800,06	-4,054	
82,08	8,736	616,06	800,96	-4,055	
82,10	8,740	615,43	801,20	-4,057	
82,12	8,744	615,05	800,64	-4,058	
82,14	8,748	615,71	799,95	-4,060	
82,16	8,752	614,87	800,49	-4,061	
82,18	8,757	613,68	801,52	-4,063	
82,20	8,761	613,99	801,59	-4,064	
82,22	8,765	613,56	800,88	-4,066	
82,24	8,769	612,90	800,05	-4,067	
82,26	8,773	613,12	800,18	-4,068	
82,28	8,777	612,59	801,18	-4,070	
82,30	8,781	611,83	801,45	-4,072	
82,32	8,785	611,54	800,86	-4,073	
82,34	8,789	612,05	800,04	-4,074	
82,36	8,792	612,64	800,13	-4,076	
82,38	8,796	612,16	801,34	-4,077	
82,40	8,800	611,56	801,89	-4,079	
82,42	8,804	610,40	801,46	-4,080	
82,44	8,808	609,03	800,63	-4,082	
82,46	8,812	610,51	799,89	-4,083	
82,48	8,816	614,16	800,40	-4,085	
82,50	8,820	613,76	801,52	-4,086	
82,52	8,824	612,16	801,69	-4,088	
82,54	8,828	611,55	801,05	-4,089	
82,56	8,832	611,49	800,20	-4,090	
82,58	8,836	612,63	800,02	-4,092	
82,60	8,841	612,81	801,06	-4,094	
82,62	8,845	610,42	801,65	-4,095	
82,64	8,849	608,63	801,27	-4,097	
82,66	8,853	608,25	800,46	-4,098	
82,68	8,856	609,52	799,91	-4,099	
82,70	8,861	610,89	800,60	-4,101	
82,72	8,865	611,51	801,33	-4,102	
82,74	8,869	611,62	801,14	-4,104	
82,76	8,873	611,75	800,39	-4,105	
82,78	8,877	612,48	799,90	-4,107	
82,80	8,881	611,06	800,65	-4,109	
82,82	8,885	610,54	801,35	-4,111	
82,84	8,889	611,16	801,13	-4,112	
82,86	8,893	611,67	800,38	-4,113	
82,88	8,897	611,98	799,92	-4,115	
82,90	8,901	609,66	800,67	-4,116	
82,92	8,905	608,01	801,34	-4,118	
82,94	8,909	607,93	801,07	-4,119	
82,96	8,912	608,35	800,31	-4,120	
82,98	8,916	609,09	799,93	-4,122	
83,00	8,920	608,19	800,85	-4,123	
83,02	8,924	607,77	801,58	-4,125	
83,04	8,928	608,09	801,31	-4,126	
83,06	8,932	608,37	800,53	-4,128	
83,08	8,936	609,31	799,90	-4,129	
83,10	8,940	609,81	800,60	-4,131	
83,12	8,945	609,16	801,56	-4,132	
83,14	8,949	608,48	801,52	-4,134	
83,16	8,953	608,21	800,81	-4,135	
83,18	8,957	607,87	800,02	-4,136	
83,20	8,961	608,06	800,13	-4,138	
83,22	8,965	607,97	801,02	-4,139	
83,24	8,969	608,08	801,21	-4,141	
83,26	8,973	608,29	800,62	-4,142	
83,28	8,977	609,11	799,92	-4,143	
83,30	8,981	607,62	800,41	-4,145	
83,32	8,985	605,35	801,43	-4,146	
83,34	8,988	604,76	801,53	-4,148	
83,36	8,992	604,93	800,88	-4,149	
83,38	8,996	605,57	800,06	-4,151	
83,40	9,000	605,96	800,21	-4,152	
83,42	9,004	605,45	801,36	-4,154	
83,44	9,008	605,01	801,78	-4,155	
83,46	9,012	604,94	801,26	-4,156	
83,48	9,016	605,10	800,43	-4,158	
83,50	9,020	606,75	799,90	-4,159	
83,52	9,024	607,42	800,58	-4,161	
83,54	9,029	606,16	801,29	-4,162	
83,56	9,033	605,16	801,08	-4,163	
83,58	9,036	605,12	800,33	-4,165	
83,60	9,040	605,77	799,93	-4,166	
83,62	9,045	604,21	800,79	-4,168	
83,64	9,049	603,76	801,43	-4,169	
83,66	9,053	604,54	801,12	-4,171	
83,68	9,057	605,28	800,32	-4,172	
83,70	9,061	605,55	799,99	-4,173	
83,72	9,065	603,49	800,93	-4,175	
83,74	9,069	602,38	801,59	-4,176	
83,76	9,073	601,86	801,27	-4,178	
83,78	9,077	601,67	800,49	-4,179	
83,80	9,080	602,62	799,88	-4,180	
83,82	9,084	603,22	800,63	-4,182	
83,84	9,088	602,56	801,63	-4,183	
83,86	9,092	601,88	801,61	-4,185	
83,88	9,096	601,71	800,89	-4,186	
83,90	9,100	602,29	800,06	-4,187	
83,92	9,104	603,32	800,14	-4,189	
83,94	9,108	602,71	801,21	-4,190	
83,96	9,112	601,76	801,59	-4,192	
83,98	9,116	601,51	801,08	-4,193	
84,00	9,120	601,81	800,26	-4,194	
84,02	9,124	603,11	799,95	-4,196	
84,04	9,128	603,03	800,88	-4,197	
84,06	9,133	602,01	801,53	-4,199	
84,08	9,137	601,53	801,20	-4,200	
84,10	9,141	601,61	800,41	-4,201	
84,12	9,144	602,46	799,89	-4,203	
84,14	9,149	601,21	800,84	-4,204	
84,16	9,153	599,20	801,85	-4,206	
84,18	9,157	598,26	801,77	-4,207	
84,20	9,161	598,05	801,03	-4,208	
84,22	9,165	598,14	800,18	-4,210	
84,24	9,169	600,42	799,99	-4,211	
84,26	9,173	601,19	800,94	-4,213	
84,28	9,177	599,53	801,47	-4,214	
84,30	9,181	598,39	801,08	-4,216	
84,32	9,185	598,48	800,26	-4,217	
84,34	9,188	599,44	800,02	-4,218	
84,36	9,192	598,91	801,15	-4,220	
84,38	9,196	598,18	801,90	-4,221	
84,40	9,200	597,06	801,59	-4,222	
84,42	9,204	595,64	800,81	-4,224	
84,44	9,208	596,02	800,02	-4,225	
84,46	9,212	599,59	800,06	-4,227	
84,48	9,216	600,23	800,98	-4,228	
84,50	9,221	598,86	801,26	-4,229	
84,52	9,224	598,18	800,70	-4,231	
84,54	9,228	598,90	799,96	-4,232	
84,56	9,232	598,22	800,35	-4,233	
84,58	9,237	596,89	801,36	-4,235	
84,60	9,241	596,28	801,46	-4,236	
84,62	9,245	595,47	800,79	-4,238	
84,64	9,249	595,61	800,01	-4,239	
84,66	9,253	595,31	800,30	-4,240	
84,68	9,257	594,42	801,37	-4,242	
84,70	9,261	594,42	801,63	-4,243	
84,72	9,265	594,71	801,07	-4,244	
84,74	9,268	595,11	800,23	-4,246	
84,76	9,272	596,61	800,00	-4,247	
84,78	9,276	596,98	801,02	-4,249	
84,80	9,280	595,75	801,63	-4,250	
84,82	9,284	594,94	801,26	-4,251	
84,84	9,288	594,79	800,47	-4,253	
84,86	9,292	595,70	799,92	-4,254	
84,88	9,296	595,62	800,65	-4,255	
84,90	9,300	594,97	801,49	-4,257	
84,92	9,304	594,63	801,36	-4,258	
84,94	9,308	594,68	800,61	-4,259	
84,96	9,312	595,60	799,90	-4,261	
84,98	9,316	595,32	800,48	-4,262	
85,00	9,321	593,12	801,58	-4,264	
85,02	9,325	591,65	801,71	-4,265	
85,04	9,329	591,41	801,06	-4,266	
85,06	9,333	591,89	800,22	-4,268	
85,08	9,336	594,04	799,99	-4,269	
85,10	9,341	594,35	800,88	-4,270	
85,12	9,345	592,62	801,38	-4,272	
85,14	9,349	591,90	800,97	-4,273	
85,16	9,353	593,44	800,16	-4,274	
85,18	9,357	594,70	800,03	-4,276	
85,20	9,361	592,75	801,20	-4,277	
85,22	9,365	591,37	801,86	-4,279	
85,24	9,369	591,19	801,48	-4,280	
85,26	9,373	591,00	800,68	-4,281	
85,28	9,377	590,88	799,96	-4,283	
85,30	9,380	592,68	800,32	-4,284	
85,32	9,384	592,78	801,22	-4,285	
85,34	9,388	591,91	801,29	-4,287	
85,36	9,392	591,52	800,62	-4,288	
85,38	9,396	592,32	799,95	-4,289	
85,40	9,400	590,77	800,74	-4,291	
85,42	9,404	588,50	801,97	-4,292	
85,44	9,408	587,83	802,08	-4,294	
85,46	9,412	588,03	801,39	-4,295	
85,48	9,416	587,87	800,50	-4,296	
85,50	9,420	590,27	799,91	-4,297	
85,52	9,424	592,27	800,72	-4,299	
85,54	9,429	590,34	801,69	-4,300	
85,56	9,433	588,45	801,60	-4,302	
85,58	9,437	587,99	800,84	-4,303	
85,60	9,441	588,82	800,02	-4,304	
85,62	9,445	590,00	800,30	-4,306	
85,64	9,449	589,11	801,50	-4,307	
85,66	9,453	588,18	801,85	-4,308	
85,68	9,457	587,90	801,29	-4,310	
85,70	9,461	587,02	800,43	-4,311	
85,72	9,464	587,72	799,92	-4,312	
85,74	9,468	589,04	800,68	-4,313	
85,76	9,472	588,71	801,43	-4,315	
85,78	9,476	588,26	801,22	-4,316	
85,80	9,480	588,17	800,46	-4,317	
85,82	9,484	588,88	799,91	-4,319	
85,84	9,488	588,07	800,59	-4,320	
85,86	9,492	587,60	801,31	-4,322	
85,88	9,496	587,83	801,10	-4,323	
85,90	9,500	588,26	800,33	-4,324	
85,92	9,504	589,00	799,96	-4,325	
85,94	9,508	587,04	801,06	-4,327	
85,96	9,513	585,12	801,94	-4,328	
85,98	9,517	584,63	801,68	-4,330	
86,00	9,521	584,31	800,85	-4,331	
86,02	9,524	583,74	800,02	-4,332	
86,04	9,528	585,16	800,30	-4,333	
86,06	9,533	585,21	801,34	-4,335	
86,08	9,537	584,23	801,58	-4,336	
86,10	9,541	584,29	801,01	-4,338	
86,12	9,545	584,95	800,20	-4,339	
86,14	9,549	586,09	800,02	-4,340	
86,16	9,553	586,04	800,99	-4,341	
86,18	9,557	585,20	801,52	-4,343	
86,20	9,560	584,79	801,10	-4,344	
86,22	9,564	584,97	800,28	-4,345	
86,24	9,568	585,52	800,01	-4,347	
86,26	9,572	583,54	801,15	-4,348	
86,28	9,576	581,76	801,95	-4,350	
86,30	9,580	581,31	801,69	-4,351	
86,32	9,584	581,36	800,92	-4,352	
86,34	9,588	582,02	800,10	-4,353	
86,36	9,592	585,47	800,07	-4,354	
86,38	9,596	585,57	801,17	-4,356	
86,40	9,600	582,96	801,71	-4,357	
86,42	9,604	581,51	801,28	-4,359	
86,44	9,608	581,35	800,46	-4,360	
86,46	9,612	582,91	799,92	-4,361	
86,48	9,617	583,63	800,66	-4,362	
86,50	9,621	582,47	801,43	-4,364	
86,52	9,625	581,59	801,24	-4,365	
86,54	9,629	581,43	800,48	-4,366	
86,56	9,633	582,32	799,90	-4,368	
86,58	9,637	582,14	800,79	-4,369	
86,60	9,641	581,53	801,85	-4,370	
86,62	9,645	580,92	801,78	-4,372	
86,64	9,649	579,49	801,00	-4,373	
86,66	9,653	578,79	800,15	-4,374	
86,68	9,656	581,65	799,95	-4,375	
86,70	9,660	582,16	800,91	-4,377	
86,72	9,664	579,69	801,44	-4,378	
86,74	9,668	578,10	801,03	-4,379	
86,76	9,672	578,03	800,24	-4,381	
86,78	9,676	579,02	799,94	-4,382	
86,80	9,680	579,28	800,83	-4,383	
86,82	9,684	579,69	801,41	-4,385	
86,84	9,688	580,60	801,03	-4,386	
86,86	9,692	581,45	800,22	-4,387	
86,88	9,696	581,67	800,04	-4,388	
86,90	9,701	579,31	801,09	-4,390	
86,92	9,705	577,83	801,67	-4,391	
86,94	9,709	577,67	801,26	-4,392	
86,96	9,713	577,90	800,44	-4,394	
86,98	9,716	579,10	799,90	-4,395	
87,00	9,721	579,40	800,60	-4,396	
87,02	9,725	578,60	801,32	-4,398	
87,04	9,729	578,01	801,10	-4,399	
87,06	9,733	578,07	800,34	-4,400	
87,08	9,737	578,74	799,92	-4,401	
87,10	9,741	577,82	800,80	-4,403	
87,12	9,745	577,38	801,50	-4,404	
87,14	9,749	577,61	801,19	-4,405	
87,16	9,752	578,03	800,36	-4,406	
87,18	9,756	578,73	800,01	-4,408	
87,20	9,760	576,84	801,06	-4,409	
87,22	9,764	574,99	801,84	-4,410	
87,24	9,768	574,48	801,56	-4,412	
87,26	9,772	574,50	800,77	-4,413	
87,28	9,776	575,38	800,00	-4,414	
87,30	9,780	576,85	800,43	-4,415	
87,32	9,784	576,15	801,52	-4,417	
87,34	9,788	574,90	801,71	-4,418	
87,36	9,792	574,47	801,08	-4,419	
87,38	9,796	574,86	800,22	-4,420	
87,40	9,800	575,92	800,05	-4,421	
87,42	9,805	575,92	801,05	-4,423	
87,44	9,809	575,12	801,57	-4,424	
87,46	9,813	574,71	801,14	-4,425	
87,48	9,817	574,94	800,30	-4,426	
87,50	9,820	575,85	800,03	-4,428	
87,52	9,825	575,37	801,11	-4,429	
87,54	9,829	574,61	801,86	-4,430	
87,56	9,833	573,39	801,57	-4,431	
87,58	9,837	571,95	800,78	-4,433	
87,60	9,841	572,46	800,00	-4,434	
87,62	9,845	575,38	800,30	-4,435	
87,64	9,849	574,89	801,37	-4,436	
87,66	9,853	572,52	801,61	-4,438	
87,68	9,856	571,28	801,01	-4,439	
87,70	9,860	571,52	800,19	-4,440	
87,72	9,864	572,63	800,02	-4,441	
87,74	9,868	573,31	800,92	-4,442	
87,76	9,872	573,45	801,36	-4,444	
87,78	9,876	574,02	800,90	-4,445	
87,80	9,880	575,00	800,08	-4,446	
87,82	9,884	574,47	800,24	-4,448	
87,84	9,888	571,60	801,53	-4,449	
87,86	9,893	570,62	802,08	-4,450	
87,88	9,896	570,57	801,63	-4,451	
87,90	9,900	569,41	800,77	-4,453	
87,92	9,904	570,00	799,98	-4,454	
87,94	9,908	574,07	800,03	-4,455	
87,96	9,913	574,42	800,70	-4,457	
87,98	9,917	573,39	800,75	-4,458	
88,00	9,921	574,09	800,15	-4,459	
88,02	9,925	574,78	800,02	-4,460	
88,04	9,929	570,75	801,27	-4,462	
88,06	9,933	569,09	802,06	-4,463	
88,08	9,936	569,93	801,75	-4,464	
88,10	9,940	569,44	800,94	-4,465	
88,12	9,944	569,45	800,10	-4,467	
88,14	9,948	572,36	800,14	-4,468	
88,16	9,952	571,78	801,17	-4,469	
88,18	9,956	569,23	801,54	-4,470	
88,20	9,960	567,99	801,02	-4,472	
88,22	9,964	568,23	800,18	-4,473	
88,24	9,968	568,86	800,14	-4,474	
88,26	9,972	568,48	801,23	-4,475	
88,28	9,976	568,01	801,71	-4,476	
88,30	9,980	567,53	801,24	-4,477	
88,32	9,984	564,89	800,40	-4,477	
88,34	9,988	560,77	799,90	-4,477	
88,36	9,990	553,91	800,60	-4,478	
88,38	9,991	543,34	801,24	-4,478	
88,40	9,992	530,59	800,95	-4,478	
88,42	9,992	517,85	800,18	-4,478	
88,44	9,992	506,00	800,04	-4,478	
88,46	9,992	493,33	801,16	-4,478	
88,48	9,992	483,07	801,81	-4,478	
88,50	9,992	474,38	801,44	-4,478	
88,52	9,992	465,78	800,60	-4,478	
88,54	9,992	458,49	799,94	-4,478	
88,56	9,992	451,99	800,61	-4,478	
88,58	9,992	443,66	801,56	-4,478	
88,60	9,992	435,47	801,51	-4,478	
88,62	9,992	429,19	800,75	-4,478	
88,64	9,992	424,69	799,97	-4,478	
88,66	9,992	420,05	800,33	-4,478	
88,68	9,992	414,30	801,25	-4,478	
88,70	9,992	408,88	801,33	-4,478	
88,72	9,992	404,18	800,68	-4,478	
88,74	9,992	400,46	799,92	-4,478	
88,76	9,992	395,80	800,34	-4,478	
88,78	9,992	390,09	801,61	-4,478	
88,80	9,992	385,11	801,98	-4,478	
88,82	9,992	381,66	801,43	-4,478	
88,84	9,992	380,17	800,58	-4,478	
88,86	9,992	380,68	799,93	-4,478	
88,88	9,992	380,05	800,52	-4,478	
88,90	9,992	379,47	801,35	-4,478	
88,92	9,992	379,62	801,21	-4,478	
88,94	9,992	379,89	800,46	-4,478	
88,96	9,992	380,75	799,88	-4,478	
88,98	9,992	380,01	800,65	-4,478	
89,00	9,992	379,41	801,56	-4,479	
89,02	9,992	379,54	801,47	-4,479	
89,04	9,992	379,75	800,73	-4,478	
89,06	9,992	380,58	799,98	-4,478	
89,08	9,992	380,22	800,46	-4,479	
89,10	9,992	379,41	801,59	-4,479	
89,12	9,992	379,41	801,78	-4,479	
89,14	9,992	379,72	801,13	-4,479	
89,16	9,992	380,10	800,25	-4,478	
89,18	9,992	380,56	800,01	-4,478	
89,20	9,992	379,57	801,04	-4,479	
89,22	9,992	379,26	801,67	-4,479	
89,24	9,992	379,55	801,29	-4,479	
89,26	9,992	379,85	800,45	-4,479	
89,28	9,992	380,59	799,94	-4,479	
89,30	9,992	372,20	800,75	-4,479	
89,32	9,992	339,36	801,53	-4,479	
89,34	9,992	311,38	801,32	-4,479	
89,36	9,992	300,41	800,55	-4,479	
89,38	9,992	297,72	799,92	-4,479	
89,40	9,992	295,12	800,61	-4,479	
89,42	9,992	292,13	801,52	-4,479	
89,44	9,992	289,54	801,44	-4,479	
89,46	9,992	287,23	800,71	-4,479	
89,48	9,992	285,86	799,95	-4,479	
89,50	9,992	284,64	800,36	-4,479	
89,52	9,992	281,69	801,46	-4,479	
89,54	9,992	278,55	801,64	-4,479	
89,56	9,992	276,12	800,98	-4,479	
89,58	9,992	274,00	800,08	-4,479	
89,60	9,992	273,75	799,20	-4,479	
89,62	9,992	277,97	798,35	-4,479	
89,64	9,992	282,94	797,50	-4,479	
89,66	9,992	286,62	796,65	-4,479	
89,68	9,992	290,45	795,82	-4,479	
89,70	9,992	294,85	794,98	-4,478	
89,72	9,992	299,37	794,13	-4,478	
89,74	9,992	304,65	793,31	-4,478	
89,76	9,992	309,99	792,50	-4,478	
89,78	9,992	314,93	791,68	-4,478	
89,80	9,992	319,52	790,86	-4,478	
89,82	9,992	323,96	790,04	-4,478	
89,84	9,992	327,85	789,22	-4,478	
89,86	9,992	331,26	788,42	-4,478	
89,88	9,992	334,57	787,63	-4,478	
89,90	9,992	338,57	786,86	-4,478	
89,92	9,992	342,74	786,08	-4,478	
89,94	9,992	346,44	785,27	-4,478	
89,96	9,992	350,12	784,46	-4,478	
89,98	9,992	354,19	783,67	-4,478	
90,00	9,992	358,06	782,92	-4,478	
90,02	9,992	361,20	782,18	-4,478	
90,04	9,992	363,71	781,44	-4,478	
90,06	9,992	366,55	780,70	-4,478	
90,08	9,992	369,77	779,93	-4,478	
90,10	9,992	372,51	779,15	-4,478	
90,12	9,992	375,14	778,38	-4,478	
90,14	9,992	377,91	777,61	-4,478	
90,16	9,992	380,43	776,87	-4,478	
90,18	9,992	382,70	776,15	-4,478	
90,20	9,992	385,20	775,42	-4,478	
90,22	9,992	387,99	774,72	-4,478	
90,24	9,992	390,52	774,04	-4,478	
90,26	9,992	392,79	773,36	-4,478	
90,28	9,992	395,03	772,66	-4,478	
90,30	9,992	397,28	771,96	-4,478	
90,32	9,992	399,23	771,26	-4,478	
90,34	9,992	400,90	770,56	-4,478	
90,36	9,992	402,46	769,84	-4,478	
90,38	9,992	404,13	769,12	-4,478	
90,40	9,992	405,88	768,41	-4,478	
90,42	9,992	407,59	767,71	-4,478	
90,44	9,992	409,14	767,02	-4,478	
90,46	9,992	410,24	766,32	-4,478	
90,48	9,992	411,85	765,62	-4,478	
90,50	9,992	413,07	764,93	-4,478	
90,52	9,992	413,81	764,25	-4,478	
90,54	9,992	415,33	763,57	-4,478	
90,56	9,992	416,53	762,89	-4,478	
90,58	9,992	417,20	762,23	-4,478	
90,60	9,992	418,62	761,59	-4,478	
90,62	9,992	419,84	760,97	-4,478	
90,64	9,992	420,25	760,35	-4,479	
90,66	9,992	420,26	759,72	-4,479	
90,68	9,992	420,16	759,06	-4,479	
90,70	9,992	420,12	758,41	-4,479	
90,72	9,992	420,13	757,77	-4,479	
90,74	9,992	420,12	757,16	-4,479	
90,76	9,992	420,09	756,55	-4,479	
90,78	9,992	420,12	755,96	-4,479	
90,80	9,992	420,16	755,38	-4,479	
90,82	9,992	420,22	754,81	-4,479	
90,84	9,992	420,21	754,25	-4,479	
90,86	9,992	419,22	753,67	-4,479	
90,88	9,992	417,70	753,08	-4,479	
90,90	9,992	416,91	752,50	-4,479	
90,92	9,992	416,44	751,91	-4,479	
90,94	9,992	415,04	751,31	-4,479	
90,96	9,992	413,72	750,72	-4,479	
90,98	9,992	412,33	750,14	-4,479	
91,00	9,992	410,86	749,58	-4,479	
91,02	9,992	409,85	749,03	-4,479	
91,04	9,992	408,23	748,49	-4,479	
91,06	9,992	406,97	747,96	-4,479	
91,08	9,992	405,70	747,45	-4,479	
91,10	9,992	404,18	746,94	-4,479	
91,12	9,992	402,54	746,44	-4,479	
91,14	9,992	400,61	745,92	-4,479	
91,16	9,992	398,41	745,39	-4,479	
91,18	9,992	396,11	744,86	-4,479	
91,20	9,992	393,87	744,31	-4,480	
91,22	9,992	391,66	743,76	-4,480	
91,24	9,992	389,39	743,26	-4,480	
91,26	9,992	387,14	742,79	-4,480	
91,28	9,992	384,90	742,33	-4,480	
91,30	9,992	382,66	741,87	-4,480	
91,32	9,992	379,85	741,41	-4,480	
91,34	9,992	377,18	740,94	-4,480	
91,36	9,992	374,53	740,47	-4,480	
91,38	9,992	371,48	740,02	-4,480	
91,40	9,992	368,17	739,59	-4,480	
91,42	9,992	364,79	739,17	-4,481	
91,44	9,992	361,45	738,74	-4,481	
91,46	9,992	358,14	738,31	-4,481	
91,48	9,992	354,80	737,88	-4,481	
91,50	9,992	351,42	737,46	-4,481	
91,52	9,992	348,08	737,07	-4,481	
91,54	9,992	344,95	736,66	-4,481	
91,56	9,992	342,05	736,22	-4,482	
91,58	9,992	338,67	735,80	-4,482	
91,60	9,992	335,70	735,41	-4,482	
91,62	9,992	332,74	735,03	-4,482	
91,64	9,992	329,53	734,67	-4,483	
91,66	9,992	326,21	734,32	-4,483	
91,68	9,992	322,59	733,95	-4,483	
91,70	9,992	318,42	733,57	-4,483	
91,72	9,992	313,95	733,18	-4,483	
91,74	9,992	309,44	732,79	-4,484	
91,76	9,992	304,94	732,40	-4,484	
91,78	9,992	300,95	732,02	-4,484	
91,80	9,992	297,48	731,66	-4,485	
91,82	9,992	294,19	731,30	-4,485	
91,84	9,992	290,85	730,94	-4,485	
91,86	9,992	287,49	730,57	-4,485	
91,88	9,992	284,15	730,20	-4,486	
91,90	9,992	280,77	729,80	-4,486	
91,92	9,992	277,37	729,43	-4,486	
91,94	9,992	274,03	729,07	-4,486	
91,96	9,992	270,73	728,73	-4,487	
91,98	9,992	267,36	728,38	-4,487	
92,00	9,992	263,97	728,04	-4,487	
92,02	9,992	260,60	727,69	-4,488	
92,04	9,992	257,27	727,33	-4,488	
92,06	9,992	253,92	726,98	-4,488	
92,08	9,992	250,56	726,63	-4,488	
92,10	9,992	247,45	726,29	-4,489	
92,12	9,992	244,89	725,95	-4,489	
92,14	9,992	242,04	725,63	-4,489	
92,16	9,992	238,85	725,31	-4,490	
92,18	9,992	236,12	724,99	-4,490	
92,20	9,992	233,45	724,64	-4,490	
92,22	9,992	230,64	724,28	-4,491	
92,24	9,992	228,09	723,94	-4,491	
92,26	9,992	225,27	723,59	-4,491	
92,28	9,992	222,69	723,26	-4,491	
92,30	9,992	220,33	722,91	-4,492	
92,32	9,992	217,97	722,56	-4,492	
92,34	9,992	215,13	722,21	-4,492	
92,36	9,992	212,55	721,85	-4,493	
92,38	9,992	210,19	721,49	-4,493	
92,40	9,992	207,92	721,17	-4,493	
92,42	9,992	205,76	720,84	-4,493	
92,44	9,992	203,48	720,52	-4,494	
92,46	9,992	201,20	720,19	-4,494	
92,48	9,992	199,32	719,85	-4,494	
92,50	9,992	198,17	719,50	-4,495	
92,52	9,992	196,65	719,14	-4,495	
92,54	9,992	195,09	718,78	-4,495	
92,56	9,992	193,20	718,42	-4,495	
92,58	9,992	191,68	718,07	-4,496	
92,60	9,992	189,92	717,71	-4,496	
92,62	9,992	188,63	717,34	-4,496	
92,64	9,992	187,36	717,00	-4,496	
92,66	9,992	185,87	716,69	-4,497	
92,68	9,992	185,07	716,38	-4,497	
92,70	9,992	183,99	716,04	-4,497	
92,72	9,992	182,47	715,68	-4,497	
92,74	9,992	181,67	715,31	-4,498	
92,76	9,992	181,50	714,94	-4,498	
92,78	9,992	181,21	714,56	-4,498	
92,80	9,992	179,80	714,18	-4,498	
92,82	9,992	178,55	713,79	-4,498	
92,84	9,992	178,14	713,41	-4,499	
92,86	9,992	178,15	713,05	-4,499	
92,88	9,992	178,24	712,70	-4,499	
92,90	9,992	178,23	712,35	-4,499	
92,92	9,992	177,34	711,99	-4,499	
92,94	9,992	175,83	711,64	-4,499	
92,96	9,992	175,08	711,29	-4,500	
92,98	9,992	175,01	710,94	-4,500	
93,00	9,992	175,04	710,58	-4,500	
93,02	9,992	175,03	710,22	-4,500	
93,04	9,992	175,03	709,87	-4,500	
93,06	9,992	175,00	709,52	-4,501	
93,08	9,992	174,95	709,16	-4,501	
93,10	9,992	174,97	708,79	-4,501	
93,12	9,992	175,04	708,43	-4,501	
93,14	9,992	175,10	708,07	-4,501	
93,16	9,992	175,11	707,69	-4,501	
93,18	9,992	175,01	707,32	-4,502	
93,20	9,992	174,89	706,95	-4,502	
93,22	9,992	174,88	706,56	-4,502	
93,24	9,992	175,02	706,16	-4,502	
93,26	9,992	176,02	705,75	-4,502	
93,28	9,992	177,55	705,37	-4,502	
93,30	9,992	178,35	704,98	-4,503	
93,32	9,992	178,49	704,60	-4,503	
93,34	9,992	178,57	704,23	-4,503	
93,36	9,992	178,52	703,85	-4,503	
93,38	9,992	178,49	703,48	-4,503	
93,40	9,992	178,75	703,11	-4,503	
93,42	9,992	180,13	702,75	-4,504	
93,44	9,992	181,37	702,38	-4,504	
93,46	9,992	181,74	702,01	-4,504	
93,48	9,992	181,73	701,64	-4,504	
93,50	9,992	181,98	701,25	-4,504	
93,52	9,992	183,34	700,83	-4,504	
93,54	9,992	184,59	700,41	-4,504	
93,56	9,992	185,00	699,99	-4,504	
93,58	9,992	185,08	699,58	-4,505	
93,60	9,992	185,94	699,18	-4,505	
93,62	9,992	187,42	698,82	-4,505	
93,64	9,992	188,22	698,47	-4,505	
93,66	9,992	188,39	698,09	-4,505	
93,68	9,992	189,24	697,69	-4,505	
93,70	9,992	190,78	697,27	-4,505	
93,72	9,992	191,60	696,88	-4,506	
93,74	9,992	191,79	696,51	-4,506	
93,76	9,992	192,62	696,14	-4,506	
93,78	9,992	194,12	695,75	-4,506	
93,80	9,992	194,96	695,34	-4,506	
93,82	9,992	195,36	694,93	-4,506	
93,84	9,992	196,73	694,54	-4,506	
93,86	9,992	198,01	694,16	-4,507	
93,88	9,992	198,71	693,79	-4,507	
93,90	9,992	200,05	693,39	-4,507	
93,92	9,992	201,23	692,98	-4,507	
93,94	9,992	202,58	692,58	-4,507	
93,96	9,992	204,11	692,20	-4,507	
93,98	9,992	204,89	691,81	-4,508	
94,00	9,992	205,95	691,41	-4,508	
94,02	9,992	207,48	691,01	-4,508	
94,04	9,992	208,28	690,62	-4,508	
94,06	9,992	209,27	690,21	-4,508	
94,08	9,992	210,77	689,81	-4,508	
94,10	9,992	211,63	689,41	-4,508	
94,12	9,992	212,70	689,02	-4,508	
94,14	9,992	214,25	688,60	-4,509	
94,16	9,992	215,91	688,18	-4,509	
94,18	9,992	217,56	687,76	-4,509	