Zeit  1 - Standardmessrate [s]	ZwickWeg [mm]	ZwickKraft [N]	Pyrometer [°C]	Maytec [mm]
0	-0,4961	162,40	150,11	0,02115	
0,02000	-0,4961	162,44	150,11	0,02108	
0,04000	-0,4962	162,46	150,11	0,02113	
0,06000	-0,4961	162,41	150,10	0,02125	
0,08000	-0,4961	162,34	150,10	0,02139	
0,1000	-0,4961	162,32	150,11	0,02137	
0,1200	-0,4961	162,36	150,11	0,02120	
0,1400	-0,4961	162,39	150,11	0,02114	
0,1600	-0,4961	162,39	150,11	0,02113	
0,1800	-0,4961	162,35	150,11	0,02112	
0,2000	-0,4961	162,38	150,11	0,02122	
0,2200	-0,4961	162,43	150,11	0,02140	
0,2400	-0,4961	162,43	150,11	0,02145	
0,2600	-0,4961	162,42	150,11	0,02134	
0,2800	-0,4961	162,36	150,11	0,02123	
0,3000	-0,4961	162,34	150,11	0,02118	
0,3200	-0,4961	162,36	150,11	0,02121	
0,3400	-0,4961	162,41	150,11	0,02126	
0,3600	-0,4961	162,43	150,11	0,02135	
0,3800	-0,4961	162,44	150,11	0,02138	
0,4000	-0,4962	162,44	150,12	0,02134	
0,4200	-0,4961	162,47	150,11	0,02123	
0,4400	-0,4961	162,47	150,11	0,02118	
0,4600	-0,4961	162,43	150,10	0,02119	
0,4800	-0,4961	162,43	150,11	0,02118	
0,5000	-0,4961	162,43	150,11	0,02126	
0,5200	-0,4961	162,45	150,11	0,02131	
0,5400	-0,4961	162,42	150,11	0,02130	
0,5600	-0,4961	162,41	150,11	0,02120	
0,5800	-0,4961	162,52	150,11	0,02112	
0,6000	-0,4961	162,55	150,11	0,02117	
0,6200	-0,4961	162,47	150,11	0,02126	
0,6400	-0,4961	162,38	150,11	0,02136	
0,6600	-0,4961	162,35	150,11	0,02142	
0,6800	-0,4961	162,34	150,11	0,02141	
0,7000	-0,4961	162,36	150,11	0,02134	
0,7200	-0,4961	162,38	150,11	0,02122	
0,7400	-0,4961	162,36	150,10	0,02113	
0,7600	-0,4961	162,35	150,10	0,02115	
0,7800	-0,4961	162,34	150,11	0,02127	
0,8000	-0,4961	162,31	150,11	0,02140	
0,8200	-0,4961	162,35	150,11	0,02147	
0,8400	-0,4961	162,44	150,11	0,02144	
0,8600	-0,4961	162,50	150,11	0,02133	
0,8800	-0,4961	162,45	150,10	0,02120	
0,9000	-0,4961	162,40	150,10	0,02115	
0,9200	-0,4961	162,38	150,11	0,02115	
0,9400	-0,4961	162,38	150,11	0,02124	
0,9600	-0,4961	162,37	150,11	0,02137	
0,9800	-0,4961	162,37	150,11	0,02147	
1,000	-0,4961	162,32	150,11	0,02140	
1,020	-0,4961	162,29	150,11	0,02126	
1,040	-0,4961	162,32	150,11	0,02124	
1,060	-0,4961	162,38	150,11	0,02126	
1,080	-0,4961	162,42	150,11	0,02131	
1,100	-0,4961	162,39	150,12	0,02140	
1,120	-0,4962	162,32	150,11	0,02143	
1,140	-0,4962	162,31	150,11	0,02137	
1,160	-0,4962	162,31	150,11	0,02126	
1,180	-0,4962	162,29	150,11	0,02119	
1,200	-0,4961	162,30	150,11	0,02121	
1,220	-0,4961	162,32	150,11	0,02126	
1,240	-0,4962	162,33	150,11	0,02131	
1,260	-0,4962	162,36	150,11	0,02133	
1,280	-0,4961	162,44	150,11	0,02127	
1,300	-0,4961	162,44	150,11	0,02124	
1,320	-0,4961	162,41	150,11	0,02120	
1,340	-0,4961	162,37	150,11	0,02120	
1,360	-0,4961	162,34	150,11	0,02123	
1,380	-0,4961	162,29	150,11	0,02133	
1,400	-0,4962	162,27	150,11	0,02139	
1,420	-0,4962	162,31	150,11	0,02136	
1,440	-0,4961	162,40	150,11	0,02127	
1,460	-0,4961	162,48	150,12	0,02113	
1,480	-0,4961	162,43	150,12	0,02110	
1,500	-0,4961	162,43	150,11	0,02127	
1,520	-0,4961	162,52	150,11	0,02143	
1,540	-0,4961	162,58	150,11	0,02150	
1,560	-0,4961	162,53	150,11	0,02150	
1,580	-0,4961	162,47	150,11	0,02132	
1,600	-0,4961	162,45	150,12	0,02115	
1,620	-0,4961	162,42	150,11	0,02112	
1,640	-0,4961	162,40	150,11	0,02115	
1,660	-0,4961	162,41	150,11	0,02128	
1,680	-0,4962	162,40	150,11	0,02138	
1,700	-0,4961	162,43	150,11	0,02142	
1,720	-0,4961	162,49	150,12	0,02141	
1,740	-0,4961	162,50	150,11	0,02127	
1,760	-0,4961	162,48	150,11	0,02112	
1,780	-0,4961	162,48	150,11	0,02111	
1,800	-0,4961	162,48	150,11	0,02125	
1,820	-0,4961	162,50	150,11	0,02140	
1,840	-0,4961	162,53	150,12	0,02146	
1,860	-0,4961	162,47	150,11	0,02135	
1,880	-0,4961	162,41	150,11	0,02120	
1,900	-0,4961	162,48	150,11	0,02118	
1,920	-0,4961	162,54	150,11	0,02125	
1,940	-0,4961	162,54	150,11	0,02139	
1,960	-0,4961	162,48	150,12	0,02149	
1,980	-0,4961	162,42	150,12	0,02145	
2,000	-0,4961	162,37	150,11	0,02137	
2,020	-0,4961	162,38	150,11	0,02127	
2,040	-0,4961	162,44	150,11	0,02119	
2,060	-0,4961	162,51	150,11	0,02113	
2,080	-0,4961	162,50	150,11	0,02115	
2,100	-0,4961	162,48	150,11	0,02125	
2,120	-0,4961	162,50	150,11	0,02139	
2,140	-0,4961	162,46	150,11	0,02144	
2,160	-0,4961	162,45	150,11	0,02131	
2,180	-0,4961	162,47	150,12	0,02115	
2,200	-0,4961	162,45	150,12	0,02111	
2,220	-0,4961	162,41	150,11	0,02116	
2,240	-0,4961	162,39	150,11	0,02128	
2,260	-0,4961	162,34	150,11	0,02139	
2,280	-0,4961	162,26	150,11	0,02146	
2,300	-0,4961	162,22	150,12	0,02143	
2,320	-0,4961	162,26	150,12	0,02125	
2,340	-0,4961	162,35	150,11	0,02111	
2,360	-0,4961	162,43	150,11	0,02114	
2,380	-0,4961	162,46	150,10	0,02128	
2,400	-0,4961	162,49	150,11	0,02136	
2,420	-0,4961	162,50	150,11	0,02140	
2,440	-0,4961	162,48	150,12	0,02139	
2,460	-0,4961	162,48	150,11	0,02131	
2,480	-0,4961	162,50	150,11	0,02122	
2,500	-0,4961	162,47	150,11	0,02122	
2,520	-0,4961	162,41	150,11	0,02126	
2,540	-0,4961	162,38	150,11	0,02130	
2,560	-0,4961	162,40	150,11	0,02133	
2,580	-0,4961	162,42	150,12	0,02134	
2,600	-0,4961	162,49	150,11	0,02129	
2,620	-0,4961	162,53	150,11	0,02126	
2,640	-0,4961	162,48	150,10	0,02127	
2,660	-0,4961	162,43	150,11	0,02132	
2,680	-0,4961	162,41	150,11	0,02141	
2,700	-0,4961	162,46	150,11	0,02147	
2,720	-0,4961	162,48	150,11	0,02143	
2,740	-0,4961	162,51	150,11	0,02119	
2,760	-0,4961	162,52	150,10	0,02103	
2,780	-0,4961	162,50	150,10	0,02103	
2,800	-0,4961	162,50	150,10	0,02115	
2,820	-0,4961	162,48	150,11	0,02136	
2,840	-0,4961	162,48	150,11	0,02150	
2,860	-0,4961	162,45	150,11	0,02151	
2,880	-0,4961	162,45	150,11	0,02143	
2,900	-0,4961	162,48	150,11	0,02130	
2,920	-0,4961	162,49	150,11	0,02117	
2,940	-0,4961	162,44	150,11	0,02120	
2,960	-0,4961	162,42	150,11	0,02128	
2,980	-0,4961	162,40	150,11	0,02135	
3,000	-0,4961	162,38	150,12	0,02142	
3,020	-0,4961	162,39	150,11	0,02141	
3,040	-0,4961	162,46	150,11	0,02126	
3,060	-0,4961	162,50	150,11	0,02110	
3,080	-0,4961	162,49	150,11	0,02113	
3,100	-0,4961	162,51	150,11	0,02130	
3,120	-0,4962	162,53	150,12	0,02143	
3,140	-0,4961	162,51	150,11	0,02141	
3,160	-0,4961	162,46	150,11	0,02127	
3,180	-0,4961	162,43	150,11	0,02115	
3,200	-0,4961	162,47	150,11	0,02110	
3,220	-0,4961	162,49	150,11	0,02110	
3,240	-0,4961	162,46	150,11	0,02112	
3,260	-0,4962	162,42	150,11	0,02122	
3,280	-0,4965	162,48	150,11	0,02130	
3,300	-0,4967	162,53	150,11	0,02127	
3,320	-0,4968	162,47	150,10	0,02114	
3,340	-0,4968	162,42	150,11	0,02108	
3,360	-0,4968	162,39	150,11	0,02109	
3,380	-0,4968	162,40	150,12	0,02118	
3,400	-0,4968	162,38	150,11	0,02136	
3,420	-0,4968	162,36	150,11	0,02148	
3,440	-0,4968	162,34	150,11	0,02143	
3,460	-0,4968	162,36	150,11	0,02130	
3,480	-0,4968	162,40	150,11	0,02120	
3,500	-0,4968	162,37	150,12	0,02118	
3,520	-0,4968	162,33	150,11	0,02125	
3,540	-0,4968	162,35	150,11	0,02133	
3,560	-0,4968	162,38	150,11	0,02135	
3,580	-0,4968	162,35	150,11	0,02135	
3,600	-0,4968	162,34	150,11	0,02125	
3,620	-0,4968	162,41	150,11	0,02118	
3,640	-0,4968	162,47	150,11	0,02114	
3,660	-0,4968	162,45	150,11	0,02118	
3,680	-0,4968	162,50	150,11	0,02129	
3,700	-0,4968	162,55	150,11	0,02137	
3,720	-0,4968	162,57	150,11	0,02136	
3,740	-0,4968	162,54	150,11	0,02128	
3,760	-0,4968	162,50	150,12	0,02120	
3,780	-0,4968	162,49	150,12	0,02117	
3,800	-0,4968	162,45	150,11	0,02118	
3,820	-0,4968	162,45	150,11	0,02122	
3,840	-0,4968	162,51	150,11	0,02121	
3,860	-0,4968	162,53	150,11	0,02124	
3,880	-0,4968	162,58	150,11	0,02125	
3,900	-0,4968	162,52	150,11	0,02117	
3,920	-0,4968	162,38	150,11	0,02116	
3,940	-0,4968	162,40	150,11	0,02121	
3,960	-0,4968	162,53	150,11	0,02128	
3,980	-0,4968	162,57	150,11	0,02136	
4,000	-0,4968	162,56	150,10	0,02138	
4,020	-0,4966	162,53	150,11	0,02137	
4,040	-0,4963	162,50	150,12	0,02134	
4,060	-0,4962	162,50	150,11	0,02129	
4,080	-0,4961	162,53	150,11	0,02124	
4,100	-0,4961	162,56	150,11	0,02122	
4,120	-0,4961	162,59	150,11	0,02128	
4,140	-0,4961	162,57	150,11	0,02140	
4,160	-0,4961	162,49	150,12	0,02139	
4,180	-0,4961	162,45	150,12	0,02123	
4,200	-0,4961	162,47	150,11	0,02113	
4,220	-0,4961	162,47	150,11	0,02116	
4,240	-0,4961	162,51	150,11	0,02122	
4,260	-0,4961	162,51	150,11	0,02133	
4,280	-0,4961	162,50	150,11	0,02136	
4,300	-0,4961	162,49	150,12	0,02131	
4,320	-0,4961	162,47	150,11	0,02129	
4,340	-0,4961	162,44	150,11	0,02124	
4,360	-0,4961	162,45	150,11	0,02118	
4,380	-0,4961	162,50	150,11	0,02119	
4,400	-0,4961	162,54	150,11	0,02124	
4,420	-0,4961	162,50	150,12	0,02136	
4,440	-0,4961	162,47	150,11	0,02139	
4,460	-0,4961	162,45	150,11	0,02129	
4,480	-0,4961	162,40	150,11	0,02115	
4,500	-0,4961	162,40	150,10	0,02114	
4,520	-0,4961	162,42	150,11	0,02120	
4,540	-0,4961	162,45	150,11	0,02129	
4,560	-0,4963	162,47	150,12	0,02135	
4,580	-0,4966	162,44	150,11	0,02134	
4,600	-0,4968	162,40	150,11	0,02129	
4,620	-0,4968	162,41	150,10	0,02121	
4,640	-0,4968	162,42	150,10	0,02120	
4,660	-0,4968	162,45	150,11	0,02120	
4,680	-0,4967	162,50	150,11	0,02129	
4,700	-0,4964	162,45	150,12	0,02135	
4,720	-0,4962	162,35	150,11	0,02133	
4,740	-0,4961	162,36	150,11	0,02123	
4,760	-0,4961	162,42	150,11	0,02116	
4,780	-0,4961	162,45	150,11	0,02118	
4,800	-0,4961	162,42	150,12	0,02120	
4,820	-0,4961	162,39	150,12	0,02126	
4,840	-0,4961	162,36	150,11	0,02135	
4,860	-0,4961	162,39	150,11	0,02140	
4,880	-0,4961	162,47	150,11	0,02142	
4,900	-0,4961	162,49	150,11	0,02131	
4,920	-0,4961	162,46	150,12	0,02121	
4,940	-0,4961	162,48	150,12	0,02129	
4,960	-0,4963	162,46	150,11	0,02140	
4,980	-0,4966	162,39	150,11	0,02142	
5,000	-0,4968	162,37	150,11	0,02142	
5,020	-0,4968	162,37	150,11	0,02138	
5,040	-0,4968	162,38	150,11	0,02130	
5,060	-0,4968	162,37	150,12	0,02122	
5,080	-0,4968	162,37	150,11	0,02119	
5,100	-0,4968	162,44	150,11	0,02118	
5,120	-0,4968	162,49	150,11	0,02125	
5,140	-0,4968	162,47	150,11	0,02134	
5,160	-0,4968	162,41	150,12	0,02143	
5,180	-0,4968	162,39	150,12	0,02138	
5,200	-0,4968	162,32	150,11	0,02123	
5,220	-0,4968	162,32	150,11	0,02114	
5,240	-0,4968	162,42	150,11	0,02117	
5,260	-0,4968	162,45	150,11	0,02131	
5,280	-0,4968	162,46	150,12	0,02138	
5,300	-0,4968	162,48	150,12	0,02133	
5,320	-0,4968	162,51	150,12	0,02122	
5,340	-0,4968	162,50	150,11	0,02113	
5,360	-0,4968	162,50	150,11	0,02104	
5,380	-0,4968	162,54	150,11	0,02105	
5,400	-0,4968	162,59	150,12	0,02122	
5,420	-0,4968	162,54	150,11	0,02139	
5,440	-0,4968	162,51	150,11	0,02140	
5,460	-0,4968	162,55	150,11	0,02125	
5,480	-0,4968	162,48	150,11	0,02109	
5,500	-0,4968	162,46	150,12	0,02103	
5,520	-0,4968	162,45	150,12	0,02108	
5,540	-0,4968	162,41	150,12	0,02123	
5,560	-0,4968	162,40	150,11	0,02135	
5,580	-0,4968	162,44	150,11	0,02135	
5,600	-0,4968	162,42	150,11	0,02127	
5,620	-0,4968	162,41	150,12	0,02120	
5,640	-0,4968	162,51	150,12	0,02119	
5,660	-0,4968	162,53	150,12	0,02121	
5,680	-0,4968	162,49	150,11	0,02129	
5,700	-0,4968	162,43	150,11	0,02141	
5,720	-0,4968	162,39	150,11	0,02143	
5,740	-0,4968	162,38	150,12	0,02134	
5,760	-0,4968	162,44	150,12	0,02118	
5,780	-0,4968	162,48	150,11	0,02110	
5,800	-0,4968	162,47	150,11	0,02112	
5,820	-0,4968	162,48	150,11	0,02119	
5,840	-0,4968	162,49	150,11	0,02126	
5,860	-0,4968	162,47	150,12	0,02136	
5,880	-0,4968	162,45	150,12	0,02141	
5,900	-0,4968	162,54	150,11	0,02128	
5,920	-0,4968	162,54	150,11	0,02116	
5,940	-0,4968	162,54	150,11	0,02113	
5,960	-0,4968	162,57	150,11	0,02124	
5,980	-0,4968	162,53	150,12	0,02135	
6,000	-0,4968	162,46	150,11	0,02137	
6,020	-0,4968	162,43	150,11	0,02136	
6,040	-0,4968	162,49	150,10	0,02130	
6,060	-0,4968	162,53	150,10	0,02120	
6,080	-0,4968	162,54	150,11	0,02120	
6,100	-0,4968	162,55	150,11	0,02125	
6,120	-0,4968	162,56	150,11	0,02130	
6,140	-0,4968	162,51	150,11	0,02137	
6,160	-0,4968	162,48	150,11	0,02133	
6,180	-0,4969	162,84	150,12	0,02124	
6,200	-0,4973	164,68	150,21	0,02067	
6,220	-0,4967	136,43	150,08	0,01994	
6,240	-0,4965	89,37	150,05	0,02006	
6,260	-0,4967	44,85	150,09	0,02046	
6,280	-0,4961	7,014	150,11	0,02068	
6,300	-0,4928	-19,27	150,11	0,02071	
6,320	-0,4868	-11,12	150,11	0,02073	
6,340	-0,4806	27,40	150,11	0,02072	
6,360	-0,4757	71,07	150,11	0,02074	
6,380	-0,4723	110,45	150,12	0,02071	
6,400	-0,4703	140,12	150,11	0,02071	
6,420	-0,4695	158,43	150,11	0,02084	
6,440	-0,4693	167,72	150,11	0,02089	
6,460	-0,4693	171,52	150,11	0,02086	
6,480	-0,4695	172,54	150,11	0,02080	
6,500	-0,4698	172,57	150,12	0,02084	
6,520	-0,4699	171,65	150,12	0,02098	
6,540	-0,4701	170,23	150,11	0,02107	
6,560	-0,4704	169,47	150,11	0,02114	
6,580	-0,4706	169,24	150,11	0,02111	
6,600	-0,4708	169,13	150,11	0,02096	
6,620	-0,4711	168,23	150,12	0,02083	
6,640	-0,4713	166,79	150,12	0,02078	
6,660	-0,4713	165,99	150,11	0,02083	
6,680	-0,4714	165,80	150,11	0,02095	
6,700	-0,4716	165,46	150,11	0,02108	
6,720	-0,4719	164,06	150,11	0,02109	
6,740	-0,4720	162,87	150,12	0,02103	
6,760	-0,4720	162,40	150,12	0,02091	
6,780	-0,4720	162,40	150,11	0,02084	
6,800	-0,4719	162,39	150,10	0,02086	
6,820	-0,4719	162,44	150,10	0,02098	
6,840	-0,4720	162,51	150,11	0,02113	
6,860	-0,4720	162,52	150,11	0,02114	
6,880	-0,4720	162,57	150,12	0,02105	
6,900	-0,4720	162,54	150,12	0,02093	
6,920	-0,4720	162,52	150,11	0,02081	
6,940	-0,4719	162,49	150,11	0,02088	
6,960	-0,4720	162,48	150,11	0,02106	
6,980	-0,4720	162,51	150,11	0,02119	
7,000	-0,4722	162,42	150,11	0,02118	
7,020	-0,4724	162,42	150,12	0,02111	
7,040	-0,4726	162,51	150,11	0,02098	
7,060	-0,4726	162,48	150,11	0,02092	
7,080	-0,4726	162,49	150,11	0,02100	
7,100	-0,4726	162,44	150,11	0,02102	
7,120	-0,4726	162,45	150,11	0,02109	
7,140	-0,4726	162,53	150,12	0,02121	
7,160	-0,4726	162,56	150,11	0,02124	
7,180	-0,4726	162,56	150,11	0,02112	
7,200	-0,4726	162,55	150,11	0,02095	
7,220	-0,4726	162,52	150,11	0,02097	
7,240	-0,4726	162,52	150,11	0,02108	
7,260	-0,4726	162,51	150,12	0,02119	
7,280	-0,4726	162,44	150,11	0,02122	
7,300	-0,4726	162,46	150,11	0,02119	
7,320	-0,4726	162,54	150,11	0,02105	
7,340	-0,4726	162,51	150,11	0,02093	
7,360	-0,4726	162,48	150,11	0,02095	
7,380	-0,4727	162,58	150,12	0,02104	
7,400	-0,4726	162,63	150,11	0,02114	
7,420	-0,4726	162,59	150,11	0,02126	
7,440	-0,4727	162,60	150,11	0,02130	
7,460	-0,4729	162,51	150,11	0,02115	
7,480	-0,4732	162,49	150,11	0,02089	
7,500	-0,4733	162,52	150,12	0,02077	
7,520	-0,4733	162,48	150,11	0,02088	
7,540	-0,4733	162,44	150,11	0,02104	
7,560	-0,4733	162,46	150,11	0,02121	
7,580	-0,4733	162,43	150,11	0,02127	
7,600	-0,4732	162,47	150,11	0,02117	
7,620	-0,4732	162,52	150,11	0,02103	
7,640	-0,4733	162,51	150,11	0,02098	
7,660	-0,4733	162,57	150,11	0,02099	
7,680	-0,4733	162,62	150,11	0,02109	
7,700	-0,4733	162,51	150,10	0,02122	
7,720	-0,4733	162,44	150,10	0,02128	
7,740	-0,4733	162,50	150,11	0,02115	
7,760	-0,4733	162,53	150,11	0,02095	
7,780	-0,4733	162,49	150,11	0,02093	
7,800	-0,4733	162,51	150,11	0,02103	
7,820	-0,4733	162,53	150,11	0,02111	
7,840	-0,4733	162,59	150,10	0,02119	
7,860	-0,4733	162,68	150,10	0,02126	
7,880	-0,4733	162,59	150,10	0,02119	
7,900	-0,4733	162,47	150,10	0,02105	
7,920	-0,4733	162,47	150,10	0,02099	
7,940	-0,4736	162,48	150,11	0,02103	
7,960	-0,4739	162,50	150,11	0,02114	
7,980	-0,4740	162,54	150,11	0,02125	
8,000	-0,4740	162,55	150,11	0,02125	
8,020	-0,4740	162,56	150,11	0,02117	
8,040	-0,4740	162,56	150,11	0,02101	
8,060	-0,4740	162,52	150,11	0,02096	
8,080	-0,4740	162,44	150,11	0,02108	
8,100	-0,4740	162,48	150,11	0,02125	
8,120	-0,4740	162,53	150,11	0,02132	
8,140	-0,4740	162,55	150,11	0,02130	
8,160	-0,4740	162,55	150,11	0,02121	
8,180	-0,4740	162,48	150,11	0,02108	
8,200	-0,4739	162,44	150,11	0,02096	
8,220	-0,4740	162,43	150,12	0,02092	
8,240	-0,4739	162,39	150,11	0,02102	
8,260	-0,4740	162,40	150,11	0,02112	
8,280	-0,4740	162,48	150,11	0,02118	
8,300	-0,4740	162,48	150,11	0,02114	
8,320	-0,4740	162,53	150,11	0,02107	
8,340	-0,4740	162,60	150,11	0,02107	
8,360	-0,4740	162,56	150,11	0,02114	
8,380	-0,4740	162,54	150,11	0,02120	
8,400	-0,4740	162,60	150,11	0,02122	
8,420	-0,4739	162,58	150,11	0,02127	
8,440	-0,4739	162,54	150,11	0,02125	
8,460	-0,4739	162,50	150,11	0,02103	
8,480	-0,4739	162,49	150,11	0,02095	
8,500	-0,4739	162,53	150,11	0,02107	
8,520	-0,4739	162,59	150,11	0,02117	
8,540	-0,4739	162,55	150,11	0,02126	
8,560	-0,4740	162,55	150,10	0,02130	
8,580	-0,4740	162,56	150,11	0,02146	
8,600	-0,4740	162,52	150,11	0,02204	
8,620	-0,4740	162,47	150,11	0,02251	
8,640	-0,4740	162,47	150,11	0,02265	
8,660	-0,4742	162,41	150,11	0,02276	
8,680	-0,4744	162,39	150,11	0,02288	
8,700	-0,4746	162,44	150,11	0,02288	
8,720	-0,4746	162,43	150,11	0,02277	
8,740	-0,4746	162,37	150,11	0,02267	
8,760	-0,4746	162,38	150,12	0,02262	
8,780	-0,4746	162,32	150,11	0,02269	
8,800	-0,4746	162,31	150,11	0,02286	
8,820	-0,4746	162,39	150,10	0,02250	
8,840	-0,4746	162,43	150,10	0,02176	
8,860	-0,4746	162,41	150,10	0,02130	
8,880	-0,4746	162,41	150,11	0,02116	
8,900	-0,4746	162,36	150,11	0,02111	
8,920	-0,4746	162,31	150,11	0,02106	
8,940	-0,4746	162,36	150,11	0,02115	
8,960	-0,4746	162,40	150,11	0,02125	
8,980	-0,4746	162,42	150,10	0,02122	
9,000	-0,4746	162,47	150,10	0,02116	
9,020	-0,4747	162,44	150,10	0,02111	
9,040	-0,4746	162,37	150,11	0,02102	
9,060	-0,4746	162,39	150,11	0,02098	
9,080	-0,4746	162,39	150,11	0,02105	
9,100	-0,4746	162,38	150,11	0,02114	
9,120	-0,4746	162,44	150,11	0,02120	
9,140	-0,4746	162,42	150,11	0,02110	
9,160	-0,4746	162,39	150,11	0,02094	
9,180	-0,4746	162,36	150,11	0,02094	
9,200	-0,4746	162,36	150,11	0,02102	
9,220	-0,4746	162,45	150,11	0,02113	
9,240	-0,4746	162,55	150,11	0,02124	
9,260	-0,4746	162,52	150,11	0,02130	
9,280	-0,4746	162,47	150,11	0,02128	
9,300	-0,4747	162,49	150,11	0,02112	
9,320	-0,4747	162,46	150,12	0,02094	
9,340	-0,4746	162,38	150,11	0,02095	
9,360	-0,4746	162,39	150,11	0,02106	
9,380	-0,4746	162,37	150,11	0,02111	
9,400	-0,4746	162,35	150,10	0,02120	
9,420	-0,4746	162,39	150,11	0,02122	
9,440	-0,4748	162,48	150,11	0,02112	
9,460	-0,4751	162,45	150,12	0,02103	
9,480	-0,4753	162,37	150,11	0,02103	
9,500	-0,4753	162,43	150,11	0,02113	
9,520	-0,4753	162,40	150,11	0,02126	
9,540	-0,4753	162,35	150,11	0,02133	
9,560	-0,4753	162,36	150,11	0,02127	
9,580	-0,4753	162,36	150,11	0,02111	
9,600	-0,4753	162,38	150,11	0,02103	
9,620	-0,4753	162,30	150,11	0,02104	
9,640	-0,4753	162,24	150,11	0,02105	
9,660	-0,4753	162,31	150,11	0,02109	
9,680	-0,4753	162,37	150,11	0,02120	
9,700	-0,4753	162,36	150,12	0,02128	
9,720	-0,4753	162,43	150,12	0,02128	
9,740	-0,4753	162,43	150,11	0,02120	
9,760	-0,4753	162,38	150,10	0,02109	
9,780	-0,4753	162,33	150,11	0,02102	
9,800	-0,4753	162,25	150,11	0,02098	
9,820	-0,4753	162,27	150,11	0,02110	
9,840	-0,4753	162,37	150,12	0,02126	
9,860	-0,4753	162,38	150,12	0,02127	
9,880	-0,4753	162,34	150,11	0,02118	
9,900	-0,4753	162,31	150,10	0,02108	
9,920	-0,4753	162,33	150,11	0,02102	
9,940	-0,4753	162,28	150,11	0,02110	
9,960	-0,4753	162,32	150,12	0,02120	
9,980	-0,4753	162,35	150,12	0,02124	
10,00	-0,4753	162,31	150,11	0,02128	
10,02	-0,4753	162,39	150,11	0,02116	
10,04	-0,4753	162,40	150,11	0,02102	
10,06	-0,4753	162,39	150,11	0,02096	
10,08	-0,4753	162,45	150,12	0,02097	
10,10	-0,4753	162,48	150,12	0,02109	
10,12	-0,4753	162,50	150,11	0,02119	
10,14	-0,4753	162,59	150,11	0,02118	
10,16	-0,4753	162,54	150,11	0,02111	
10,18	-0,4753	162,41	150,11	0,02101	
10,20	-0,4753	162,36	150,11	0,02097	
10,22	-0,4753	162,41	150,11	0,02106	
10,24	-0,4753	162,44	150,11	0,02116	
10,26	-0,4753	162,42	150,11	0,02120	
10,28	-0,4753	162,34	150,11	0,02122	
10,30	-0,4753	162,33	150,10	0,02120	
10,32	-0,4753	162,39	150,11	0,02110	
10,34	-0,4753	162,42	150,11	0,02105	
10,36	-0,4753	162,46	150,12	0,02097	
10,38	-0,4753	162,35	150,11	0,02100	
10,40	-0,4753	162,29	150,11	0,02110	
10,42	-0,4753	162,26	150,10	0,02118	
10,44	-0,4753	162,27	150,11	0,02122	
10,46	-0,4753	162,37	150,11	0,02118	
10,48	-0,4753	162,42	150,12	0,02110	
10,50	-0,4753	162,42	150,12	0,02105	
10,52	-0,4753	162,39	150,11	0,02111	
10,54	-0,4756	162,46	150,11	0,02121	
10,56	-0,4759	162,52	150,11	0,02129	
10,58	-0,4759	162,45	150,11	0,02129	
10,60	-0,4759	162,39	150,12	0,02119	
10,62	-0,4759	162,41	150,11	0,02111	
10,64	-0,4759	162,37	150,11	0,02109	
10,66	-0,4759	162,31	150,10	0,02117	
10,68	-0,4759	162,38	150,11	0,02124	
10,70	-0,4760	162,49	150,11	0,02130	
10,72	-0,4760	162,56	150,12	0,02135	
10,74	-0,4760	162,59	150,12	0,02128	
10,76	-0,4760	162,54	150,11	0,02113	
10,78	-0,4759	162,45	150,11	0,02106	
10,80	-0,4759	162,40	150,11	0,02105	
10,82	-0,4759	162,37	150,11	0,02110	
10,84	-0,4759	162,35	150,12	0,02122	
10,86	-0,4760	162,42	150,12	0,02130	
10,88	-0,4760	162,45	150,11	0,02122	
10,90	-0,4759	162,45	150,11	0,02111	
10,92	-0,4759	162,46	150,11	0,02105	
10,94	-0,4760	162,41	150,11	0,02103	
10,96	-0,4760	162,43	150,11	0,02117	
10,98	-0,4759	162,46	150,11	0,02131	
11,00	-0,4759	162,41	150,11	0,02141	
11,02	-0,4759	162,41	150,11	0,02130	
11,04	-0,4759	162,41	150,10	0,02115	
11,06	-0,4759	162,42	150,11	0,02109	
11,08	-0,4759	162,45	150,11	0,02103	
11,10	-0,4759	162,48	150,11	0,02108	
11,12	-0,4759	162,46	150,11	0,02117	
11,14	-0,4760	162,34	150,11	0,02115	
11,16	-0,4760	162,35	150,11	0,02115	
11,18	-0,4759	162,38	150,11	0,02116	
11,20	-0,4760	162,38	150,11	0,02112	
11,22	-0,4760	162,41	150,12	0,02112	
11,24	-0,4760	162,37	150,11	0,02120	
11,26	-0,4760	162,36	150,11	0,02128	
11,28	-0,4760	162,36	150,11	0,02127	
11,30	-0,4760	162,35	150,11	0,02122	
11,32	-0,4760	162,35	150,11	0,02115	
11,34	-0,4760	162,31	150,12	0,02110	
11,36	-0,4760	162,37	150,11	0,02104	
11,38	-0,4760	162,39	150,11	0,02106	
11,40	-0,4760	162,32	150,10	0,02119	
11,42	-0,4763	162,29	150,11	0,02129	
11,44	-0,4765	162,29	150,11	0,02129	
11,46	-0,4766	162,36	150,11	0,02122	
11,48	-0,4766	162,40	150,11	0,02115	
11,50	-0,4766	162,40	150,11	0,02110	
11,52	-0,4766	162,43	150,11	0,02113	
11,54	-0,4766	162,48	150,11	0,02124	
11,56	-0,4766	162,52	150,11	0,02127	
11,58	-0,4766	162,49	150,11	0,02125	
11,60	-0,4766	162,47	150,11	0,02117	
11,62	-0,4766	162,55	150,11	0,02107	
11,64	-0,4766	162,56	150,11	0,02108	
11,66	-0,4766	162,49	150,10	0,02109	
11,68	-0,4766	162,48	150,10	0,02118	
11,70	-0,4766	162,51	150,11	0,02121	
11,72	-0,4766	162,51	150,11	0,02121	
11,74	-0,4766	162,52	150,12	0,02118	
11,76	-0,4766	162,45	150,12	0,02107	
11,78	-0,4766	162,44	150,11	0,02100	
11,80	-0,4766	162,49	150,11	0,02105	
11,82	-0,4766	162,46	150,11	0,02117	
11,84	-0,4766	162,47	150,11	0,02123	
11,86	-0,4766	162,48	150,12	0,02127	
11,88	-0,4766	162,50	150,11	0,02124	
11,90	-0,4766	162,52	150,11	0,02112	
11,92	-0,4766	162,54	150,11	0,02095	
11,94	-0,4766	162,45	150,10	0,02096	
11,96	-0,4767	162,42	150,10	0,02107	
11,98	-0,4767	162,49	150,11	0,02118	
12,00	-0,4766	162,47	150,11	0,02123	
12,02	-0,4766	162,43	150,11	0,02119	
12,04	-0,4766	162,41	150,11	0,02108	
12,06	-0,4766	162,38	150,11	0,02107	
12,08	-0,4766	162,40	150,11	0,02112	
12,10	-0,4766	162,44	150,11	0,02116	
12,12	-0,4766	162,43	150,11	0,02128	
12,14	-0,4767	162,40	150,11	0,02135	
12,16	-0,4767	162,42	150,11	0,02133	
12,18	-0,4767	162,35	150,11	0,02123	
12,20	-0,4766	162,31	150,10	0,02114	
12,22	-0,4766	162,35	150,11	0,02113	
12,24	-0,4766	162,36	150,11	0,02120	
12,26	-0,4766	162,36	150,11	0,02131	
12,28	-0,4766	162,40	150,12	0,02139	
12,30	-0,4766	162,43	150,11	0,02137	
12,32	-0,4766	162,36	150,11	0,02131	
12,34	-0,4766	162,31	150,10	0,02118	
12,36	-0,4766	162,30	150,11	0,02108	
12,38	-0,4766	162,28	150,11	0,02103	
12,40	-0,4766	162,32	150,12	0,02103	
12,42	-0,4767	162,38	150,12	0,02111	
12,44	-0,4769	162,36	150,11	0,02120	
12,46	-0,4772	162,37	150,11	0,02124	
12,48	-0,4773	162,37	150,11	0,02113	
12,50	-0,4773	162,38	150,10	0,02102	
12,52	-0,4773	162,42	150,11	0,02098	
12,54	-0,4773	162,43	150,11	0,02106	
12,56	-0,4773	162,41	150,11	0,02115	
12,58	-0,4773	162,42	150,11	0,02125	
12,60	-0,4773	162,38	150,11	0,02133	
12,62	-0,4773	162,30	150,11	0,02124	
12,64	-0,4773	162,28	150,11	0,02112	
12,66	-0,4773	162,29	150,11	0,02113	
12,68	-0,4773	162,30	150,11	0,02121	
12,70	-0,4773	162,34	150,11	0,02131	
12,72	-0,4773	162,37	150,11	0,02137	
12,74	-0,4773	162,32	150,11	0,02134	
12,76	-0,4773	162,32	150,11	0,02131	
12,78	-0,4773	162,36	150,11	0,02123	
12,80	-0,4773	162,33	150,12	0,02110	
12,82	-0,4773	162,33	150,11	0,02108	
12,84	-0,4773	162,33	150,11	0,02116	
12,86	-0,4773	162,31	150,10	0,02124	
12,88	-0,4773	162,33	150,10	0,02127	
12,90	-0,4773	162,39	150,11	0,02120	
12,92	-0,4773	162,32	150,11	0,02107	
12,94	-0,4773	162,26	150,11	0,02101	
12,96	-0,4773	162,27	150,12	0,02108	
12,98	-0,4773	162,31	150,11	0,02117	
13,00	-0,4773	162,27	150,11	0,02126	
13,02	-0,4773	162,27	150,11	0,02127	
13,04	-0,4773	162,28	150,11	0,02123	
13,06	-0,4773	162,34	150,11	0,02117	
13,08	-0,4773	162,34	150,12	0,02106	
13,10	-0,4773	162,35	150,11	0,02103	
13,12	-0,4773	162,45	150,10	0,02109	
13,14	-0,4773	162,50	150,11	0,02124	
13,16	-0,4773	162,46	150,11	0,02131	
13,18	-0,4773	162,46	150,11	0,02121	
13,20	-0,4773	162,52	150,12	0,02115	
13,22	-0,4773	162,43	150,12	0,02115	
13,24	-0,4773	162,35	150,11	0,02110	
13,26	-0,4773	162,33	150,11	0,02117	
13,28	-0,4773	162,39	150,11	0,02127	
13,30	-0,4773	162,46	150,11	0,02129	
13,32	-0,4773	162,41	150,12	0,02125	
13,34	-0,4773	162,34	150,11	0,02124	
13,36	-0,4773	162,36	150,11	0,02119	
13,38	-0,4773	162,45	150,11	0,02110	
13,40	-0,4773	162,47	150,10	0,02108	
13,42	-0,4773	162,44	150,11	0,02121	
13,44	-0,4773	162,44	150,11	0,02133	
13,46	-0,4773	162,41	150,12	0,02131	
13,48	-0,4773	162,35	150,11	0,02122	
13,50	-0,4773	162,36	150,11	0,02110	
13,52	-0,4773	162,37	150,10	0,02105	
13,54	-0,4773	162,42	150,11	0,02108	
13,56	-0,4773	162,47	150,11	0,02117	
13,58	-0,4773	162,48	150,11	0,02130	
13,60	-0,4773	162,49	150,11	0,02134	
13,62	-0,4773	162,47	150,11	0,02122	
13,64	-0,4773	162,43	150,10	0,02113	
13,66	-0,4773	162,41	150,10	0,02110	
13,68	-0,4773	162,42	150,11	0,02109	
13,70	-0,4773	162,41	150,11	0,02119	
13,72	-0,4773	162,42	150,11	0,02124	
13,74	-0,4775	162,46	150,11	0,02124	
13,76	-0,4778	162,45	150,11	0,02119	
13,78	-0,4780	162,44	150,11	0,02112	
13,80	-0,4780	162,43	150,11	0,02111	
13,82	-0,4780	162,40	150,11	0,02111	
13,84	-0,4780	162,41	150,11	0,02113	
13,86	-0,4780	162,47	150,12	0,02125	
13,88	-0,4780	162,47	150,11	0,02133	
13,90	-0,4780	162,46	150,11	0,02130	
13,92	-0,4780	162,48	150,10	0,02118	
13,94	-0,4780	162,42	150,10	0,02115	
13,96	-0,4780	162,42	150,10	0,02113	
13,98	-0,4780	162,47	150,10	0,02109	
14,00	-0,4780	162,47	150,11	0,02123	
14,02	-0,4780	162,43	150,12	0,02140	
14,04	-0,4780	162,43	150,11	0,02141	
14,06	-0,4780	162,39	150,11	0,02128	
14,08	-0,4780	162,42	150,11	0,02114	
14,10	-0,4780	162,54	150,11	0,02108	
14,12	-0,4780	162,56	150,11	0,02108	
14,14	-0,4780	162,50	150,11	0,02123	
14,16	-0,4780	162,48	150,11	0,02140	
14,18	-0,4780	162,46	150,11	0,02147	
14,20	-0,4780	162,46	150,11	0,02137	
14,22	-0,4780	162,48	150,11	0,02118	
14,24	-0,4780	162,49	150,11	0,02115	
14,26	-0,4780	162,54	150,11	0,02125	
14,28	-0,4780	162,58	150,12	0,02138	
14,30	-0,4780	162,49	150,11	0,02148	
14,32	-0,4780	162,46	150,11	0,02150	
14,34	-0,4780	162,47	150,10	0,02142	
14,36	-0,4780	162,53	150,11	0,02128	
14,38	-0,4782	163,33	150,14	0,02112	
14,40	-0,4781	159,14	150,14	0,02098	
14,42	-0,4780	147,99	150,12	0,02093	
14,44	-0,4780	134,22	150,11	0,02098	
14,46	-0,4779	120,52	150,11	0,02109	
14,48	-0,4775	107,15	150,11	0,02116	
14,50	-0,4764	97,21	150,11	0,02111	
14,52	-0,4751	93,43	150,10	0,02098	
14,54	-0,4736	91,02	150,10	0,02090	
14,56	-0,4720	89,28	150,10	0,02089	
14,58	-0,4703	88,56	150,10	0,02089	
14,60	-0,4686	89,40	150,10	0,02095	
14,62	-0,4668	92,52	150,11	0,02102	
14,64	-0,4651	96,86	150,11	0,02101	
14,66	-0,4634	101,24	150,11	0,02097	
14,68	-0,4618	104,45	150,11	0,02086	
14,70	-0,4603	106,66	150,11	0,02078	
14,72	-0,4590	106,79	150,10	0,02086	
14,74	-0,4580	105,98	150,10	0,02099	
14,76	-0,4569	105,59	150,10	0,02098	
14,78	-0,4556	104,76	150,11	0,02100	
14,80	-0,4543	103,17	150,11	0,02100	
14,82	-0,4530	102,31	150,11	0,02093	
14,84	-0,4515	102,16	150,11	0,02085	
14,86	-0,4498	102,33	150,10	0,02092	
14,88	-0,4483	102,90	150,10	0,02098	
14,90	-0,4469	102,66	150,10	0,02099	
14,92	-0,4456	102,22	150,10	0,02099	
14,94	-0,4442	102,08	150,11	0,02102	
14,96	-0,4429	102,10	150,11	0,02094	
14,98	-0,4415	102,16	150,11	0,02084	
15,00	-0,4402	102,19	150,11	0,02075	
15,02	-0,4389	102,19	150,11	0,02078	
15,04	-0,4375	102,13	150,10	0,02092	
15,06	-0,4362	102,07	150,11	0,02104	
15,08	-0,4347	102,05	150,11	0,02108	
15,10	-0,4331	102,10	150,11	0,02095	
15,12	-0,4315	102,10	150,11	0,02081	
15,14	-0,4301	102,06	150,11	0,02078	
15,16	-0,4288	102,10	150,11	0,02086	
15,18	-0,4274	102,11	150,10	0,02096	
15,20	-0,4261	102,10	150,10	0,02109	
15,22	-0,4248	102,09	150,10	0,02107	
15,24	-0,4233	102,03	150,10	0,02090	
15,26	-0,4216	102,04	150,11	0,02084	
15,28	-0,4201	102,12	150,11	0,02086	
15,30	-0,4187	102,12	150,11	0,02086	
15,32	-0,4174	102,08	150,11	0,02094	
15,34	-0,4160	102,00	150,10	0,02107	
15,36	-0,4145	101,76	150,10	0,02107	
15,38	-0,4129	100,42	150,10	0,02094	
15,40	-0,4114	99,10	150,10	0,02083	
15,42	-0,4100	98,59	150,10	0,02080	
15,44	-0,4086	98,51	150,11	0,02088	
15,46	-0,4073	98,55	150,11	0,02095	
15,48	-0,4056	98,56	150,11	0,02108	
15,50	-0,4040	98,62	150,11	0,02118	
15,52	-0,4026	98,64	150,10	0,02116	
15,54	-0,4013	98,58	150,10	0,02101	
15,56	-0,3998	98,54	150,10	0,02089	
15,58	-0,3981	98,55	150,11	0,02087	
15,60	-0,3966	98,56	150,11	0,02092	
15,62	-0,3952	98,57	150,11	0,02101	
15,64	-0,3937	98,60	150,11	0,02107	
15,66	-0,3921	98,60	150,11	0,02106	
15,68	-0,3906	98,60	150,10	0,02099	
15,70	-0,3891	98,67	150,10	0,02089	
15,72	-0,3875	98,71	150,10	0,02085	
15,74	-0,3859	98,71	150,10	0,02089	
15,76	-0,3845	98,69	150,11	0,02095	
15,78	-0,3830	98,65	150,11	0,02101	
15,80	-0,3814	98,57	150,11	0,02098	
15,82	-0,3798	98,33	150,11	0,02089	
15,84	-0,3785	96,96	150,10	0,02087	
15,86	-0,3770	95,60	150,10	0,02089	
15,88	-0,3753	95,14	150,10	0,02090	
15,90	-0,3738	95,10	150,10	0,02091	
15,92	-0,3723	95,09	150,11	0,02099	
15,94	-0,3706	95,12	150,11	0,02109	
15,96	-0,3691	95,19	150,11	0,02106	
15,98	-0,3676	95,14	150,11	0,02094	
16,00	-0,3659	95,14	150,10	0,02085	
16,02	-0,3644	95,18	150,10	0,02086	
16,04	-0,3629	95,21	150,10	0,02094	
16,06	-0,3612	95,24	150,10	0,02103	
16,08	-0,3597	95,21	150,11	0,02106	
16,10	-0,3580	95,18	150,11	0,02099	
16,12	-0,3564	95,18	150,11	0,02089	
16,14	-0,3548	95,19	150,11	0,02084	
16,16	-0,3532	95,19	150,10	0,02090	
16,18	-0,3516	95,15	150,10	0,02097	
16,20	-0,3499	95,09	150,10	0,02104	
16,22	-0,3483	95,03	150,11	0,02111	
16,24	-0,3468	95,04	150,11	0,02111	
16,26	-0,3451	94,86	150,17	0,02100	
16,28	-0,3435	93,55	150,25	0,02091	
16,30	-0,3419	92,23	150,46	0,02087	
16,32	-0,3403	91,76	151,23	0,02092	
16,34	-0,3387	91,71	152,70	0,02105	
16,36	-0,3371	91,76	154,24	0,02115	
16,38	-0,3355	91,78	155,79	0,02112	
16,40	-0,3339	91,74	157,29	0,02098	
16,42	-0,3322	91,77	158,66	0,02091	
16,44	-0,3305	91,83	160,21	0,02087	
16,46	-0,3289	91,84	161,83	0,02086	
16,48	-0,3273	91,86	163,32	0,02099	
16,50	-0,3256	91,60	164,85	0,02111	
16,52	-0,3240	90,94	166,45	0,02115	
16,54	-0,3222	91,09	168,01	0,02105	
16,56	-0,3205	91,49	169,75	0,02092	
16,58	-0,3188	91,67	171,53	0,02086	
16,60	-0,3171	90,95	173,16	0,02085	
16,62	-0,3154	89,38	174,65	0,02091	
16,64	-0,3137	88,45	176,05	0,02103	
16,66	-0,3119	88,20	177,39	0,02113	
16,68	-0,3102	88,18	178,89	0,02117	
16,70	-0,3085	88,21	180,21	0,02107	
16,72	-0,3068	88,28	181,33	0,02095	
16,74	-0,3050	88,37	182,59	0,02088	
16,76	-0,3033	88,40	184,23	0,02091	
16,78	-0,3016	88,39	185,70	0,02099	
16,80	-0,2999	88,36	186,84	0,02108	
16,82	-0,2981	88,36	188,06	0,02113	
16,84	-0,2963	88,40	189,54	0,02107	
16,86	-0,2945	88,39	191,11	0,02094	
16,88	-0,2927	88,40	192,55	0,02089	
16,90	-0,2909	88,41	193,94	0,02102	
16,92	-0,2891	88,45	195,35	0,02111	
16,94	-0,2873	88,53	196,66	0,02120	
16,96	-0,2855	88,53	197,97	0,02119	
16,98	-0,2837	88,48	199,30	0,02104	
17,00	-0,2819	88,48	200,72	0,02091	
17,02	-0,2801	88,47	202,15	0,02084	
17,04	-0,2783	87,72	203,55	0,02083	
17,06	-0,2766	86,15	204,95	0,02092	
17,08	-0,2748	85,24	206,37	0,02104	
17,10	-0,2730	85,03	207,93	0,02107	
17,12	-0,2712	84,99	209,44	0,02098	
17,14	-0,2694	85,04	210,84	0,02084	
17,16	-0,2676	85,11	212,19	0,02081	
17,18	-0,2658	85,12	213,55	0,02087	
17,20	-0,2640	85,08	214,89	0,02091	
17,22	-0,2621	85,10	216,30	0,02102	
17,24	-0,2602	85,09	217,78	0,02108	
17,26	-0,2584	85,08	219,22	0,02105	
17,28	-0,2566	85,10	220,68	0,02099	
17,30	-0,2547	85,06	222,18	0,02093	
17,32	-0,2528	84,95	223,66	0,02087	
17,34	-0,2511	84,94	225,11	0,02088	
17,36	-0,2492	85,03	226,51	0,02102	
17,38	-0,2473	85,10	227,90	0,02112	
17,40	-0,2455	85,05	229,28	0,02108	
17,42	-0,2438	84,97	230,67	0,02099	
17,44	-0,2419	85,00	232,06	0,02089	
17,46	-0,2401	85,06	233,47	0,02092	
17,48	-0,2383	85,12	234,90	0,02103	
17,50	-0,2364	85,12	236,34	0,02107	
17,52	-0,2345	85,06	237,73	0,02108	
17,54	-0,2325	85,03	239,15	0,02112	
17,56	-0,2307	85,03	240,60	0,02109	
17,58	-0,2289	85,03	242,04	0,02089	
17,60	-0,2270	85,03	243,47	0,02078	
17,62	-0,2251	85,06	244,88	0,02084	
17,64	-0,2233	85,05	246,32	0,02094	
17,66	-0,2214	85,02	247,76	0,02100	
17,68	-0,2194	84,32	249,18	0,02108	
17,70	-0,2175	82,89	250,60	0,02108	
17,72	-0,2156	82,01	252,03	0,02095	
17,74	-0,2137	81,73	253,45	0,02089	
17,76	-0,2119	81,72	254,88	0,02087	
17,78	-0,2100	81,66	256,33	0,02092	
17,80	-0,2081	81,59	258,06	0,02097	
17,82	-0,2062	81,54	261,54	0,02106	
17,84	-0,2043	81,36	266,11	0,02114	
17,86	-0,2023	80,10	269,45	0,02108	
17,88	-0,2004	78,81	271,44	0,02099	
17,90	-0,1986	78,31	272,89	0,02097	
17,92	-0,1966	78,25	274,38	0,02103	
17,94	-0,1946	78,33	275,85	0,02109	
17,96	-0,1926	78,27	277,33	0,02115	
17,98	-0,1906	78,16	278,88	0,02111	
18,00	-0,1887	78,18	280,38	0,02108	
18,02	-0,1867	78,24	281,81	0,02101	
18,04	-0,1848	78,24	283,40	0,02086	
18,06	-0,1828	78,29	285,00	0,02081	
18,08	-0,1808	78,33	286,61	0,02100	
18,10	-0,1788	78,32	288,10	0,02116	
18,12	-0,1768	78,37	289,67	0,02119	
18,14	-0,1748	78,39	291,30	0,02109	
18,16	-0,1728	77,66	292,87	0,02092	
18,18	-0,1708	76,01	294,38	0,02085	
18,20	-0,1688	74,99	295,92	0,02094	
18,22	-0,1667	74,73	297,55	0,02102	
18,24	-0,1647	74,71	299,17	0,02108	
18,26	-0,1627	74,76	300,74	0,02107	
18,28	-0,1606	74,82	302,37	0,02108	
18,30	-0,1584	74,87	304,02	0,02101	
18,32	-0,1563	74,88	305,65	0,02093	
18,34	-0,1543	74,92	307,30	0,02090	
18,36	-0,1522	74,98	308,97	0,02097	
18,38	-0,1501	75,00	310,65	0,02103	
18,40	-0,1479	75,00	312,34	0,02106	
18,42	-0,1459	75,01	314,01	0,02105	
18,44	-0,1438	75,01	315,67	0,02101	
18,46	-0,1416	74,23	317,40	0,02091	
18,48	-0,1395	72,68	319,11	0,02084	
18,50	-0,1375	71,79	320,80	0,02090	
18,52	-0,1355	71,62	322,53	0,02102	
18,54	-0,1333	71,61	324,28	0,02109	
18,56	-0,1312	71,60	326,00	0,02114	
18,58	-0,1290	71,61	327,68	0,02112	
18,60	-0,1268	70,88	329,40	0,02099	
18,62	-0,1247	70,11	331,19	0,02089	
18,64	-0,1225	70,73	333,00	0,02093	
18,66	-0,1203	71,46	334,77	0,02100	
18,68	-0,1181	71,71	336,53	0,02108	
18,70	-0,1160	71,70	338,30	0,02118	
18,72	-0,1138	71,58	340,07	0,02118	
18,74	-0,1116	71,54	341,90	0,02101	
18,76	-0,1094	71,36	343,72	0,02083	
18,78	-0,1073	70,11	345,57	0,02079	
18,80	-0,1051	68,72	347,40	0,02090	
18,82	-0,1027	67,73	349,04	0,02107	
18,84	-0,1005	71,18	350,12	0,02121	
18,86	-0,09831	82,10	350,50	0,02123	
18,88	-0,09619	97,36	350,65	0,02114	
18,90	-0,09405	110,98	350,91	0,02106	
18,92	-0,09228	121,59	351,47	0,02101	
18,94	-0,09123	126,75	352,34	0,02102	
18,96	-0,09068	125,77	353,27	0,02113	
18,98	-0,09007	122,59	354,11	0,02123	
19,00	-0,08921	121,21	354,92	0,02125	
19,02	-0,08820	121,96	355,85	0,02111	
19,04	-0,08713	124,66	356,79	0,02095	
19,06	-0,08622	128,47	357,62	0,02091	
19,08	-0,08545	128,57	358,52	0,02096	
19,10	-0,08470	125,36	359,51	0,02108	
19,12	-0,08396	123,74	360,37	0,02123	
19,14	-0,08328	124,08	361,12	0,02128	
19,16	-0,08243	122,89	362,01	0,02117	
19,18	-0,08146	120,10	363,06	0,02106	
19,20	-0,08062	119,60	364,00	0,02100	
19,22	-0,07988	120,54	364,82	0,02094	
19,24	-0,07904	120,35	365,69	0,02096	
19,26	-0,07807	119,37	366,62	0,02110	
19,28	-0,07708	120,69	367,49	0,02125	
19,30	-0,07626	122,55	368,29	0,02125	
19,32	-0,07555	122,03	369,15	0,02106	
19,34	-0,07471	120,41	370,13	0,02099	
19,36	-0,07389	119,84	371,01	0,02107	
19,38	-0,07320	119,90	371,83	0,02111	
19,40	-0,07246	118,47	372,79	0,02115	
19,42	-0,07162	117,23	373,72	0,02125	
19,44	-0,07087	118,07	374,57	0,02125	
19,46	-0,07005	117,81	375,49	0,02108	
19,48	-0,06916	115,90	376,45	0,02094	
19,50	-0,06828	116,58	377,29	0,02101	
19,52	-0,06753	118,04	378,08	0,02111	
19,54	-0,06669	117,50	379,00	0,02117	
19,56	-0,06580	116,98	379,96	0,02125	
19,58	-0,06514	118,77	380,81	0,02114	
19,60	-0,06441	119,04	381,71	0,02098	
19,62	-0,06352	118,26	382,59	0,02095	
19,64	-0,06271	120,02	383,34	0,02098	
19,66	-0,06195	121,16	384,28	0,02102	
19,68	-0,06115	118,47	385,36	0,02114	
19,70	-0,06043	117,10	386,27	0,02122	
19,72	-0,05978	118,64	387,04	0,02119	
19,74	-0,05904	119,11	387,90	0,02106	
19,76	-0,05804	118,28	388,89	0,02099	
19,78	-0,05716	119,76	389,76	0,02102	
19,80	-0,05649	120,85	390,63	0,02109	
19,82	-0,05580	119,92	391,53	0,02121	
19,84	-0,05510	119,84	392,37	0,02133	
19,86	-0,05437	120,99	393,25	0,02128	
19,88	-0,05364	120,66	394,18	0,02114	
19,90	-0,05303	119,83	395,04	0,02102	
19,92	-0,05245	119,51	395,94	0,02091	
19,94	-0,05189	117,88	396,88	0,02093	
19,96	-0,05131	116,41	397,78	0,02111	
19,98	-0,05068	116,87	398,62	0,02126	
20,00	-0,05000	116,97	399,49	0,02134	
20,02	-0,04920	116,62	400,38	0,02130	
20,04	-0,04850	117,29	401,24	0,02115	
20,06	-0,04792	118,31	402,11	0,02106	
20,08	-0,04730	117,52	403,06	0,02106	
20,10	-0,04665	116,29	403,97	0,02111	
20,12	-0,04596	116,80	404,84	0,02116	
20,14	-0,04528	116,89	405,73	0,02114	
20,16	-0,04462	116,08	406,64	0,02113	
20,18	-0,04395	115,79	407,49	0,02108	
20,20	-0,04330	116,42	408,35	0,02098	
20,22	-0,04260	115,71	409,32	0,02096	
20,24	-0,04197	114,94	410,22	0,02105	
20,26	-0,04148	115,35	411,07	0,02113	
20,28	-0,04088	114,11	412,01	0,02108	
20,30	-0,04027	112,60	412,88	0,02110	
20,32	-0,03962	113,41	413,73	0,02115	
20,34	-0,03900	112,67	414,68	0,02108	
20,36	-0,03849	111,15	415,56	0,02097	
20,38	-0,03791	111,62	416,41	0,02095	
20,40	-0,03727	112,10	417,29	0,02107	
20,42	-0,03660	111,21	418,17	0,02120	
20,44	-0,03593	110,99	419,07	0,02124	
20,46	-0,03544	111,17	419,95	0,02117	
20,48	-0,03490	110,04	420,84	0,02106	
20,50	-0,03421	108,85	421,80	0,02100	
20,52	-0,03354	108,72	422,70	0,02099	
20,54	-0,03297	110,80	423,48	0,02108	
20,56	-0,03229	112,35	424,36	0,02123	
20,58	-0,03152	111,69	425,33	0,02132	
20,60	-0,03101	112,04	426,17	0,02126	
20,62	-0,03048	112,38	427,09	0,02112	
20,64	-0,02982	110,29	428,06	0,02103	
20,66	-0,02927	109,23	428,91	0,02106	
20,68	-0,02873	109,70	429,77	0,02115	
20,70	-0,02816	108,78	430,63	0,02122	
20,72	-0,02756	108,10	431,50	0,02127	
20,74	-0,02698	108,71	432,42	0,02120	
20,76	-0,02644	108,99	433,31	0,02109	
20,78	-0,02587	109,20	434,18	0,02110	
20,80	-0,02520	109,57	435,11	0,02114	
20,82	-0,02451	109,95	436,01	0,02117	
20,84	-0,02390	111,23	436,87	0,02124	
20,86	-0,02337	111,21	437,78	0,02126	
20,88	-0,02280	110,05	438,67	0,02124	
20,90	-0,02231	110,49	439,51	0,02115	
20,92	-0,02174	109,88	440,46	0,02104	
20,94	-0,02113	108,60	441,35	0,02103	
20,96	-0,02054	109,25	442,19	0,02107	
20,98	-0,01999	109,05	443,11	0,02108	
21,00	-0,01943	107,73	444,02	0,02119	
21,02	-0,01880	108,15	444,90	0,02126	
21,04	-0,01822	108,35	445,81	0,02123	
21,06	-0,01773	107,56	446,64	0,02111	
21,08	-0,01716	108,03	447,48	0,02099	
21,10	-0,01646	107,65	448,46	0,02100	
21,12	-0,01584	107,20	449,33	0,02115	
21,14	-0,01532	107,35	450,21	0,02125	
21,16	-0,01469	105,47	451,20	0,02126	
21,18	-0,01412	104,83	452,03	0,02125	
21,20	-0,01357	106,34	452,87	0,02111	
21,22	-0,01299	105,89	453,81	0,02100	
21,24	-0,01248	104,73	454,58	0,02100	
21,26	-0,01186	105,31	455,48	0,02110	
21,28	-0,01124	103,56	456,57	0,02124	
21,30	-0,01075	103,40	457,46	0,02129	
21,32	-0,01022	105,62	458,27	0,02124	
21,34	-0,00965	105,39	459,17	0,02113	
21,36	-0,00906	104,04	460,07	0,02106	
21,38	-0,00842	105,10	460,88	0,02101	
21,40	-0,00779	106,19	461,73	0,02109	
21,42	-0,00722	104,51	462,69	0,02119	
21,44	-0,00670	104,72	463,55	0,02127	
21,46	-0,00611	106,59	464,40	0,02127	
21,48	-0,00548	105,56	465,39	0,02115	
21,50	-0,00498	104,81	466,28	0,02106	
21,52	-0,00443	106,29	467,13	0,02103	
21,54	-0,00388	106,17	468,04	0,02099	
21,56	-0,00335	105,51	468,87	0,02107	
21,58	-0,00274	106,55	469,75	0,02119	
21,60	-0,00211	106,04	470,73	0,02127	
21,62	-0,00163	105,94	471,60	0,02125	
21,64	-0,00104	106,72	472,46	0,02111	
21,66	-0,00037	105,65	473,38	0,02107	
21,68	0,000	105,41	474,24	0,02114	
21,70	0,00068	105,72	475,16	0,02115	
21,72	0,00136	104,98	476,06	0,02124	
21,74	0,00185	105,32	476,86	0,02128	
21,76	0,00244	105,88	477,76	0,02121	
21,78	0,00305	104,60	478,70	0,02103	
21,80	0,00341	104,42	479,55	0,02093	
21,82	0,00402	104,57	480,50	0,02102	
21,84	0,00474	103,70	481,44	0,02123	
21,86	0,00533	103,92	482,26	0,02132	
21,88	0,00595	103,48	483,18	0,02128	
21,90	0,00651	101,86	484,07	0,02127	
21,92	0,00698	102,53	484,86	0,02121	
21,94	0,00754	103,12	485,80	0,02110	
21,96	0,00813	101,46	486,72	0,02106	
21,98	0,00870	101,10	487,57	0,02114	
22,00	0,00930	100,49	488,52	0,02121	
22,02	0,00984	98,82	489,40	0,02128	
22,04	0,01035	99,74	490,21	0,02130	
22,06	0,01089	100,22	491,14	0,02118	
22,08	0,01145	98,94	492,02	0,02108	
22,10	0,01205	99,18	492,87	0,02111	
22,12	0,01279	98,47	493,85	0,02121	
22,14	0,01336	97,32	494,72	0,02131	
22,16	0,01382	98,42	495,54	0,02137	
22,18	0,01448	98,34	496,51	0,02138	
22,20	0,01510	97,41	497,38	0,02127	
22,22	0,01572	97,80	498,24	0,02108	
22,24	0,01630	96,74	499,19	0,02100	
22,26	0,01679	95,48	500,00	0,02103	
22,28	0,01730	96,22	500,86	0,02115	
22,30	0,01792	94,88	501,87	0,02129	
22,32	0,01846	93,66	502,74	0,02141	
22,34	0,01907	94,06	503,62	0,02134	
22,36	0,01966	92,68	504,56	0,02122	
22,38	0,02013	91,63	505,37	0,02119	
22,40	0,02078	92,96	506,24	0,02107	
22,42	0,02155	92,33	507,18	0,02109	
22,44	0,02215	91,44	507,98	0,02129	
22,46	0,02272	91,56	508,89	0,02130	
22,48	0,02332	89,72	509,87	0,02121	
22,50	0,02384	88,96	510,70	0,02115	
22,52	0,02452	89,01	511,61	0,02106	
22,54	0,02526	87,69	512,54	0,02101	
22,56	0,02585	87,58	513,37	0,02105	
22,58	0,02653	87,81	514,31	0,02117	
22,60	0,02708	87,07	515,18	0,02130	
22,62	0,02753	87,51	515,94	0,02136	
22,64	0,02822	87,67	516,90	0,02124	
22,66	0,02896	85,88	517,87	0,02107	
22,68	0,02955	86,63	518,68	0,02103	
22,70	0,03025	86,95	519,59	0,02112	
22,72	0,03097	84,87	520,47	0,02118	
22,74	0,03157	84,96	521,27	0,02125	
22,76	0,03228	85,21	522,24	0,02122	
22,78	0,03299	83,06	523,17	0,02109	
22,80	0,03360	82,58	524,01	0,02097	
22,82	0,03431	81,71	524,96	0,02096	
22,84	0,03498	79,98	525,81	0,02113	
22,86	0,03560	80,89	526,60	0,02126	
22,88	0,03633	80,57	527,61	0,02135	
22,90	0,03701	78,16	528,57	0,02136	
22,92	0,03763	78,33	529,37	0,02125	
22,94	0,03831	78,23	530,23	0,02119	
22,96	0,03899	75,86	531,12	0,02112	
22,98	0,03966	74,98	532,01	0,02108	
23,00	0,04035	74,93	532,93	0,02114	
23,02	0,04101	74,15	533,79	0,02121	
23,04	0,04172	73,89	534,68	0,02125	
23,06	0,04258	73,25	535,62	0,02124	
23,08	0,04331	73,71	536,41	0,02114	
23,10	0,04399	74,60	537,25	0,02104	
23,12	0,04475	72,87	538,28	0,02101	
23,14	0,04545	71,48	539,16	0,02101	
23,16	0,04625	71,27	540,01	0,02112	
23,18	0,04707	69,31	540,94	0,02129	
23,20	0,04770	67,36	541,77	0,02135	
23,22	0,04842	67,38	542,67	0,02123	
23,24	0,04929	66,71	543,62	0,02110	
23,26	0,04998	66,09	544,39	0,02102	
23,28	0,05079	66,34	545,27	0,02101	
23,30	0,05172	64,89	546,30	0,02110	
23,32	0,05242	64,38	547,15	0,02123	
23,34	0,05325	64,31	548,03	0,02125	
23,36	0,05412	61,62	548,97	0,02117	
23,38	0,05485	60,12	549,79	0,02105	
23,40	0,05569	59,72	550,70	0,02098	
23,42	0,05651	58,27	551,58	0,02105	
23,44	0,05724	58,42	552,33	0,02109	
23,46	0,05816	58,29	553,28	0,02115	
23,48	0,05914	55,28	554,36	0,02118	
23,50	0,05996	54,12	555,22	0,02108	
23,52	0,06075	53,64	556,04	0,02100	
23,54	0,06159	51,20	556,93	0,02101	
23,56	0,06244	49,21	557,79	0,02108	
23,58	0,06331	48,68	558,65	0,02108	
23,60	0,06424	46,58	559,55	0,02113	
23,62	0,06515	45,00	560,43	0,02124	
23,64	0,06613	44,48	561,31	0,02126	
23,66	0,06711	44,01	562,22	0,02115	
23,68	0,06807	43,16	563,10	0,02102	
23,70	0,06895	42,05	563,95	0,02098	
23,72	0,06984	40,01	564,89	0,02101	
23,74	0,07087	37,29	565,83	0,02113	
23,76	0,07181	36,26	566,64	0,02128	
23,78	0,07283	35,33	567,51	0,02125	
23,80	0,07387	33,06	568,45	0,02109	
23,82	0,07486	31,84	569,30	0,02103	
23,84	0,07583	31,26	570,18	0,02102	
23,86	0,07693	29,81	571,11	0,02101	
23,88	0,07803	28,66	571,97	0,02115	
23,90	0,07905	27,24	572,85	0,02128	
23,92	0,08019	24,34	573,77	0,02127	
23,94	0,08121	23,00	574,60	0,02112	
23,96	0,08227	22,52	575,50	0,02100	
23,98	0,08350	20,61	576,44	0,02103	
24,00	0,08458	19,49	577,32	0,02112	
24,02	0,08563	18,95	578,19	0,02118	
24,04	0,08688	16,53	579,11	0,02119	
24,06	0,08819	14,82	580,00	0,02115	
24,08	0,08928	13,87	580,83	0,02109	
24,10	0,09036	12,21	581,73	0,02104	
24,12	0,09164	9,913	582,66	0,02098	
24,14	0,09292	8,886	583,53	0,02105	
24,16	0,09401	7,761	584,41	0,02119	
24,18	0,09510	5,900	585,32	0,02124	
24,20	0,09629	5,013	586,17	0,02124	
24,22	0,09761	3,834	587,07	0,02121	
24,24	0,09901	1,838	588,02	0,02110	
24,26	0,1003	1,270	588,85	0,02097	
24,28	0,1016	0,2064	589,74	0,02098	
24,30	0,1031	-2,219	590,70	0,02113	
24,32	0,1044	-2,404	591,51	0,02124	
24,34	0,1057	-1,916	592,37	0,02129	
24,36	0,1071	-4,521	593,37	0,02127	
24,38	0,1084	-6,966	594,26	0,02116	
24,40	0,1097	-7,400	595,06	0,02103	
24,42	0,1111	-8,329	595,93	0,02106	
24,44	0,1125	-10,32	596,88	0,02110	
24,46	0,1138	-10,69	597,69	0,02120	
24,48	0,1151	-10,65	598,53	0,02132	
24,50	0,1166	-12,58	599,58	0,02128	
24,52	0,1183	-14,23	600,55	0,02122	
24,54	0,1197	-14,09	601,28	0,02114	
24,56	0,1211	-12,97	602,05	0,02107	
24,58	0,1225	-14,46	603,14	0,02101	
24,60	0,1239	-16,20	604,19	0,02101	
24,62	0,1252	-15,75	604,96	0,02112	
24,64	0,1268	-14,90	605,67	0,02122	
24,66	0,1284	-15,91	606,60	0,02125	
24,68	0,1299	-16,88	607,66	0,02119	
24,70	0,1312	-15,25	608,52	0,02106	
24,72	0,1325	-15,14	609,34	0,02098	
24,74	0,1339	-16,20	610,24	0,02103	
24,76	0,1355	-15,44	611,12	0,02114	
24,78	0,1371	-14,24	612,02	0,02114	
24,80	0,1386	-14,35	612,90	0,02113	
24,82	0,1399	-13,84	613,74	0,02104	
24,84	0,1413	-12,47	614,66	0,02090	
24,86	0,1426	-11,47	615,60	0,02088	
24,88	0,1440	-9,996	616,48	0,02095	
24,90	0,1453	-8,824	617,40	0,02110	
24,92	0,1466	-7,403	618,22	0,02125	
24,94	0,1479	-4,370	619,06	0,02124	
24,96	0,1494	-2,951	620,09	0,02120	
24,98	0,1507	-2,014	620,98	0,02119	
25,00	0,1520	1,201	621,79	0,02108	
25,02	0,1534	2,769	622,77	0,02103	
25,04	0,1547	3,998	623,68	0,02119	
25,06	0,1560	7,714	624,52	0,02130	
25,08	0,1574	10,25	625,39	0,02127	
25,10	0,1587	11,22	626,22	0,02119	
25,12	0,1600	13,41	627,13	0,02108	
25,14	0,1610	15,64	628,08	0,02103	
25,16	0,1621	18,59	628,92	0,02104	
25,18	0,1634	21,51	629,81	0,02104	
25,20	0,1647	23,06	630,73	0,02118	
25,22	0,1657	25,39	631,57	0,02131	
25,24	0,1668	27,59	632,51	0,02126	
25,26	0,1680	28,74	633,45	0,02120	
25,28	0,1690	31,18	634,27	0,02110	
25,30	0,1701	33,84	635,19	0,02103	
25,32	0,1712	35,35	636,10	0,02104	
25,34	0,1722	37,69	636,92	0,02107	
25,36	0,1732	39,58	637,85	0,02112	
25,38	0,1743	40,20	638,74	0,02120	
25,40	0,1752	42,35	639,57	0,02127	
25,42	0,1763	44,27	640,55	0,02122	
25,44	0,1773	44,49	641,49	0,02108	
25,46	0,1783	46,66	642,30	0,02102	
25,48	0,1793	48,31	643,23	0,02103	
25,50	0,1802	48,67	644,07	0,02116	
25,52	0,1811	50,93	644,86	0,02127	
25,54	0,1820	51,81	645,86	0,02129	
25,56	0,1829	51,32	646,78	0,02119	
25,58	0,1838	53,07	647,61	0,02108	
25,60	0,1847	53,57	648,55	0,02106	
25,62	0,1857	52,59	649,42	0,02107	
25,64	0,1866	53,51	650,27	0,02114	
25,66	0,1875	54,30	651,20	0,02126	
25,68	0,1884	54,46	652,01	0,02132	
25,70	0,1893	55,95	652,84	0,02121	
25,72	0,1902	55,51	653,88	0,02108	
25,74	0,1910	55,16	654,82	0,02105	
25,76	0,1918	56,60	655,66	0,02108	
25,78	0,1927	55,95	656,54	0,02115	
25,80	0,1936	54,08	657,39	0,02126	
25,82	0,1944	53,88	658,29	0,02130	
25,84	0,1953	53,31	659,20	0,02124	
25,86	0,1961	52,61	659,98	0,02114	
25,88	0,1970	52,85	660,88	0,02110	
25,90	0,1980	51,42	661,92	0,02103	
25,92	0,1988	50,79	662,77	0,02105	
25,94	0,1997	51,01	663,62	0,02120	
25,96	0,2006	49,51	664,54	0,02136	
25,98	0,2014	48,16	665,39	0,02137	
26,00	0,2023	48,07	666,29	0,02117	
26,02	0,2033	46,94	667,18	0,02104	
26,04	0,2041	46,44	667,96	0,02100	
26,06	0,2050	46,27	668,92	0,02099	
26,08	0,2060	44,09	669,96	0,02118	
26,10	0,2070	43,67	670,79	0,02130	
26,12	0,2079	43,93	671,64	0,02129	
26,14	0,2089	42,43	672,54	0,02117	
26,16	0,2097	41,72	673,38	0,02108	
26,18	0,2106	41,72	674,29	0,02104	
26,20	0,2115	39,86	675,19	0,02107	
26,22	0,2125	39,18	676,02	0,02112	
26,24	0,2135	39,43	676,96	0,02123	
26,26	0,2146	38,77	677,88	0,02128	
26,28	0,2156	39,05	678,71	0,02123	
26,30	0,2167	38,92	679,64	0,02110	
26,32	0,2176	37,31	680,55	0,02101	
26,34	0,2185	37,35	681,38	0,02106	
26,36	0,2195	36,96	682,30	0,02119	
26,38	0,2206	35,60	683,17	0,02126	
26,40	0,2217	35,46	684,00	0,02130	
26,42	0,2227	34,89	684,96	0,02124	
26,44	0,2236	34,22	685,87	0,02108	
26,46	0,2246	34,96	686,73	0,02104	
26,48	0,2256	34,65	687,67	0,02102	
26,50	0,2267	33,44	688,52	0,02106	
26,52	0,2278	33,85	689,34	0,02117	
26,54	0,2288	33,24	690,30	0,02128	
26,56	0,2299	32,22	691,19	0,02126	
26,58	0,2310	32,67	692,05	0,02118	
26,60	0,2320	32,65	692,96	0,02109	
26,62	0,2329	31,52	693,84	0,02095	
26,64	0,2339	31,04	694,72	0,02100	
26,66	0,2350	30,38	695,63	0,02111	
26,68	0,2361	28,97	696,52	0,02114	
26,70	0,2373	28,64	697,36	0,02118	
26,72	0,2384	29,02	698,22	0,02113	
26,74	0,2395	28,93	699,16	0,02106	
26,76	0,2406	28,33	700,07	0,02105	
26,78	0,2416	28,10	700,92	0,02101	
26,80	0,2427	27,52	701,84	0,02100	
26,82	0,2437	27,20	702,74	0,02111	
26,84	0,2448	27,68	703,59	0,02121	
26,86	0,2460	27,40	704,50	0,02124	
26,88	0,2471	25,91	705,40	0,02111	
26,90	0,2482	25,49	706,27	0,02102	
26,92	0,2493	26,08	707,15	0,02106	
26,94	0,2503	26,05	708,02	0,02116	
26,96	0,2514	26,27	708,91	0,02121	
26,98	0,2527	25,94	709,84	0,02127	
27,00	0,2538	25,20	710,70	0,02124	
27,02	0,2549	24,52	711,56	0,02110	
27,04	0,2561	23,32	712,47	0,02091	
27,06	0,2571	22,81	713,35	0,02086	
27,08	0,2582	23,24	714,22	0,02096	
27,10	0,2594	23,03	715,14	0,02108	
27,12	0,2606	22,62	716,05	0,02118	
27,14	0,2617	22,35	716,94	0,02119	
27,16	0,2628	21,76	717,81	0,02114	
27,18	0,2640	20,33	718,68	0,02104	
27,20	0,2651	19,61	719,55	0,02102	
27,22	0,2662	19,72	720,42	0,02101	
27,24	0,2674	20,03	721,30	0,02107	
27,26	0,2684	19,67	722,21	0,02122	
27,28	0,2696	18,62	723,13	0,02132	
27,30	0,2709	18,01	724,02	0,02128	
27,32	0,2719	17,67	724,91	0,02108	
27,34	0,2730	17,58	725,83	0,02101	
27,36	0,2743	18,76	726,72	0,02106	
27,38	0,2754	20,23	727,58	0,02104	
27,40	0,2765	21,42	728,47	0,02113	
27,42	0,2777	22,47	729,42	0,02120	
27,44	0,2788	24,43	730,32	0,02115	
27,46	0,2799	26,66	731,20	0,02109	
27,48	0,2810	28,33	732,10	0,02097	
27,50	0,2822	30,26	732,96	0,02093	
27,52	0,2832	32,15	733,89	0,02101	
27,54	0,2844	34,23	734,78	0,02113	
27,56	0,2854	37,35	735,56	0,02127	
27,58	0,2864	39,56	736,54	0,02134	
27,60	0,2875	40,23	737,50	0,02127	
27,62	0,2884	43,70	738,22	0,02106	
27,64	0,2894	46,01	739,23	0,02088	
27,66	0,2904	44,83	740,42	0,02093	
27,68	0,2913	45,78	741,23	0,02107	
27,70	0,2921	48,44	741,89	0,02118	
27,72	0,2931	48,19	742,78	0,02123	
27,74	0,2940	47,50	743,68	0,02129	
27,76	0,2948	51,22	744,42	0,02125	
27,78	0,2957	52,85	745,36	0,02106	
27,80	0,2967	50,82	746,48	0,02098	
27,82	0,2975	52,73	747,25	0,02108	
27,84	0,2984	54,89	748,13	0,02120	
27,86	0,2994	52,67	749,25	0,02131	
27,88	0,3002	52,99	750,05	0,02126	
27,90	0,3010	54,73	750,84	0,02112	
27,92	0,3020	54,10	751,69	0,02106	
27,94	0,3028	54,21	752,44	0,02104	
27,96	0,3038	54,93	753,46	0,02104	
27,98	0,3047	53,36	754,52	0,02113	
28,00	0,3055	54,69	755,28	0,02122	
28,02	0,3063	56,14	756,20	0,02117	
28,04	0,3073	55,18	757,08	0,02109	
28,06	0,3081	56,46	757,72	0,02105	
28,08	0,3090	57,33	758,82	0,02100	
28,10	0,3099	54,38	760,12	0,02105	
28,12	0,3107	54,67	760,88	0,02115	
28,14	0,3115	57,38	761,44	0,02124	
28,16	0,3125	55,45	762,34	0,02125	
28,18	0,3135	53,64	763,26	0,02129	
28,20	0,3142	57,70	763,82	0,02123	
28,22	0,3150	59,09	764,74	0,02106	
28,24	0,3160	54,44	766,32	0,02100	
28,26	0,3168	52,19	767,40	0,02108	
28,28	0,3173	55,96	767,59	0,02120	
28,30	0,3180	57,99	767,98	0,02124	
28,32	0,3190	54,61	769,42	0,02124	
28,34	0,3200	51,83	771,09	0,02115	
28,36	0,3207	53,20	771,74	0,02117	
28,38	0,3213	56,43	771,86	0,02117	
28,40	0,3221	55,51	772,84	0,02112	
28,42	0,3231	51,54	774,50	0,02110	
28,44	0,3239	52,00	775,40	0,02117	
28,46	0,3243	54,96	775,44	0,02122	
28,48	0,3250	53,10	775,94	0,02109	
28,50	0,3260	48,73	777,57	0,02097	
28,52	0,3269	47,31	779,19	0,02095	
28,54	0,3273	49,76	779,68	0,02109	
28,56	0,3277	50,80	779,91	0,02120	
28,58	0,3286	46,19	781,13	0,02122	
28,60	0,3295	42,55	782,62	0,02127	
28,62	0,3300	45,20	783,18	0,02128	
28,64	0,3304	47,06	783,32	0,02116	
28,66	0,3311	42,62	784,31	0,02100	
28,68	0,3319	38,16	786,04	0,02100	
28,70	0,3325	39,47	787,06	0,02116	
28,72	0,3329	42,76	787,12	0,02126	
28,74	0,3334	42,92	787,49	0,02119	
28,76	0,3341	39,84	789,02	0,02108	
28,78	0,3350	37,87	790,75	0,02094	
28,80	0,3356	39,77	791,34	0,02097	
28,82	0,3360	42,02	791,42	0,02105	
28,84	0,3368	39,19	792,49	0,02105	
28,86	0,3376	35,29	794,16	0,02109	
28,88	0,3383	36,94	794,94	0,02119	
28,90	0,3386	41,02	794,89	0,02119	
28,92	0,3391	39,96	795,45	0,02106	
28,94	0,3399	36,02	797,21	0,02096	
28,96	0,3406	34,30	798,85	0,02100	
28,98	0,3410	37,15	799,26	0,02118	
29,00	0,3412	39,11	799,52	0,02125	
29,02	0,3419	35,09	800,84	0,02126	
29,04	0,3426	32,91	802,24	0,02122	
29,06	0,3431	37,28	802,70	0,02108	
29,08	0,3435	39,39	803,00	0,02097	
29,10	0,3441	35,07	804,16	0,02092	
29,12	0,3447	32,05	805,56	0,02098	
29,14	0,3451	35,53	806,32	0,02105	
29,16	0,3454	36,13	807,02	0,02113	
29,18	0,3460	33,51	807,70	0,02120	
29,20	0,3464	35,05	808,31	0,02109	
29,22	0,3470	37,73	809,56	0,02094	
29,24	0,3475	35,31	810,97	0,02095	
29,26	0,3480	35,32	811,66	0,02105	
29,28	0,3484	37,54	812,20	0,02112	
29,30	0,3490	36,56	813,08	0,02117	
29,32	0,3495	36,48	813,91	0,02118	
29,34	0,3498	40,27	814,62	0,02115	
29,36	0,3504	40,49	815,69	0,02110	
29,38	0,3510	38,20	816,62	0,02099	
29,40	0,3514	41,47	816,98	0,02096	
29,42	0,3518	44,82	817,91	0,02097	
29,44	0,3524	41,98	819,73	0,02103	
29,46	0,3529	39,30	820,95	0,02112	
29,48	0,3532	43,84	820,96	0,02116	
29,50	0,3535	47,26	821,22	0,02106	
29,52	0,3541	44,46	822,78	0,02095	
29,54	0,3548	41,75	824,60	0,02095	
29,56	0,3551	45,40	825,16	0,02106	
29,58	0,3553	49,37	825,15	0,02111	
29,60	0,3558	46,65	826,22	0,02123	
29,62	0,3565	43,34	828,00	0,02130	
29,64	0,3569	46,42	828,78	0,02119	
29,66	0,3571	51,74	828,65	0,02104	
29,68	0,3575	50,61	829,28	0,02094	
29,70	0,3580	46,25	831,15	0,02094	
29,72	0,3586	45,50	832,73	0,02109	
29,74	0,3588	49,32	832,96	0,02128	
29,76	0,3590	51,00	833,11	0,02136	
29,78	0,3595	47,56	834,52	0,02122	
29,80	0,3601	45,08	836,15	0,02111	
29,82	0,3603	48,81	836,55	0,02110	
29,84	0,3605	51,92	836,42	0,02115	
29,86	0,3608	48,66	837,43	0,02117	
29,88	0,3614	44,66	839,52	0,02116	
29,90	0,3619	45,22	840,85	0,02126	
29,92	0,3620	49,52	840,88	0,02125	
29,94	0,3623	49,63	841,33	0,02102	
29,96	0,3629	44,42	842,93	0,02088	
29,98	0,3634	43,69	844,13	0,02095	
30,00	0,3636	47,63	844,40	0,02108	
30,02	0,3639	46,89	844,91	0,02118	
30,04	0,3645	40,76	846,19	0,02124	
30,06	0,3649	41,22	847,05	0,02123	
30,08	0,3651	46,36	847,63	0,02118	
30,10	0,3656	43,42	849,02	0,02105	
30,12	0,3661	38,25	850,28	0,02105	
30,14	0,3665	41,48	850,33	0,02119	
30,16	0,3667	48,31	849,82	0,02127	
30,18	0,3672	48,08	849,87	0,02128	
30,20	0,3677	49,29	849,96	0,02136	
30,22	0,3679	57,59	849,69	0,02132	
30,24	0,3683	60,93	849,78	0,02113	
30,26	0,3688	59,30	849,90	0,02111	
30,28	0,3691	63,28	849,65	0,02122	
30,30	0,3695	67,85	849,77	0,02127	
30,32	0,3700	67,69	850,01	0,02130	
30,34	0,3701	71,46	849,78	0,02130	
30,36	0,3703	76,49	849,72	0,02123	
30,38	0,3708	75,45	849,94	0,02118	
30,40	0,3710	76,67	849,78	0,02118	
30,42	0,3713	81,50	849,67	0,02116	
30,44	0,3718	80,87	849,96	0,02121	
30,46	0,3721	80,43	849,89	0,02139	
30,48	0,3722	85,19	849,67	0,02142	
30,50	0,3726	85,04	849,89	0,02131	
30,52	0,3729	83,61	849,89	0,02118	
30,54	0,3730	88,43	849,63	0,02109	
30,56	0,3734	89,47	849,88	0,02105	
30,58	0,3737	86,47	850,05	0,02114	
30,60	0,3738	89,69	849,76	0,02132	
30,62	0,3742	92,08	849,77	0,02136	
30,64	0,3745	89,75	849,89	0,02130	
30,66	0,3747	92,08	849,68	0,02123	
30,68	0,3749	95,26	849,73	0,02112	
30,70	0,3752	92,89	849,90	0,02110	
30,72	0,3753	93,65	849,66	0,02133	
30,74	0,3756	96,92	849,68	0,02139	
30,76	0,3759	94,78	850,00	0,02142	
30,78	0,3761	94,91	849,87	0,02143	
30,80	0,3762	98,81	849,68	0,02133	
30,82	0,3765	97,09	849,87	0,02119	
30,84	0,3768	95,97	849,79	0,02113	
30,86	0,3769	99,56	849,62	0,02116	
30,88	0,3772	98,57	849,91	0,02122	
30,90	0,3775	96,83	849,94	0,02139	
30,92	0,3775	101,61	849,64	0,02152	
30,94	0,3779	102,23	849,80	0,02143	
30,96	0,3783	98,64	850,00	0,02128	
30,98	0,3783	100,91	849,73	0,02119	
31,00	0,3784	103,38	849,72	0,02114	
31,02	0,3788	100,11	849,97	0,02125	
31,04	0,3790	101,10	849,79	0,02132	
31,06	0,3792	105,24	849,66	0,02130	
31,08	0,3796	103,26	849,89	0,02128	
31,10	0,3797	102,55	849,79	0,02122	
31,12	0,3797	105,78	849,64	0,02111	
31,14	0,3801	103,80	849,87	0,02104	
31,16	0,3804	101,44	849,85	0,02115	
31,18	0,3804	105,01	849,62	0,02131	
31,20	0,3808	104,82	849,88	0,02133	
31,22	0,3811	102,20	850,03	0,02133	
31,24	0,3810	105,73	849,73	0,02125	
31,26	0,3813	107,04	849,72	0,02117	
31,28	0,3817	103,51	849,91	0,02122	
31,30	0,3817	104,99	849,69	0,02132	
31,32	0,3819	108,23	849,66	0,02135	
31,34	0,3823	104,94	849,98	0,02138	
31,36	0,3824	104,19	849,87	0,02142	
31,38	0,3824	108,59	849,67	0,02131	
31,40	0,3828	106,75	849,90	0,02117	
31,42	0,3830	104,01	849,88	0,02113	
31,44	0,3829	108,33	849,66	0,02117	
31,46	0,3833	108,90	849,95	0,02123	
31,48	0,3836	105,89	850,10	0,02133	
31,50	0,3836	108,49	849,76	0,02140	
31,52	0,3838	110,00	849,78	0,02134	
31,54	0,3842	106,15	849,99	0,02122	
31,56	0,3843	107,33	849,78	0,02111	
31,58	0,3844	110,43	849,71	0,02099	
31,60	0,3849	107,36	849,90	0,02108	
31,62	0,3850	107,31	849,72	0,02128	
31,64	0,3850	111,26	849,67	0,02131	
31,66	0,3854	109,67	849,93	0,02139	
31,68	0,3856	108,57	849,79	0,02136	
31,70	0,3856	111,83	849,67	0,02114	
31,72	0,3859	110,27	849,97	0,02100	
31,74	0,3862	108,21	849,92	0,02109	
31,76	0,3863	111,48	849,68	0,02119	
31,78	0,3865	110,34	849,83	0,02122	
31,80	0,3868	107,81	849,81	0,02125	
31,82	0,3869	111,38	849,60	0,02122	
31,84	0,3871	111,50	849,81	0,02111	
31,86	0,3874	108,61	849,91	0,02100	
31,88	0,3875	111,02	849,65	0,02103	
31,90	0,3877	112,10	849,77	0,02111	
31,92	0,3879	109,15	849,91	0,02112	
31,94	0,3881	111,23	849,65	0,02117	
31,96	0,3883	113,35	849,71	0,02115	
31,98	0,3885	110,11	849,96	0,02102	
32,00	0,3886	110,98	849,75	0,02087	
32,02	0,3889	114,33	849,69	0,02086	
32,04	0,3891	111,57	849,96	0,02098	
32,06	0,3892	110,86	849,83	0,02117	
32,08	0,3894	114,14	849,64	0,02134	
32,10	0,3898	112,10	849,88	0,02136	
32,12	0,3898	110,15	849,87	0,02127	
32,14	0,3897	114,63	849,60	0,02113	
32,16	0,3902	115,06	849,80	0,02103	
32,18	0,3905	112,31	849,96	0,02111	
32,20	0,3904	115,15	849,69	0,02124	
32,22	0,3905	116,12	849,79	0,02133	
32,24	0,3909	111,57	850,04	0,02141	
32,26	0,3910	112,36	849,82	0,02134	
32,28	0,3911	115,62	849,74	0,02114	
32,30	0,3914	113,24	849,92	0,02104	
32,32	0,3916	112,64	849,73	0,02108	
32,34	0,3917	115,97	849,63	0,02116	
32,36	0,3919	114,05	849,96	0,02127	
32,38	0,3921	112,08	849,93	0,02140	
32,40	0,3922	115,91	849,67	0,02133	
32,42	0,3925	115,49	849,85	0,02113	
32,44	0,3926	112,70	849,87	0,02100	
32,46	0,3928	115,95	849,61	0,02102	
32,48	0,3931	116,08	849,83	0,02111	
32,50	0,3932	112,40	850,03	0,02120	
32,52	0,3932	114,47	849,75	0,02125	
32,54	0,3935	116,94	849,71	0,02128	
32,56	0,3938	113,80	849,91	0,02115	
32,58	0,3938	114,48	849,71	0,02107	
32,60	0,3939	117,38	849,68	0,02101	
32,62	0,3943	114,22	850,00	0,02106	
32,64	0,3944	113,42	849,90	0,02122	
32,66	0,3944	116,67	849,70	0,02134	
32,68	0,3946	115,13	849,88	0,02132	
32,70	0,3949	113,74	849,80	0,02120	
32,72	0,3950	117,45	849,62	0,02106	
32,74	0,3952	116,34	849,87	0,02097	
32,76	0,3955	113,63	849,90	0,02104	
32,78	0,3956	116,58	849,65	0,02111	
32,80	0,3958	116,91	849,77	0,02117	
32,82	0,3959	114,32	849,82	0,02127	
32,84	0,3958	117,21	849,60	0,02131	
32,86	0,3962	118,00	849,83	0,02119	
32,88	0,3965	114,19	850,00	0,02109	
32,90	0,3964	115,21	849,73	0,02101	
32,92	0,3965	116,88	849,80	0,02105	
32,94	0,3968	113,60	850,04	0,02117	
32,96	0,3970	114,37	849,80	0,02126	
32,98	0,3971	117,41	849,72	0,02131	
33,00	0,3973	114,22	850,00	0,02124	
33,02	0,3975	113,74	849,89	0,02114	
33,04	0,3977	117,43	849,67	0,02107	
33,06	0,3979	115,47	849,87	0,02109	
33,08	0,3979	112,94	849,84	0,02124	
33,10	0,3980	116,07	849,64	0,02130	
33,12	0,3984	115,42	849,89	0,02129	
33,14	0,3985	112,60	849,95	0,02127	
33,16	0,3984	115,92	849,67	0,02111	
33,18	0,3986	116,75	849,78	0,02098	
33,20	0,3990	113,11	849,90	0,02102	
33,22	0,3990	114,64	849,65	0,02111	
33,24	0,3992	116,01	849,74	0,02118	
33,26	0,3994	112,96	849,94	0,02126	
33,28	0,3995	114,21	849,70	0,02126	
33,30	0,3997	117,29	849,69	0,02112	
33,32	0,3999	114,17	849,99	0,02106	
33,34	0,4001	113,74	849,86	0,02103	
33,36	0,4003	117,34	849,64	0,02106	
33,38	0,4006	114,80	849,87	0,02116	
33,40	0,4006	112,10	849,88	0,02131	
33,42	0,4005	115,73	849,64	0,02132	
33,44	0,4008	115,40	849,84	0,02118	
33,46	0,4011	112,48	849,93	0,02102	
33,48	0,4011	115,72	849,65	0,02101	
33,50	0,4012	116,57	849,77	0,02097	
33,52	0,4015	112,82	849,98	0,02103	
33,54	0,4017	114,46	849,74	0,02118	
33,56	0,4018	116,89	849,69	0,02125	
33,58	0,4020	113,72	849,90	0,02124	
33,60	0,4021	114,34	849,72	0,02114	
33,62	0,4023	117,79	849,65	0,02099	
33,64	0,4026	114,89	849,94	0,02096	
33,66	0,4026	112,88	849,86	0,02113	
33,68	0,4025	116,31	849,63	0,02130	
33,70	0,4030	115,53	849,84	0,02132	
33,72	0,4032	113,04	849,86	0,02128	
33,74	0,4031	116,55	849,61	0,02119	
33,76	0,4033	116,27	849,86	0,02106	
33,78	0,4037	112,68	850,07	0,02100	
33,80	0,4037	115,04	849,79	0,02110	
33,82	0,4038	116,60	849,75	0,02116	
33,84	0,4040	113,21	849,94	0,02126	
33,86	0,4042	114,24	849,74	0,02131	
33,88	0,4044	117,50	849,69	0,02115	
33,90	0,4046	114,32	850,01	0,02103	
33,92	0,4046	112,72	849,90	0,02105	
33,94	0,4047	116,08	849,65	0,02105	
33,96	0,4051	114,35	849,85	0,02113	
33,98	0,4053	112,20	849,87	0,02129	
34,00	0,4051	116,01	849,64	0,02125	
34,02	0,4053	115,66	849,84	0,02108	
34,04	0,4057	112,63	849,91	0,02098	
34,06	0,4057	115,21	849,67	0,02097	
34,08	0,4059	116,13	849,78	0,02099	
34,10	0,4061	112,99	849,88	0,02108	
34,12	0,4062	114,78	849,64	0,02121	
34,14	0,4065	115,83	849,79	0,02129	
34,16	0,4067	112,77	849,99	0,02125	
34,18	0,4065	114,67	849,74	0,02114	
34,20	0,4068	117,06	849,72	0,02104	
34,22	0,4072	113,80	849,95	0,02101	
34,24	0,4072	114,38	849,76	0,02117	
34,26	0,4072	117,82	849,70	0,02130	
34,28	0,4074	115,03	850,00	0,02131	
34,30	0,4076	113,09	849,91	0,02124	
34,32	0,4078	116,09	849,69	0,02114	
34,34	0,4080	114,88	849,89	0,02104	
34,36	0,4081	112,78	849,85	0,02106	
34,38	0,4082	116,48	849,64	0,02110	
34,40	0,4086	116,33	849,89	0,02115	
34,42	0,4087	113,04	849,96	0,02124	
34,44	0,4085	115,75	849,70	0,02124	
34,46	0,4088	115,92	849,84	0,02115	
34,48	0,4092	112,56	849,91	0,02108	
34,50	0,4092	115,17	849,65	0,02104	
34,52	0,4093	116,37	849,83	0,02105	
34,54	0,4096	113,01	850,05	0,02114	
34,56	0,4097	114,57	849,78	0,02127	
34,58	0,4099	116,89	849,71	0,02139	
34,60	0,4101	113,82	849,88	0,02132	
34,62	0,4101	114,41	849,69	0,02114	
34,64	0,4104	116,72	849,67	0,02102	
34,66	0,4107	113,65	849,95	0,02103	
34,68	0,4106	113,19	849,83	0,02112	
34,70	0,4106	116,56	849,65	0,02113	
34,72	0,4109	114,56	849,86	0,02097	
34,74	0,4112	113,01	849,79	0,02085	
34,76	0,4112	116,59	849,60	0,02067	
34,78	0,4114	115,75	849,90	0,02035	
34,80	0,4116	112,67	849,99	0,01994	
34,82	0,4118	115,78	849,68	0,01924	
34,84	0,4120	116,79	849,75	0,01864	
34,86	0,4121	113,06	849,91	0,01855	
34,88	0,4120	114,64	849,65	0,01859	
34,90	0,4123	116,72	849,71	0,01847	
34,92	0,4127	112,40	850,07	0,01829	
34,94	0,4127	112,02	849,93	0,01812	
34,96	0,4126	116,35	849,68	0,01798	
34,98	0,4129	114,28	849,97	0,01773	
35,00	0,4133	111,32	850,04	0,01738	
35,02	0,4132	115,47	849,72	0,01704	
35,04	0,4134	115,72	849,81	0,01655	
35,06	0,4137	112,18	849,94	0,01607	
35,08	0,4138	114,30	849,68	0,01585	
35,10	0,4140	115,89	849,76	0,01589	
35,12	0,4141	112,45	850,03	0,01588	
35,14	0,4142	113,15	849,82	0,01588	
35,16	0,4144	116,80	849,69	0,01579	
35,18	0,4147	114,24	849,91	0,01554	
35,20	0,4147	113,81	849,78	0,01507	
35,22	0,4147	117,33	849,66	0,01445	
35,24	0,4151	114,90	849,92	0,01382	
35,26	0,4153	112,36	849,84	0,01375	
35,28	0,4153	115,44	849,64	0,01350	
35,30	0,4155	114,70	849,89	0,01265	
35,32	0,4158	112,24	849,93	0,01294	
35,34	0,4159	115,75	849,65	0,01657	
35,36	0,4160	116,11	849,85	0,01872	
35,38	0,4162	112,90	850,00	0,01750	
35,40	0,4163	115,84	849,73	0,01627	
35,42	0,4166	116,83	849,79	0,01589	
35,44	0,4168	112,69	849,96	0,01593	
35,46	0,4167	113,72	849,71	0,01586	
35,48	0,4169	116,46	849,72	0,01563	
35,50	0,4173	113,71	849,93	0,01543	
35,52	0,4173	113,70	849,74	0,01543	
35,54	0,4174	116,12	849,70	0,01546	
35,56	0,4177	113,57	849,98	0,01551	
35,58	0,4179	113,24	849,84	0,01551	
35,60	0,4179	116,51	849,64	0,01547	
35,62	0,4181	114,51	849,82	0,01536	
35,64	0,4183	112,95	849,74	0,01532	
35,66	0,4185	116,10	849,58	0,01520	
35,68	0,4188	114,96	849,91	0,01513	
35,70	0,4188	112,14	850,00	0,01523	
35,72	0,4186	115,53	849,69	0,01540	
35,74	0,4189	116,14	849,76	0,01539	
35,76	0,4193	112,89	849,89	0,01524	
35,78	0,4193	115,08	849,64	0,01513	
35,80	0,4194	116,23	849,75	0,01511	
35,82	0,4197	112,64	850,01	0,01517	
35,84	0,4199	113,81	849,78	0,01523	
35,86	0,4200	116,79	849,67	0,01522	
35,88	0,4201	113,79	849,95	0,01518	
35,90	0,4203	113,00	849,87	0,01516	
35,92	0,4205	116,61	849,65	0,01506	
35,94	0,4207	114,56	849,91	0,01497	
35,96	0,4208	111,87	849,97	0,01501	
35,98	0,4207	116,02	849,68	0,01514	
36,00	0,4211	116,44	849,79	0,01521	
36,02	0,4214	112,93	849,89	0,01528	
36,04	0,4213	115,10	849,63	0,01527	
36,06	0,4214	116,18	849,79	0,01508	
36,08	0,4218	112,36	850,09	0,01493	
36,10	0,4219	112,82	849,87	0,01490	
36,12	0,4220	115,98	849,70	0,01499	
36,14	0,4222	113,59	849,87	0,01507	
36,16	0,4224	113,59	849,71	0,01513	
36,18	0,4226	116,82	849,65	0,01512	
36,20	0,4228	114,01	849,99	0,01498	
36,22	0,4228	111,79	849,95	0,01482	
36,24	0,4230	115,70	849,68	0,01473	
36,26	0,4234	115,61	849,88	0,01473	
36,28	0,4235	113,08	849,94	0,01484	
36,30	0,4233	116,54	849,66	0,01497	
36,32	0,4236	116,60	849,79	0,01504	
36,34	0,4240	112,59	849,96	0,01505	
36,36	0,4240	114,28	849,70	0,01494	
36,38	0,4240	115,86	849,73	0,01477	
36,40	0,4244	112,48	849,97	0,01474	
36,42	0,4245	113,68	849,77	0,01480	
36,44	0,4246	117,35	849,72	0,01486	
36,46	0,4248	114,46	850,08	0,01490	
36,48	0,4250	113,26	850,01	0,01489	
36,50	0,4252	116,67	849,73	0,01486	
36,52	0,4254	115,34	849,84	0,01483	
36,54	0,4254	112,83	849,78	0,01481	
36,56	0,4254	115,99	849,59	0,01479	
36,58	0,4258	115,58	849,89	0,01478	
36,60	0,4261	112,58	850,02	0,01479	
36,62	0,4260	115,63	849,74	0,01483	
36,64	0,4261	116,24	849,79	0,01478	
36,66	0,4264	112,80	849,86	0,01467	
36,68	0,4265	115,23	849,62	0,01462	
36,70	0,4267	116,58	849,78	0,01461	
36,72	0,4268	113,13	850,00	0,01475	
36,74	0,4269	114,56	849,76	0,01487	
36,76	0,4272	116,90	849,75	0,01487	
36,78	0,4275	113,92	849,92	0,01473	
36,80	0,4274	114,43	849,70	0,01456	
36,82	0,4274	116,81	849,71	0,01448	
36,84	0,4279	113,86	850,03	0,01454	
36,86	0,4280	113,17	849,88	0,01463	
36,88	0,4280	116,65	849,68	0,01464	
36,90	0,4282	114,70	849,97	0,01460	
36,92	0,4285	112,80	849,98	0,01449	
36,94	0,4286	116,46	849,70	0,01436	
36,96	0,4288	115,98	849,81	0,01429	
36,98	0,4288	112,82	849,84	0,01436	
37,00	0,4289	115,72	849,59	0,01448	
37,02	0,4293	116,14	849,81	0,01449	
37,04	0,4295	112,49	850,02	0,01450	
37,06	0,4294	114,31	849,74	0,01449	
37,08	0,4295	116,95	849,74	0,01437	
37,10	0,4299	114,00	849,97	0,01424	
37,12	0,4300	114,39	849,79	0,01426	
37,14	0,4301	116,76	849,70	0,01430	
37,16	0,4303	113,77	849,89	0,01433	
37,18	0,4304	113,53	849,72	0,01436	
37,20	0,4306	116,69	849,66	0,01425	
37,22	0,4308	114,12	849,94	0,01410	
37,24	0,4309	112,50	849,86	0,01530	
37,26	0,4311	115,90	849,64	0,01685	
37,28	0,4314	115,00	849,90	0,02453	
37,30	0,4315	113,25	849,96	0,03388	
37,32	0,4313	117,00	849,68	0,03510	
37,34	0,4316	116,84	849,80	0,03498	
37,36	0,4320	113,19	849,90	0,03175	
37,38	0,4320	115,82	849,65	0,03334	
37,40	0,4321	117,30	849,76	0,03419	
37,42	0,4324	113,95	850,00	0,03500	
37,44	0,4326	115,21	849,78	0,03603	
37,46	0,4327	117,82	849,71	0,03682	
37,48	0,4329	114,74	849,89	0,03793	
37,50	0,4331	115,54	849,70	0,03952	
37,52	0,4333	119,66	849,64	0,04033	
37,54	0,4335	117,37	849,96	0,04067	
37,56	0,4335	115,79	849,88	0,04135	
37,58	0,4336	119,19	849,65	0,04191	
37,60	0,4340	117,34	849,88	0,04241	
37,62	0,4342	114,54	849,91	0,04302	
37,64	0,4341	118,37	849,72	0,04337	
37,66	0,4343	118,03	850,02	0,04277	
37,68	0,4346	115,14	850,11	0,04192	
37,70	0,4346	118,04	849,75	0,04095	
37,72	0,4348	119,55	849,78	0,03969	
37,74	0,4350	115,61	850,01	0,03893	
37,76	0,4351	117,05	849,77	0,03865	
37,78	0,4353	120,25	849,71	0,03824	
37,80	0,4355	117,31	850,01	0,03777	
37,82	0,4355	116,78	849,89	0,03772	
37,84	0,4357	120,48	849,70	0,03762	
37,86	0,4361	118,31	849,92	0,03743	
37,88	0,4362	116,06	849,87	0,03773	
37,90	0,4361	119,63	849,64	0,03835	
37,92	0,4364	119,18	849,95	0,03913	
37,94	0,4367	115,94	850,08	0,04011	
37,96	0,4367	118,92	849,75	0,04076	
37,98	0,4368	120,26	849,76	0,04075	
38,00	0,4371	116,58	849,89	0,04111	
38,02	0,4372	118,78	849,65	0,04184	
38,04	0,4374	121,60	849,75	0,04249	
38,06	0,4376	118,26	850,03	0,04304	
38,08	0,4377	118,49	849,83	0,04307	
38,10	0,4380	121,12	849,73	0,04278	
38,12	0,4382	119,02	849,85	0,04223	
38,14	0,4381	119,77	849,65	0,04131	
38,16	0,4382	122,57	849,71	0,03983	
38,18	0,4386	120,14	850,05	0,03882	
38,20	0,4388	119,03	849,91	0,03882	
38,22	0,4387	122,50	849,66	0,03846	
38,24	0,4390	120,80	849,87	0,03792	
38,26	0,4393	118,72	849,85	0,03754	
38,28	0,4394	122,24	849,63	0,03726	
38,30	0,4396	121,12	849,83	0,03684	
38,32	0,4397	118,37	849,89	0,03673	
38,34	0,4398	121,60	849,64	0,03721	
38,36	0,4401	122,02	849,76	0,03818	
38,38	0,4403	119,20	849,84	0,03971	
38,40	0,4401	121,66	849,61	0,04076	
38,42	0,4403	122,80	849,81	0,04062	
38,44	0,4407	119,55	850,08	0,04063	
38,46	0,4407	121,00	849,83	0,04114	
38,48	0,4408	123,66	849,69	0,04142	
38,50	0,4410	120,63	849,84	0,04162	
38,52	0,4412	120,86	849,67	0,04187	
38,54	0,4414	124,13	849,63	0,04173	
38,56	0,4416	121,22	850,00	0,04110	
38,58	0,4416	119,16	849,95	0,04040	
38,60	0,4416	122,97	849,67	0,03947	
38,62	0,4421	122,67	849,88	0,03850	
38,64	0,4422	119,86	849,95	0,03844	
38,66	0,4421	123,14	849,70	0,03859	
38,68	0,4423	123,44	849,82	0,03816	
38,70	0,4426	119,90	849,90	0,03780	
38,72	0,4427	121,85	849,64	0,03771	
38,74	0,4429	123,01	849,79	0,03753	
38,76	0,4430	119,76	849,99	0,03724	
38,78	0,4430	121,20	849,74	0,03680	
38,80	0,4433	123,74	849,74	0,03614	
38,82	0,4436	120,70	850,02	0,03613	
38,84	0,4435	120,88	849,85	0,03741	
38,86	0,4435	124,27	849,69	0,03884	
38,88	0,4439	121,33	849,94	0,03996	
38,90	0,4441	120,34	849,86	0,04104	
38,92	0,4441	124,80	849,66	0,04157	
38,94	0,4444	123,43	849,90	0,04174	
38,96	0,4446	120,74	849,91	0,04187	
38,98	0,4447	124,12	849,66	0,04223	
39,00	0,4449	123,56	849,80	0,04236	
39,02	0,4450	120,83	849,83	0,04249	
39,04	0,4450	123,82	849,62	0,04266	
39,06	0,4454	124,16	849,85	0,04238	
39,08	0,4456	120,46	849,99	0,04191	
39,10	0,4455	122,65	849,70	0,04128	
39,12	0,4456	123,71	849,80	0,04035	
39,14	0,4460	119,92	850,04	0,03982	
39,16	0,4461	121,03	849,80	0,03988	
39,18	0,4462	123,60	849,73	0,03969	
39,20	0,4463	120,70	849,93	0,03937	
39,22	0,4464	120,93	849,74	0,03925	
39,24	0,4467	124,12	849,67	0,03900	
39,26	0,4469	121,35	849,92	0,03868	
39,28	0,4469	120,51	849,80	0,03847	
39,30	0,4469	123,98	849,65	0,03831	
39,32	0,4473	121,92	849,88	0,03847	
39,34	0,4475	119,83	849,81	0,03930	
39,36	0,4475	122,69	849,65	0,04030	
39,38	0,4477	121,86	849,91	0,04108	
39,40	0,4480	120,29	849,89	0,04186	
39,42	0,4481	123,42	849,64	0,04251	
39,44	0,4483	122,76	849,84	0,04284	
39,46	0,4483	119,55	849,90	0,04327	
39,48	0,4484	122,33	849,65	0,04398	
39,50	0,4488	122,92	849,81	0,04454	
39,52	0,4490	119,75	849,92	0,04503	
39,54	0,4488	121,80	849,65	0,04511	
39,56	0,4489	123,03	849,78	0,04465	
39,58	0,4492	119,80	850,00	0,04407	
39,60	0,4494	121,11	849,76	0,04338	
39,62	0,4495	122,71	849,70	0,04262	
39,64	0,4497	118,59	849,90	0,04194	
39,66	0,4497	118,82	849,72	0,04178	
39,68	0,4500	122,49	849,66	0,04164	
39,70	0,4503	120,43	849,98	0,04154	
39,72	0,4503	119,71	849,89	0,04167	
39,74	0,4502	123,18	849,69	0,04167	
39,76	0,4506	121,58	849,90	0,04175	
39,78	0,4509	119,63	849,86	0,04191	
39,80	0,4508	123,06	849,62	0,04204	
39,82	0,4510	122,62	849,89	0,04176	
39,84	0,4512	119,21	850,06	0,04169	
39,86	0,4514	122,05	849,76	0,04174	
39,88	0,4516	122,90	849,78	0,04170	
39,90	0,4517	119,17	849,94	0,04179	
39,92	0,4517	120,70	849,70	0,04194	
39,94	0,4521	122,83	849,75	0,04191	
39,96	0,4523	119,88	850,00	0,04179	
39,98	0,4522	119,85	849,80	0,04183	
40,00	0,4523	122,62	849,71	0,04168	
40,02	0,4527	120,36	849,92	0,04154	
40,04	0,4529	120,17	849,76	0,04164	
40,06	0,4529	123,52	849,64	0,04177	
40,08	0,4531	121,01	849,95	0,04173	
40,10	0,4534	119,07	849,92	0,04182	
40,12	0,4535	122,52	849,67	0,04184	
40,14	0,4537	120,88	849,91	0,04166	
40,16	0,4538	117,43	849,97	0,04164	
40,18	0,4539	120,98	849,69	0,04174	
40,20	0,4542	122,00	849,81	0,04167	
40,22	0,4544	118,92	849,91	0,04172	
40,24	0,4542	120,76	849,65	0,04192	
40,26	0,4545	121,81	849,80	0,04184	
40,28	0,4549	118,92	850,01	0,04167	
40,30	0,4549	120,76	849,77	0,04165	
40,32	0,4550	122,60	849,76	0,04156	
40,34	0,4553	119,35	849,89	0,04153	
40,36	0,4554	120,27	849,66	0,04165	
40,38	0,4556	122,57	849,70	0,04168	
40,40	0,4557	119,91	849,97	0,04167	
40,42	0,4558	119,90	849,78	0,04166	
40,44	0,4561	122,76	849,69	0,04152	
40,46	0,4563	119,76	849,99	0,04143	
40,48	0,4563	118,94	849,91	0,04156	
40,50	0,4562	122,91	849,67	0,04164	
40,52	0,4566	121,20	849,84	0,04162	
40,54	0,4568	118,02	849,80	0,04167	
40,56	0,4569	121,29	849,60	0,04156	
40,58	0,4570	120,42	849,89	0,04126	
40,60	0,4573	117,26	850,03	0,04126	
40,62	0,4574	120,29	849,73	0,04141	
40,64	0,4576	121,02	849,79	0,04139	
40,66	0,4577	117,18	849,97	0,04150	
40,68	0,4578	119,49	849,71	0,04162	
40,70	0,4581	122,32	849,72	0,04144	
40,72	0,4584	118,66	850,00	0,04126	
40,74	0,4583	118,42	849,83	0,04133	
40,76	0,4583	121,70	849,66	0,04133	
40,78	0,4586	118,95	849,95	0,04126	
40,80	0,4589	117,22	849,91	0,04141	
40,82	0,4589	121,11	849,65	0,04159	
40,84	0,4590	120,10	849,86	0,04147	
40,86	0,4593	116,54	849,96	0,04135	
40,88	0,4594	119,56	849,68	0,04135	
40,90	0,4596	120,68	849,80	0,04122	
40,92	0,4598	117,08	849,95	0,04126	
40,94	0,4598	119,44	849,69	0,04143	
40,96	0,4601	122,18	849,74	0,04138	
40,98	0,4604	118,68	849,98	0,04132	
41,00	0,4603	118,90	849,77	0,04141	
41,02	0,4604	121,92	849,70	0,04128	
41,04	0,4608	118,88	849,93	0,04107	
41,06	0,4609	118,60	849,76	0,04112	
41,08	0,4610	122,29	849,68	0,04121	
41,10	0,4612	119,96	850,00	0,04122	
41,12	0,4614	118,43	849,94	0,04131	
41,14	0,4615	121,83	849,71	0,04132	
41,16	0,4617	120,36	849,83	0,04111	
41,18	0,4618	118,46	849,74	0,04102	
41,20	0,4620	121,73	849,63	0,04096	
41,22	0,4623	120,94	849,94	0,04098	
41,24	0,4624	118,45	849,94	0,04117	
41,26	0,4622	121,54	849,66	0,04130	
41,28	0,4624	121,71	849,85	0,04119	
41,30	0,4628	118,48	849,96	0,04107	
41,32	0,4629	120,77	849,68	0,04097	
41,34	0,4630	121,09	849,81	0,04083	
41,36	0,4632	117,23	850,00	0,04094	
41,38	0,4633	119,48	849,74	0,04115	
41,40	0,4636	121,61	849,72	0,04108	
41,42	0,4638	117,96	849,88	0,04107	
41,44	0,4636	118,52	849,67	0,04105	
41,46	0,4637	121,13	849,70	0,04087	
41,48	0,4641	117,69	850,02	0,04086	
41,50	0,4643	116,60	849,87	0,04102	
41,52	0,4643	120,24	849,69	0,04108	
41,54	0,4645	118,50	849,91	0,04107	
41,56	0,4648	117,20	849,86	0,04119	
41,58	0,4649	120,77	849,62	0,04108	
41,60	0,4651	119,35	849,85	0,04078	
41,62	0,4651	116,75	849,91	0,04072	
41,64	0,4652	120,20	849,64	0,04084	
41,66	0,4656	120,37	849,85	0,04074	
41,68	0,4658	116,53	850,02	0,04083	
41,70	0,4657	118,85	849,73	0,04107	
41,72	0,4657	120,51	849,73	0,04101	
41,74	0,4660	116,42	849,95	0,04080	
41,76	0,4662	116,75	849,74	0,04081	
41,78	0,4663	119,78	849,73	0,04073	
41,80	0,4665	117,24	850,05	0,04065	
41,82	0,4666	116,66	849,92	0,04087	
41,84	0,4668	120,41	849,71	0,04092	
41,86	0,4671	118,54	849,88	0,04069	
41,88	0,4671	116,31	849,78	0,04057	
41,90	0,4670	119,11	849,64	0,04047	
41,92	0,4673	117,78	849,94	0,04040	
41,94	0,4676	115,38	849,93	0,04059	
41,96	0,4676	118,79	849,68	0,04077	
41,98	0,4678	119,03	849,84	0,04073	
42,00	0,4680	116,34	849,87	0,04070	
42,02	0,4682	119,53	849,62	0,04063	
42,04	0,4684	120,02	849,85	0,04037	
42,06	0,4685	116,54	850,02	0,04029	
42,08	0,4684	118,93	849,75	0,04041	
42,10	0,4688	120,36	849,76	0,04039	
42,12	0,4691	116,70	849,87	0,04047	
42,14	0,4690	118,52	849,64	0,04059	
42,16	0,4691	120,96	849,76	0,04044	
42,18	0,4694	118,36	850,02	0,04030	
42,20	0,4695	119,14	849,79	0,04039	
42,22	0,4697	122,13	849,73	0,04038	
42,24	0,4698	118,91	850,01	0,04041	
42,26	0,4699	118,74	849,86	0,04056	
42,28	0,4702	123,15	849,68	0,04054	
42,30	0,4705	121,20	849,95	0,04042	
42,32	0,4705	119,14	849,92	0,04040	
42,34	0,4703	122,43	849,68	0,04029	
42,36	0,4705	121,25	849,87	0,04059	
42,38	0,4708	118,67	849,88	0,04151	
42,40	0,4654	122,22	849,63	0,04208	
42,42	0,3338	122,47	849,86	0,04205	
42,44	0,1258	119,19	850,03	0,04204	
42,46	0,01800	121,26	849,76	0,04205	
42,48	-0,00216	122,32	849,79	0,04188	
42,50	0,00113	119,08	849,94	0,04184	
42,52	0,00306	120,62	849,68	0,04199	
42,54	0,00308	122,63	849,69	0,04195	
42,56	0,00299	118,63	850,04	0,04184	
42,58	0,00284	118,13	849,90	0,04189	
42,60	0,00279	121,56	849,69	0,04125	
42,62	0,00309	119,57	849,89	0,04037	
42,64	0,00331	118,23	849,82	0,03997	
42,66	0,00342	122,90	849,64	0,03973	
42,68	0,00390	124,74	849,90	0,03930	
42,70	0,00474	128,47	849,92	0,03880	
42,72	0,00591	142,54	849,66	0,03808	
42,74	0,00801	159,25	849,86	0,03687	
42,76	0,01103	178,58	849,96	0,03549	
42,78	0,01470	209,58	849,68	0,03396	
42,80	0,01935	244,02	849,82	0,03220	
42,82	0,02464	278,49	850,00	0,03028	
42,84	0,03046	321,49	849,73	0,02811	
42,86	0,03733	367,02	849,75	0,02551	
42,88	0,04501	409,19	850,00	0,02246	
42,90	0,05332	456,47	849,77	0,01892	
42,92	0,06260	506,16	849,68	0,01487	
42,94	0,07276	547,47	850,00	0,01037	
42,96	0,08348	588,67	849,91	0,00547	
42,98	0,09505	631,28	849,67	0,000	
43,00	0,1077	663,43	849,92	-0,00588	
43,02	0,1210	690,31	849,94	-0,01235	
43,04	0,1351	720,28	849,66	-0,01948	
43,06	0,1500	742,58	849,87	-0,02723	
43,08	0,1655	758,01	850,00	-0,03544	
43,10	0,1818	777,97	849,71	-0,04411	
43,12	0,1992	794,02	849,82	-0,05325	
43,14	0,2173	801,91	850,03	-0,06280	
43,16	0,2359	813,59	849,78	-0,07285	
43,18	0,2557	825,14	849,74	-0,08351	
43,20	0,2763	830,01	849,93	-0,09453	
43,22	0,2974	838,25	849,73	-0,1060	
43,24	0,3194	848,15	849,74	-0,1178	
43,26	0,3425	851,61	850,07	-0,1297	
43,28	0,3661	856,91	849,96	-0,1420	
43,30	0,3905	867,25	849,72	-0,1549	
43,32	0,4159	871,51	849,95	-0,1681	
43,34	0,4420	875,20	849,98	-0,1816	
43,36	0,4687	884,96	849,70	-0,1955	
43,38	0,4964	890,76	849,79	-0,2096	
43,40	0,5248	893,43	849,85	-0,2238	
43,42	0,5539	901,66	849,61	-0,2384	
43,44	0,5840	907,54	849,82	-0,2533	
43,46	0,6150	908,33	850,11	-0,2685	
43,48	0,6466	914,80	849,88	-0,2842	
43,50	0,6789	924,27	849,70	-0,3002	
43,52	0,7122	927,18	849,91	-0,3161	
43,54	0,7462	932,56	849,84	-0,3323	
43,56	0,7810	942,26	849,64	-0,3489	
43,58	0,8169	944,97	849,92	-0,3657	
43,60	0,8534	946,64	850,04	-0,3829	
43,62	0,8904	955,73	849,72	-0,4004	
43,64	0,9285	962,09	849,72	-0,4179	
43,66	0,9674	962,44	850,01	-0,4352	
43,68	1,007	968,11	849,86	-0,4524	
43,70	1,046	976,26	849,67	-0,4694	
43,72	1,086	976,65	849,93	-0,4865	
43,74	1,126	977,48	849,97	-0,5035	
43,76	1,166	984,62	849,66	-0,5206	
43,78	1,206	987,66	849,82	-0,5376	
43,80	1,246	986,68	850,08	-0,5543	
43,82	1,286	992,31	849,84	-0,5709	
43,84	1,326	998,13	849,73	-0,5876	
43,86	1,366	996,40	850,08	-0,6042	
43,88	1,406	997,83	850,04	-0,6209	
43,90	1,446	1004,0	849,76	-0,6376	
43,92	1,486	1004,0	849,95	-0,6542	
43,94	1,526	1002,7	850,02	-0,6706	
43,96	1,566	1009,3	849,71	-0,6870	
43,98	1,606	1012,1	849,80	-0,7033	
44,00	1,646	1009,9	850,01	-0,7196	
44,02	1,686	1013,3	849,77	-0,7358	
44,04	1,726	1017,4	849,74	-0,7522	
44,06	1,766	1015,8	850,02	-0,7685	
44,08	1,806	1018,0	849,88	-0,7847	
44,10	1,846	1023,5	849,70	-0,8008	
44,12	1,886	1021,9	849,98	-0,8169	
44,14	1,926	1021,1	849,95	-0,8329	
44,16	1,966	1026,4	849,69	-0,8490	
44,18	2,006	1027,0	849,95	-0,8650	
44,20	2,046	1024,9	850,08	-0,8809	
44,22	2,086	1029,7	849,75	-0,8968	
44,24	2,126	1031,8	849,91	-0,9128	
44,26	2,166	1028,3	850,34	-0,9286	
44,28	2,206	1030,3	850,16	-0,9444	
44,30	2,246	1035,8	849,80	-0,9603	
44,32	2,286	1033,9	850,17	-0,9761	
44,34	2,326	1031,8	850,40	-0,9919	
44,36	2,366	1037,0	850,00	-1,008	
44,38	2,406	1039,7	849,87	-1,023	
44,40	2,446	1034,8	850,41	-1,039	
44,42	2,486	1034,6	850,48	-1,055	
44,44	2,526	1040,3	849,96	-1,070	
44,46	2,566	1041,7	850,00	-1,086	
44,48	2,606	1037,9	850,57	-1,102	
44,50	2,646	1039,1	850,57	-1,117	
44,52	2,686	1043,8	850,00	-1,133	
44,54	2,726	1044,6	850,03	-1,148	
44,56	2,766	1040,2	850,79	-1,164	
44,58	2,806	1040,9	850,92	-1,179	
44,60	2,846	1044,2	850,31	-1,195	
44,62	2,886	1045,9	849,85	-1,211	
44,64	2,926	1042,3	850,50	-1,226	
44,66	2,966	1042,5	850,98	-1,241	
44,68	3,006	1045,4	850,60	-1,257	
44,70	3,046	1046,9	849,91	-1,272	
44,72	3,086	1044,7	850,26	-1,288	
44,74	3,126	1043,0	851,08	-1,303	
44,76	3,166	1045,8	851,06	-1,318	
44,78	3,206	1048,5	850,35	-1,333	
44,80	3,246	1049,5	849,89	-1,349	
44,82	3,286	1046,2	850,60	-1,364	
44,84	3,326	1045,8	851,11	-1,379	
44,86	3,366	1047,8	850,72	-1,394	
44,88	3,406	1049,5	849,96	-1,409	
44,90	3,446	1047,6	850,20	-1,425	
44,92	3,486	1044,6	851,10	-1,440	
44,94	3,526	1046,2	851,20	-1,455	
44,96	3,566	1048,3	850,53	-1,470	
44,98	3,606	1049,7	849,88	-1,485	
45,00	3,646	1047,1	850,41	-1,500	
45,02	3,686	1046,2	851,08	-1,515	
45,04	3,726	1047,6	850,86	-1,530	
45,06	3,766	1049,2	850,09	-1,545	
45,08	3,806	1048,3	850,07	-1,560	
45,10	3,846	1044,8	851,00	-1,575	
45,12	3,886	1045,6	851,29	-1,590	
45,14	3,926	1047,9	850,70	-1,605	
45,16	3,966	1049,6	849,94	-1,620	
45,18	4,006	1047,7	850,38	-1,634	
45,20	4,046	1046,2	851,30	-1,649	
45,22	4,086	1047,5	851,30	-1,664	
45,24	4,126	1048,7	850,56	-1,679	
45,26	4,166	1049,9	849,89	-1,693	
45,28	4,206	1047,9	850,50	-1,708	
45,30	4,246	1046,9	851,30	-1,723	
45,32	4,286	1047,0	851,14	-1,737	
45,34	4,326	1046,5	850,34	-1,752	
45,36	4,366	1046,5	849,92	-1,766	
45,38	4,406	1045,4	850,79	-1,781	
45,40	4,446	1045,1	851,42	-1,795	
45,42	4,486	1045,4	851,05	-1,810	
45,44	4,526	1046,0	850,18	-1,824	
45,46	4,566	1045,7	850,02	-1,839	
45,48	4,606	1043,7	850,98	-1,853	
45,50	4,646	1044,0	851,40	-1,867	
45,52	4,686	1045,1	850,86	-1,882	
45,54	4,726	1046,2	850,02	-1,896	
45,56	4,766	1045,0	850,22	-1,911	
45,58	4,806	1042,9	851,23	-1,925	
45,60	4,846	1043,5	851,43	-1,939	
45,62	4,886	1043,5	850,77	-1,953	
45,64	4,926	1043,4	849,95	-1,967	
45,66	4,966	1042,0	850,23	-1,981	
45,68	5,006	1040,9	851,04	-1,995	
45,70	5,046	1041,4	851,03	-2,009	
45,72	5,086	1042,3	850,29	-2,023	
45,74	5,126	1042,4	849,98	-2,037	
45,76	5,166	1038,7	850,95	-2,051	
45,78	5,206	1038,5	851,54	-2,065	
45,80	5,246	1040,5	851,10	-2,079	
45,82	5,286	1040,8	850,22	-2,093	
45,84	5,326	1039,7	850,00	-2,107	
45,86	5,366	1037,8	850,82	-2,120	
45,88	5,406	1037,8	851,12	-2,134	
45,90	5,446	1038,6	850,53	-2,147	
45,92	5,486	1039,6	849,93	-2,161	
45,94	5,526	1036,2	850,72	-2,174	
45,96	5,566	1034,6	851,62	-2,188	
45,98	5,606	1035,9	851,45	-2,201	
46,00	5,646	1036,1	850,62	-2,215	
46,02	5,686	1036,6	849,90	-2,228	
46,04	5,726	1035,7	850,53	-2,241	
46,06	5,766	1034,0	851,39	-2,254	
46,08	5,806	1032,6	851,25	-2,267	
46,10	5,846	1032,2	850,43	-2,281	
46,12	5,886	1032,6	849,94	-2,294	
46,14	5,926	1030,6	850,76	-2,307	
46,16	5,966	1030,1	851,39	-2,320	
46,18	6,006	1029,7	851,03	-2,333	
46,20	6,046	1029,5	850,18	-2,346	
46,22	6,086	1028,8	850,04	-2,359	
46,24	6,126	1025,8	851,10	-2,372	
46,26	6,166	1025,0	851,57	-2,384	
46,28	6,206	1025,2	851,03	-2,397	
46,30	6,246	1026,0	850,13	-2,410	
46,32	6,286	1025,7	850,11	-2,422	
46,34	6,326	1024,2	851,05	-2,435	
46,36	6,366	1023,5	851,29	-2,447	
46,38	6,406	1022,7	850,64	-2,459	
46,40	6,446	1023,0	849,93	-2,472	
46,42	6,486	1020,1	850,63	-2,484	
46,44	6,526	1017,7	851,65	-2,496	
46,46	6,566	1017,9	851,59	-2,508	
46,48	6,606	1018,4	850,78	-2,520	
46,50	6,646	1018,0	849,96	-2,532	
46,52	6,686	1016,8	850,37	-2,544	
46,54	6,726	1015,4	851,29	-2,556	
46,56	6,766	1013,6	851,27	-2,568	
46,58	6,806	1012,5	850,50	-2,579	
46,60	6,846	1012,6	849,95	-2,591	
46,62	6,886	1009,4	850,80	-2,603	
46,64	6,926	1008,5	851,58	-2,614	
46,66	6,966	1009,0	851,29	-2,626	
46,68	7,006	1008,8	850,42	-2,637	
46,70	7,046	1007,8	849,94	-2,648	
46,72	7,086	1005,6	850,80	-2,659	
46,74	7,126	1004,7	851,44	-2,670	
46,76	7,166	1004,0	851,06	-2,681	
46,78	7,206	1003,3	850,19	-2,692	
46,80	7,246	1001,9	850,02	-2,703	
46,82	7,286	998,96	850,84	-2,714	
46,84	7,326	998,22	851,10	-2,724	
46,86	7,366	998,48	850,49	-2,735	
46,88	7,406	999,09	849,89	-2,745	
46,90	7,446	994,29	850,84	-2,756	
46,92	7,486	991,42	851,89	-2,766	
46,94	7,526	992,27	851,75	-2,776	
46,96	7,566	992,19	850,89	-2,786	
46,98	7,606	991,19	850,00	-2,796	
47,00	7,646	990,23	850,32	-2,806	
47,02	7,686	987,80	851,26	-2,816	
47,04	7,726	985,73	851,31	-2,825	
47,06	7,766	984,29	850,57	-2,834	
47,08	7,806	983,47	849,96	-2,844	
47,10	7,846	979,77	850,79	-2,853	
47,12	7,886	977,32	851,63	-2,862	
47,14	7,926	977,32	851,39	-2,871	
47,16	7,966	976,65	850,51	-2,880	
47,18	8,006	975,48	849,98	-2,888	
47,20	8,046	972,62	850,90	-2,897	
47,22	8,086	970,35	851,67	-2,905	
47,24	8,126	968,82	851,34	-2,913	
47,26	8,166	967,62	850,43	-2,921	
47,28	8,206	966,50	849,95	-2,929	
47,30	8,246	963,43	850,80	-2,937	
47,32	8,286	961,38	851,41	-2,945	
47,34	8,326	959,70	851,01	-2,953	
47,36	8,366	958,19	850,14	-2,960	
47,38	8,406	955,31	850,21	-2,967	
47,40	8,446	950,51	851,39	-2,975	
47,42	8,486	948,88	851,79	-2,981	
47,44	8,526	947,58	851,18	-2,988	
47,46	8,566	945,41	850,23	-2,994	
47,48	8,606	943,26	850,09	-3,001	
47,50	8,646	940,03	851,25	-3,007	
47,52	8,686	936,73	851,79	-3,013	
47,54	8,726	934,13	851,26	-3,019	
47,56	8,766	931,69	850,31	-3,024	
47,58	8,806	929,74	850,01	-3,029	
47,60	8,846	926,64	850,91	-3,035	
47,62	8,886	923,27	851,35	-3,040	
47,64	8,926	920,60	850,82	-3,045	
47,66	8,966	918,56	850,00	-3,049	
47,68	9,006	913,86	850,46	-3,054	
47,70	9,046	908,15	851,65	-3,059	
47,72	9,086	904,90	851,83	-3,063	
47,74	9,126	901,73	851,11	-3,066	
47,76	9,166	898,31	850,15	-3,070	
47,78	9,206	894,87	850,12	-3,073	
47,80	9,246	889,65	851,29	-3,077	
47,82	9,286	883,79	851,79	-3,080	
47,84	9,326	878,71	851,26	-3,083	
47,86	9,366	873,82	850,35	-3,084	
47,88	9,406	864,56	849,93	-3,083	
47,90	9,444	846,47	850,69	-3,083	
47,92	9,474	818,99	851,19	-3,082	
47,94	9,490	785,03	850,76	-3,081	
47,96	9,497	748,63	849,98	-3,081	
47,98	9,500	710,49	850,35	-3,080	
48,00	9,502	675,60	851,45	-3,080	
48,02	9,502	648,62	851,63	-3,079	
48,04	9,503	625,23	850,93	-3,079	
48,06	9,503	604,55	850,06	-3,078	
48,08	9,503	585,52	850,40	-3,078	
48,10	9,503	567,75	851,49	-3,078	
48,12	9,503	552,69	851,67	-3,078	
48,14	9,503	539,13	850,99	-3,077	
48,16	9,503	526,64	850,09	-3,077	
48,18	9,503	515,46	850,23	-3,077	
48,20	9,503	504,08	851,44	-3,077	
48,22	9,503	493,50	851,85	-3,077	
48,24	9,503	483,54	851,27	-3,076	
48,26	9,503	474,38	850,34	-3,076	
48,28	9,503	466,61	849,94	-3,076	
48,30	9,503	459,05	850,88	-3,076	
48,32	9,503	450,83	851,53	-3,076	
48,34	9,503	443,27	851,14	-3,076	
48,36	9,503	436,74	850,27	-3,075	
48,38	9,503	431,11	850,02	-3,075	
48,40	9,503	424,34	851,10	-3,075	
48,42	9,503	418,41	851,71	-3,075	
48,44	9,503	412,87	851,26	-3,075	
48,46	9,503	409,19	850,36	-3,075	
48,48	9,503	408,43	849,97	-3,075	
48,50	9,503	407,28	851,00	-3,075	
48,52	9,503	406,93	851,74	-3,074	
48,54	9,503	407,18	851,39	-3,074	
48,56	9,503	407,48	850,50	-3,074	
48,58	9,503	408,36	849,90	-3,074	
48,60	9,503	407,50	850,77	-3,074	
48,62	9,503	406,89	851,70	-3,074	
48,64	9,503	407,12	851,53	-3,074	
48,66	9,503	407,37	850,70	-3,073	
48,68	9,503	408,23	849,93	-3,073	
48,70	9,503	407,64	850,55	-3,073	
48,72	9,503	406,85	851,65	-3,073	
48,74	9,503	407,00	851,71	-3,073	
48,76	9,503	407,27	850,97	-3,073	
48,78	9,503	407,91	850,06	-3,073	
48,80	9,503	408,08	850,13	-3,073	
48,82	9,503	407,19	851,32	-3,073	
48,84	9,503	407,09	851,77	-3,073	
48,86	9,503	407,32	851,20	-3,073	
48,88	9,503	407,79	850,27	-3,072	
48,90	9,503	408,25	850,03	-3,072	
48,92	9,503	406,53	851,07	-3,072	
48,94	9,503	380,33	851,61	-3,072	
48,96	9,503	333,60	851,13	-3,072	
48,98	9,503	306,06	850,22	-3,072	
49,00	9,503	298,51	849,26	-3,072	
49,02	9,503	301,81	848,32	-3,072	
49,04	9,503	308,24	847,38	-3,071	
49,06	9,503	313,25	846,45	-3,071	
49,08	9,503	317,16	845,51	-3,071	
49,10	9,503	321,25	844,58	-3,071	
49,12	9,503	325,88	843,66	-3,070	
49,14	9,503	330,93	842,74	-3,070	
49,16	9,503	335,99	841,82	-3,070	
49,18	9,503	341,06	840,90	-3,070	
49,20	9,503	346,06	839,99	-3,069	
49,22	9,503	351,04	839,07	-3,069	
49,24	9,503	356,07	838,14	-3,069	
49,26	9,503	361,15	837,22	-3,069	
49,28	9,503	365,42	836,30	-3,069	
49,30	9,503	369,55	835,40	-3,068	
49,32	9,503	373,82	834,50	-3,068	
49,34	9,503	378,23	833,59	-3,068	
49,36	9,503	382,76	832,69	-3,068	
49,38	9,503	387,03	831,81	-3,068	
49,40	9,503	390,95	830,93	-3,067	
49,42	9,503	395,08	830,05	-3,067	
49,44	9,503	398,91	829,17	-3,067	
49,46	9,503	402,37	828,28	-3,067	
49,48	9,503	406,33	827,41	-3,067	
49,50	9,503	410,50	826,53	-3,066	
49,52	9,503	414,18	825,66	-3,066	
49,54	9,503	417,59	824,77	-3,066	
49,56	9,503	420,97	823,87	-3,066	
49,58	9,503	424,29	822,97	-3,066	
49,60	9,503	427,67	822,09	-3,065	
49,62	9,503	431,10	821,21	-3,065	
49,64	9,503	434,46	820,35	-3,065	
49,66	9,503	437,78	819,47	-3,065	
49,68	9,503	441,11	818,59	-3,065	
49,70	9,503	444,45	817,71	-3,064	
49,72	9,503	447,76	816,84	-3,064	
49,74	9,503	450,46	815,97	-3,064	
49,76	9,503	453,07	815,14	-3,064	
49,78	9,503	455,92	814,31	-3,064	
49,80	9,503	458,52	813,47	-3,063	
49,82	9,503	461,30	812,62	-3,063	
49,84	9,503	463,86	811,75	-3,063	
49,86	9,503	466,32	810,91	-3,063	
49,88	9,503	468,61	810,08	-3,062	
49,90	9,503	470,76	809,26	-3,062	
49,92	9,503	472,97	808,41	-3,062	
49,94	9,503	475,22	807,56	-3,062	
49,96	9,503	477,44	806,72	-3,061	
49,98	9,503	479,70	805,88	-3,061	
50,00	9,503	481,94	805,05	-3,061	
50,02	9,503	483,92	804,23	-3,061	
50,04	9,503	485,00	803,40	-3,061	
50,06	9,503	486,44	802,55	-3,060	
50,08	9,503	487,95	801,71	-3,060	
50,10	9,503	489,81	800,89	-3,060	
50,12	9,503	491,13	800,07	-3,060	
50,14	9,503	491,87	799,24	-3,059	
50,16	9,503	493,31	798,42	-3,059	
50,18	9,503	494,56	797,60	-3,059	
50,20	9,503	495,05	796,77	-3,058	
50,22	9,503	495,94	795,95	-3,058	
50,24	9,503	497,43	795,15	-3,058	
50,26	9,503	498,29	794,34	-3,058	
50,28	9,503	498,44	793,54	-3,058	
50,30	9,503	498,31	792,75	-3,057	
50,32	9,503	498,30	791,95	-3,057	
50,34	9,503	499,15	791,16	-3,057	
50,36	9,503	500,69	790,37	-3,056	
50,38	9,503	501,54	789,58	-3,056	
50,40	9,503	501,74	788,80	-3,056	
50,42	9,503	501,71	788,03	-3,056	
50,44	9,503	501,50	787,27	-3,056	
50,46	9,503	500,17	786,51	-3,055	
50,48	9,503	498,87	785,75	-3,055	
50,50	9,503	498,40	784,99	-3,055	
50,52	9,503	498,37	784,23	-3,055	
50,54	9,503	498,34	783,48	-3,055	
50,56	9,503	498,25	782,74	-3,054	
50,58	9,503	498,20	781,98	-3,054	
50,60	9,503	497,41	781,22	-3,054	
50,62	9,503	495,90	780,47	-3,054	
50,64	9,503	495,10	779,73	-3,053	
50,66	9,503	494,95	778,97	-3,053	
50,68	9,503	494,13	778,22	-3,053	
50,70	9,503	492,62	777,48	-3,053	
50,72	9,503	491,57	776,75	-3,053	
50,74	9,503	490,04	776,01	-3,052	
50,76	9,503	488,77	775,28	-3,052	
50,78	9,503	487,52	774,54	-3,052	
50,80	9,503	485,96	773,81	-3,052	
50,82	9,503	484,84	773,06	-3,052	
50,84	9,503	483,29	772,32	-3,051	
50,86	9,503	481,75	771,59	-3,051	
50,88	9,503	479,93	770,87	-3,051	
50,90	9,503	478,37	770,15	-3,051	
50,92	9,503	476,51	769,44	-3,051	
50,94	9,503	474,91	768,74	-3,051	
50,96	9,503	473,09	768,06	-3,050	
50,98	9,503	470,99	767,39	-3,050	
51,00	9,503	468,81	766,71	-3,050	
51,02	9,503	466,51	766,02	-3,050	
51,04	9,503	464,76	765,34	-3,050	
51,06	9,503	462,92	764,66	-3,050	
51,08	9,503	460,85	763,99	-3,049	
51,10	9,503	458,69	763,31	-3,049	
51,12	9,503	456,44	762,63	-3,049	
51,14	9,503	454,16	761,97	-3,049	
51,16	9,503	451,42	761,32	-3,049	
51,18	9,503	449,09	760,67	-3,049	
51,20	9,503	447,30	760,01	-3,049	
51,22	9,503	445,30	759,35	-3,049	
51,24	9,503	443,06	758,69	-3,048	
51,26	9,503	440,79	758,03	-3,048	
51,28	9,503	438,54	757,37	-3,048	
51,30	9,503	436,06	756,71	-3,048	
51,32	9,503	433,29	756,07	-3,048	
51,34	9,503	430,74	755,44	-3,048	
51,36	9,503	427,94	754,80	-3,048	
51,38	9,503	425,28	754,17	-3,048	
51,40	9,503	422,86	753,54	-3,048	
51,42	9,503	420,59	752,91	-3,047	
51,44	9,503	418,42	752,28	-3,047	
51,46	9,503	415,97	751,65	-3,047	
51,48	9,503	413,15	751,03	-3,047	
51,50	9,503	410,62	750,40	-3,047	
51,52	9,503	407,82	749,80	-3,047	
51,54	9,503	405,22	749,22	-3,047	
51,56	9,503	402,65	748,64	-3,047	
51,58	9,503	399,86	748,06	-3,047	
51,60	9,503	397,33	747,50	-3,047	
51,62	9,503	394,52	746,94	-3,047	
51,64	9,503	391,85	746,38	-3,047	
51,66	9,503	389,22	745,81	-3,047	
51,68	9,503	386,40	745,25	-3,047	
51,70	9,503	383,81	744,70	-3,046	
51,72	9,503	380,99	744,13	-3,046	
51,74	9,503	378,34	743,54	-3,046	
51,76	9,503	375,94	742,98	-3,046	
51,78	9,503	373,71	742,43	-3,046	
51,80	9,503	371,00	741,90	-3,046	
51,82	9,503	368,38	741,40	-3,046	
51,84	9,503	365,97	740,90	-3,046	
51,86	9,503	363,67	740,41	-3,046	
51,88	9,503	360,90	739,94	-3,046	
51,90	9,503	357,65	739,46	-3,046	
51,92	9,503	354,23	738,98	-3,046	
51,94	9,503	351,39	738,49	-3,046	
51,96	9,503	348,74	738,00	-3,046	
51,98	9,503	345,72	737,52	-3,046	
52,00	9,503	342,70	737,05	-3,046	
52,02	9,503	340,13	736,60	-3,047	
52,04	9,503	337,28	736,14	-3,047	
52,06	9,503	334,05	735,69	-3,047	
52,08	9,503	330,65	735,26	-3,047	
52,10	9,503	327,29	734,85	-3,047	
52,12	9,503	324,02	734,43	-3,047	
52,14	9,503	321,25	734,03	-3,047	
52,16	9,503	318,88	733,63	-3,047	
52,18	9,503	316,54	733,25	-3,048	
52,20	9,503	313,64	732,87	-3,048	
52,22	9,503	310,15	732,50	-3,048	
52,24	9,503	306,00	732,14	-3,048	
52,26	9,503	301,52	731,79	-3,048	
52,28	9,503	297,32	731,45	-3,049	
52,30	9,503	293,50	731,10	-3,049	
52,32	9,503	289,32	730,78	-3,049	
52,34	9,503	285,35	730,48	-3,050	
52,36	9,503	281,25	730,19	-3,050	
52,38	9,503	277,21	729,91	-3,050	
52,40	9,503	273,38	729,64	-3,050	
52,42	9,503	269,17	729,37	-3,051	
52,44	9,503	265,18	729,10	-3,051	
52,46	9,503	261,10	728,84	-3,052	
52,48	9,503	256,79	728,60	-3,052	
52,50	9,503	252,31	728,38	-3,052	
52,52	9,503	247,82	728,16	-3,053	
52,54	9,503	243,42	727,94	-3,053	
52,56	9,503	238,92	727,73	-3,053	
52,58	9,503	234,14	727,53	-3,054	
52,60	9,503	229,15	727,34	-3,054	
52,62	9,503	224,20	727,15	-3,055	
52,64	9,503	219,13	726,98	-3,055	
52,66	9,503	214,10	726,81	-3,056	
52,68	9,503	208,48	726,64	-3,056	
52,70	9,503	203,35	726,49	-3,057	
52,72	9,503	198,15	726,35	-3,057	
52,74	9,503	193,16	726,22	-3,058	
52,76	9,503	187,81	726,09	-3,058	
52,78	9,503	182,36	725,95	-3,059	
52,80	9,503	177,24	725,83	-3,059	
52,82	9,503	171,66	725,72	-3,060	
52,84	9,503	166,51	725,60	-3,060	
52,86	9,503	161,07	725,51	-3,061	
52,88	9,503	155,59	725,41	-3,061	
52,90	9,503	150,43	725,30	-3,062	
52,92	9,503	144,78	725,19	-3,062	
52,94	9,503	139,61	725,08	-3,063	
52,96	9,503	134,25	724,97	-3,063	
52,98	9,503	128,77	724,85	-3,064	
53,00	9,503	123,54	724,74	-3,064	
53,02	9,503	117,87	724,65	-3,065	
53,04	9,503	112,62	724,54	-3,065	
53,06	9,503	107,44	724,43	-3,066	
53,08	9,503	102,49	724,33	-3,066	
53,10	9,503	97,22	724,24	-3,067	
53,12	9,503	92,23	724,15	-3,067	
53,14	9,503	87,62	724,05	-3,068	
53,16	9,503	83,14	723,96	-3,068	
53,18	9,503	78,93	723,87	-3,069	
53,20	9,503	75,07	723,75	-3,069	