Zeit  1 - Standardmessrate [s]	ZwickWeg [mm]	ZwickKraft [N]	Pyrometer [°C]	Maytec [mm]
0	-0,03084	155,28	150,10	0,01109	
0,02000	-0,03085	156,54	150,09	0,01108	
0,04000	-0,03083	156,98	150,10	0,01091	
0,06000	-0,03083	156,97	150,10	0,01077	
0,08000	-0,03082	156,86	150,10	0,01077	
0,1000	-0,03082	156,58	150,10	0,01085	
0,1200	-0,03081	155,17	150,10	0,01097	
0,1400	-0,03081	153,91	150,11	0,01102	
0,1600	-0,03081	153,76	150,11	0,01104	
0,1800	-0,03082	155,14	150,11	0,01098	
0,2000	-0,03081	156,48	150,10	0,01085	
0,2200	-0,03081	156,95	150,10	0,01074	
0,2400	-0,03080	156,93	150,10	0,01070	
0,2600	-0,03078	156,92	150,10	0,01076	
0,2800	-0,03078	156,94	150,10	0,01087	
0,3000	-0,03079	156,88	150,10	0,01093	
0,3200	-0,03080	156,05	150,10	0,01095	
0,3400	-0,03080	154,56	150,10	0,01086	
0,3600	-0,03080	154,26	150,10	0,01081	
0,3800	-0,03081	154,19	150,11	0,01078	
0,4000	-0,03081	153,82	150,11	0,01077	
0,4200	-0,03082	153,63	150,10	0,01086	
0,4400	-0,03081	153,57	150,10	0,01099	
0,4600	-0,03080	153,52	150,10	0,01109	
0,4800	-0,03081	153,46	150,10	0,01106	
0,5000	-0,03083	153,46	150,09	0,01093	
0,5200	-0,03081	153,44	150,09	0,01076	
0,5400	-0,03080	153,48	150,09	0,01068	
0,5600	-0,03081	153,53	150,09	0,01072	
0,5800	-0,03080	153,49	150,10	0,01087	
0,6000	-0,03080	153,76	150,10	0,01101	
0,6200	-0,03078	155,12	150,10	0,01108	
0,6400	-0,03079	155,51	150,10	0,01102	
0,6600	-0,03081	154,38	150,10	0,01086	
0,6800	-0,03082	153,52	150,10	0,01078	
0,7000	-0,03081	153,34	150,10	0,01077	
0,7200	-0,03081	153,43	150,10	0,01088	
0,7400	-0,03082	153,54	150,11	0,01098	
0,7600	-0,03084	154,37	150,11	0,01099	
0,7800	-0,03084	155,79	150,10	0,01097	
0,8000	-0,03082	156,55	150,10	0,01092	
0,8200	-0,03082	156,81	150,10	0,01086	
0,8400	-0,03080	156,89	150,09	0,01079	
0,8600	-0,03079	156,88	150,09	0,01081	
0,8800	-0,03080	156,79	150,09	0,01091	
0,9000	-0,03081	156,76	150,09	0,01103	
0,9200	-0,03082	156,80	150,10	0,01114	
0,9400	-0,03082	156,61	150,10	0,01109	
0,9600	-0,03082	155,83	150,10	0,01091	
0,9800	-0,03081	154,69	150,10	0,01074	
1,000	-0,03080	153,85	150,10	0,01069	
1,020	-0,03081	153,61	150,10	0,01079	
1,040	-0,03082	153,59	150,10	0,01088	
1,060	-0,03083	153,57	150,10	0,01096	
1,080	-0,03083	153,57	150,10	0,01097	
1,100	-0,03083	153,56	150,10	0,01092	
1,120	-0,03082	153,47	150,10	0,01083	
1,140	-0,03081	153,44	150,10	0,01078	
1,160	-0,03081	153,45	150,10	0,01077	
1,180	-0,03080	153,73	150,10	0,01085	
1,200	-0,03080	155,12	150,09	0,01095	
1,220	-0,03080	156,36	150,10	0,01105	
1,240	-0,03080	156,83	150,09	0,01104	
1,260	-0,03082	156,91	150,09	0,01095	
1,280	-0,03082	156,65	150,09	0,01081	
1,300	-0,03082	155,32	150,09	0,01074	
1,320	-0,03082	154,09	150,09	0,01067	
1,340	-0,03082	153,65	150,09	0,01075	
1,360	-0,03081	153,63	150,09	0,01094	
1,380	-0,03082	154,47	150,09	0,01112	
1,400	-0,03083	155,12	150,09	0,01111	
1,420	-0,03083	154,34	150,09	0,01099	
1,440	-0,03082	153,62	150,09	0,01084	
1,460	-0,03082	153,47	150,10	0,01071	
1,480	-0,03082	153,52	150,10	0,01068	
1,500	-0,03081	153,53	150,10	0,01079	
1,520	-0,03080	153,51	150,11	0,01094	
1,540	-0,03082	153,50	150,11	0,01105	
1,560	-0,03083	153,47	150,10	0,01112	
1,580	-0,03083	153,53	150,10	0,01109	
1,600	-0,03082	153,53	150,10	0,01093	
1,620	-0,03081	153,51	150,10	0,01079	
1,640	-0,03080	153,53	150,10	0,01073	
1,660	-0,03080	153,59	150,10	0,01076	
1,680	-0,03079	153,60	150,10	0,01091	
1,700	-0,03078	153,57	150,10	0,01101	
1,720	-0,03079	153,51	150,09	0,01105	
1,740	-0,03079	153,48	150,10	0,01098	
1,760	-0,03080	153,48	150,10	0,01082	
1,780	-0,03081	153,50	150,10	0,01075	
1,800	-0,03080	153,61	150,11	0,01082	
1,820	-0,03080	153,64	150,11	0,01092	
1,840	-0,03080	153,59	150,10	0,01100	
1,860	-0,03077	153,46	150,10	0,01107	
1,880	-0,03076	153,41	150,10	0,01106	
1,900	-0,03077	153,36	150,09	0,01092	
1,920	-0,03080	153,37	150,09	0,01081	
1,940	-0,03080	153,39	150,09	0,01081	
1,960	-0,03079	154,00	150,09	0,01088	
1,980	-0,03078	154,18	150,10	0,01092	
2,000	-0,03078	153,79	150,10	0,01101	
2,020	-0,03078	153,51	150,10	0,01105	
2,040	-0,03077	153,41	150,09	0,01096	
2,060	-0,03076	153,36	150,09	0,01086	
2,080	-0,03076	153,32	150,10	0,01079	
2,100	-0,03077	153,46	150,10	0,01080	
2,120	-0,03077	154,45	150,10	0,01084	
2,140	-0,03077	155,66	150,10	0,01094	
2,160	-0,03078	154,99	150,10	0,01102	
2,180	-0,03078	153,86	150,10	0,01099	
2,200	-0,03077	153,39	150,10	0,01089	
2,220	-0,03077	153,32	150,10	0,01076	
2,240	-0,03077	153,33	150,10	0,01073	
2,260	-0,03078	153,36	150,10	0,01077	
2,280	-0,03079	153,42	150,10	0,01086	
2,300	-0,03080	153,48	150,09	0,01093	
2,320	-0,03079	153,44	150,09	0,01096	
2,340	-0,03079	153,40	150,10	0,01094	
2,360	-0,03078	153,34	150,09	0,01083	
2,380	-0,03078	153,24	150,09	0,01075	
2,400	-0,03078	153,26	150,09	0,01075	
2,420	-0,03078	153,34	150,09	0,01080	
2,440	-0,03078	153,38	150,10	0,01089	
2,460	-0,03078	153,46	150,10	0,01097	
2,480	-0,03078	153,49	150,10	0,01102	
2,500	-0,03077	153,76	150,11	0,01094	
2,520	-0,03077	155,08	150,11	0,01086	
2,540	-0,03078	156,30	150,10	0,01083	
2,560	-0,03079	156,80	150,10	0,01083	
2,580	-0,03080	156,80	150,10	0,01090	
2,600	-0,03081	156,79	150,10	0,01106	
2,620	-0,03080	156,00	150,10	0,01110	
2,640	-0,03079	155,31	150,09	0,01147	
2,660	-0,03080	155,95	150,09	0,01200	
2,680	-0,03081	156,62	150,10	0,01225	
2,700	-0,03081	156,78	150,09	0,01239	
2,720	-0,03080	156,79	150,09	0,01250	
2,740	-0,03080	156,83	150,09	0,01264	
2,760	-0,03080	156,85	150,09	0,01272	
2,780	-0,03081	156,88	150,09	0,01271	
2,800	-0,03080	156,93	150,09	0,01259	
2,820	-0,03079	157,00	150,10	0,01249	
2,840	-0,03079	156,98	150,10	0,01239	
2,860	-0,03078	156,88	150,10	0,01215	
2,880	-0,03078	156,81	150,10	0,01148	
2,900	-0,03077	156,74	150,11	0,01107	
2,920	-0,03077	156,70	150,10	0,01100	
2,940	-0,03077	156,71	150,10	0,01099	
2,960	-0,03078	155,89	150,10	0,01090	
2,980	-0,03079	154,37	150,10	0,01078	
3,000	-0,03078	153,46	150,10	0,01075	
3,020	-0,03078	153,26	150,10	0,01077	
3,040	-0,03078	153,31	150,09	0,01089	
3,060	-0,03078	153,33	150,09	0,01102	
3,080	-0,03078	153,33	150,09	0,01106	
3,100	-0,03078	153,28	150,09	0,01100	
3,120	-0,03079	153,26	150,09	0,01087	
3,140	-0,03080	153,30	150,10	0,01073	
3,160	-0,03081	153,39	150,10	0,01069	
3,180	-0,03081	153,40	150,10	0,01078	
3,200	-0,03081	153,32	150,10	0,01094	
3,220	-0,03080	153,29	150,10	0,01107	
3,240	-0,03080	153,35	150,10	0,01113	
3,260	-0,03079	153,43	150,10	0,01104	
3,280	-0,03080	153,70	150,10	0,01092	
3,300	-0,03080	155,10	150,10	0,01082	
3,320	-0,03079	156,41	150,10	0,01080	
3,340	-0,03078	156,83	150,10	0,01084	
3,360	-0,03079	156,81	150,10	0,01086	
3,380	-0,03079	156,82	150,10	0,01097	
3,400	-0,03077	156,58	150,09	0,01100	
3,420	-0,03077	155,22	150,09	0,01087	
3,440	-0,03080	153,90	150,09	0,01075	
3,460	-0,03081	153,38	150,09	0,01064	
3,480	-0,03081	153,28	150,09	0,01071	
3,500	-0,03081	153,29	150,10	0,01089	
3,520	-0,03080	153,31	150,09	0,01098	
3,540	-0,03077	153,37	150,09	0,01102	
3,560	-0,03076	153,40	150,09	0,01097	
3,580	-0,03077	153,43	150,09	0,01083	
3,600	-0,03078	153,51	150,10	0,01071	
3,620	-0,03077	153,53	150,10	0,01069	
3,640	-0,03079	153,45	150,10	0,01077	
3,660	-0,03080	153,41	150,10	0,01095	
3,680	-0,03080	153,42	150,10	0,01113	
3,700	-0,03082	153,45	150,10	0,01115	
3,720	-0,03082	153,46	150,10	0,01107	
3,740	-0,03081	153,42	150,10	0,01094	
3,760	-0,03081	153,41	150,10	0,01085	
3,780	-0,03080	153,69	150,09	0,01084	
3,800	-0,03080	155,08	150,09	0,01085	
3,820	-0,03079	156,36	150,10	0,01087	
3,840	-0,03079	156,86	150,10	0,01092	
3,860	-0,03079	156,90	150,10	0,01093	
3,880	-0,03080	156,57	150,09	0,01090	
3,900	-0,03080	155,18	150,09	0,01082	
3,920	-0,03078	153,87	150,09	0,01076	
3,940	-0,03078	153,45	150,10	0,01079	
3,960	-0,03078	153,51	150,10	0,01089	
3,980	-0,03078	153,53	150,10	0,01091	
4,000	-0,03077	153,51	150,11	0,01091	
4,020	-0,03078	153,47	150,11	0,01094	
4,040	-0,03077	153,48	150,10	0,01091	
4,060	-0,03077	153,51	150,10	0,01083	
4,080	-0,03078	153,55	150,10	0,01081	
4,100	-0,03077	153,56	150,10	0,01081	
4,120	-0,03076	153,53	150,10	0,01084	
4,140	-0,03076	153,48	150,10	0,01092	
4,160	-0,03076	153,73	150,10	0,01098	
4,180	-0,03076	155,10	150,10	0,01098	
4,200	-0,03077	156,39	150,10	0,01088	
4,220	-0,03077	156,83	150,10	0,01079	
4,240	-0,03078	156,85	150,10	0,01077	
4,260	-0,03079	156,83	150,11	0,01081	
4,280	-0,03079	156,81	150,11	0,01089	
4,300	-0,03080	156,76	150,11	0,01098	
4,320	-0,03080	155,93	150,10	0,01094	
4,340	-0,03078	154,70	150,10	0,01086	
4,360	-0,03077	155,01	150,10	0,01072	
4,380	-0,03077	154,77	150,10	0,01070	
4,400	-0,03077	153,93	150,10	0,01083	
4,420	-0,03078	153,74	150,09	0,01098	
4,440	-0,03078	154,23	150,09	0,01103	
4,460	-0,03077	154,81	150,09	0,01100	
4,480	-0,03078	155,75	150,09	0,01099	
4,500	-0,03080	155,99	150,10	0,01095	
4,520	-0,03080	156,39	150,10	0,01085	
4,540	-0,03079	156,52	150,10	0,01074	
4,560	-0,03078	155,50	150,10	0,01077	
4,580	-0,03077	154,78	150,10	0,01093	
4,600	-0,03075	154,04	150,11	0,01108	
4,620	-0,03076	153,64	150,10	0,01108	
4,640	-0,03077	153,57	150,10	0,01096	
4,660	-0,03077	153,55	150,10	0,01084	
4,680	-0,03078	153,86	150,10	0,01074	
4,700	-0,03079	155,18	150,10	0,01073	
4,720	-0,03078	156,38	150,10	0,01082	
4,740	-0,03077	156,84	150,09	0,01092	
4,760	-0,03076	156,91	150,09	0,01096	
4,780	-0,03077	156,90	150,09	0,01100	
4,800	-0,03077	156,91	150,10	0,01092	
4,820	-0,03077	156,90	150,10	0,01078	
4,840	-0,03078	156,06	150,10	0,01069	
4,860	-0,03079	154,55	150,10	0,01075	
4,880	-0,03079	153,70	150,11	0,01085	
4,900	-0,03078	153,52	150,11	0,01092	
4,920	-0,03077	153,55	150,11	0,01099	
4,940	-0,03076	153,56	150,10	0,01102	
4,960	-0,03077	153,49	150,10	0,01098	
4,980	-0,03078	153,43	150,10	0,01082	
5,000	-0,03079	153,45	150,10	0,01078	
5,020	-0,03079	153,46	150,10	0,01087	
5,040	-0,03078	153,48	150,10	0,01093	
5,060	-0,03077	153,48	150,10	0,01094	
5,080	-0,03077	153,52	150,10	0,01098	
5,100	-0,03078	153,51	150,10	0,01103	
5,120	-0,03078	153,50	150,10	0,01097	
5,140	-0,03078	153,46	150,11	0,01082	
5,160	-0,03079	153,40	150,11	0,01078	
5,180	-0,03079	153,40	150,10	0,01081	
5,200	-0,03079	153,48	150,10	0,01088	
5,220	-0,03079	153,58	150,10	0,01091	
5,240	-0,03078	153,64	150,10	0,01093	
5,260	-0,03078	153,71	150,10	0,01094	
5,280	-0,03079	153,78	150,10	0,01083	
5,300	-0,03078	154,50	150,10	0,01080	
5,320	-0,03078	155,92	150,09	0,01088	
5,340	-0,03079	156,74	150,10	0,01097	
5,360	-0,03081	156,96	150,10	0,01100	
5,380	-0,03081	156,96	150,10	0,01099	
5,400	-0,03079	157,00	150,10	0,01098	
5,420	-0,03080	157,00	150,10	0,01088	
5,440	-0,03080	156,95	150,11	0,01079	
5,460	-0,03080	156,94	150,11	0,01073	
5,480	-0,03080	157,03	150,11	0,01077	
5,500	-0,03079	157,05	150,10	0,01090	
5,520	-0,03078	157,05	150,10	0,01103	
5,540	-0,03076	157,08	150,09	0,01107	
5,560	-0,03076	157,04	150,10	0,01099	
5,580	-0,03076	157,04	150,10	0,01082	
5,600	-0,03076	157,07	150,10	0,01071	
5,620	-0,03076	157,07	150,10	0,01075	
5,640	-0,03076	157,03	150,10	0,01079	
5,660	-0,03075	157,04	150,10	0,01088	
5,680	-0,03075	157,00	150,10	0,01099	
5,700	-0,03075	156,96	150,10	0,01107	
5,720	-0,03075	156,93	150,11	0,01100	
5,740	-0,03075	156,95	150,11	0,01084	
5,760	-0,03077	156,17	150,10	0,01077	
5,780	-0,03079	154,65	150,10	0,01080	
5,800	-0,03080	153,97	150,10	0,01089	
5,820	-0,03081	154,89	150,10	0,01103	
5,840	-0,03079	155,10	150,10	0,01108	
5,860	-0,03077	155,69	150,09	0,01106	
5,880	-0,03078	156,56	150,10	0,01094	
5,900	-0,03079	156,94	150,10	0,01080	
5,920	-0,03078	156,97	150,10	0,01075	
5,940	-0,03078	156,94	150,10	0,01080	
5,960	-0,03083	156,93	150,10	0,01086	
5,980	-0,03109	156,93	150,11	0,01096	
6,000	-0,03135	156,93	150,11	0,01104	
6,020	-0,03145	156,96	150,10	0,01104	
6,040	-0,03146	157,00	150,10	0,01093	
6,060	-0,03145	156,99	150,10	0,01080	
6,080	-0,03146	156,67	150,10	0,01070	
6,100	-0,03146	156,14	150,10	0,01072	
6,120	-0,03147	156,51	150,10	0,01091	
6,140	-0,03147	156,20	150,09	0,01106	
6,160	-0,03147	154,73	150,09	0,01109	
6,180	-0,03145	153,78	150,09	0,01102	
6,200	-0,03145	153,62	150,10	0,01084	
6,220	-0,03147	153,63	150,10	0,01067	
6,240	-0,03147	153,70	150,10	0,01066	
6,260	-0,03148	153,71	150,10	0,01076	
6,280	-0,03148	153,64	150,10	0,01092	
6,300	-0,03147	153,65	150,10	0,01101	
6,320	-0,03146	153,70	150,10	0,01100	
6,340	-0,03147	153,70	150,10	0,01097	
6,360	-0,03148	153,68	150,10	0,01092	
6,380	-0,03149	153,67	150,10	0,01092	
6,400	-0,03148	153,65	150,09	0,01091	
6,420	-0,03148	153,66	150,10	0,01094	
6,440	-0,03149	153,67	150,10	0,01094	
6,460	-0,03149	153,62	150,10	0,01098	
6,480	-0,03149	153,84	150,10	0,01097	
6,500	-0,03148	155,21	150,10	0,01093	
6,520	-0,03147	156,55	150,09	0,01084	
6,540	-0,03148	156,32	150,09	0,01085	
6,560	-0,03147	154,83	150,10	0,01088	
6,580	-0,03163	154,70	150,13	0,01088	
6,600	-0,03192	153,22	150,20	0,01018	
6,620	-0,03122	122,63	150,05	0,00930	
6,640	-0,03115	77,90	150,04	0,00945	
6,660	-0,03135	35,86	150,08	0,00984	
6,680	-0,03055	3,025	150,10	0,00984	
6,700	-0,02665	-14,09	150,10	0,00987	
6,720	-0,02008	5,286	150,10	0,00992	
6,740	-0,01356	50,94	150,10	0,01005	
6,760	-0,00857	98,26	150,10	0,01022	
6,780	-0,00545	135,71	150,10	0,01031	
6,800	-0,00417	160,08	150,10	0,01030	
6,820	-0,00408	172,47	150,10	0,01014	
6,840	-0,00454	175,82	150,11	0,01003	
6,860	-0,00518	174,08	150,11	0,00990	
6,880	-0,00585	170,72	150,10	0,01004	
6,900	-0,00651	167,27	150,10	0,01012	
6,920	-0,00704	163,98	150,10	0,01025	
6,940	-0,00727	161,26	150,10	0,01022	
6,960	-0,00746	158,88	150,10	0,01020	
6,980	-0,00777	157,35	150,10	0,01008	
7,000	-0,00795	156,81	150,10	0,00993	
7,020	-0,00800	156,75	150,10	0,01002	
7,040	-0,00798	156,79	150,10	0,01009	
7,060	-0,00796	156,79	150,10	0,01028	
7,080	-0,00797	156,83	150,10	0,01030	
7,100	-0,00796	156,79	150,11	0,01034	
7,120	-0,00795	156,20	150,11	0,01030	
7,140	-0,00796	156,08	150,11	0,01017	
7,160	-0,00796	156,52	150,11	0,01017	
7,180	-0,00796	156,77	150,10	0,01009	
7,200	-0,00796	156,87	150,10	0,01011	
7,220	-0,00797	156,91	150,10	0,01024	
7,240	-0,00796	156,93	150,10	0,01032	
7,260	-0,00797	156,93	150,10	0,01036	
7,280	-0,00797	156,92	150,11	0,01030	
7,300	-0,00796	156,89	150,11	0,01015	
7,320	-0,00795	156,83	150,11	0,01007	
7,340	-0,00795	156,82	150,11	0,01008	
7,360	-0,00795	156,82	150,10	0,01023	
7,380	-0,00794	156,86	150,10	0,01025	
7,400	-0,00800	156,91	150,10	0,01027	
7,420	-0,00828	156,89	150,10	0,01027	
7,440	-0,00854	156,92	150,09	0,01023	
7,460	-0,00864	156,99	150,10	0,01015	
7,480	-0,00863	156,94	150,10	0,01006	
7,500	-0,00862	156,89	150,10	0,01012	
7,520	-0,00862	156,92	150,10	0,01018	
7,540	-0,00862	156,90	150,10	0,01033	
7,560	-0,00861	156,92	150,11	0,01040	
7,580	-0,00862	156,93	150,11	0,01045	
7,600	-0,00862	156,86	150,10	0,01029	
7,620	-0,00861	156,27	150,10	0,01015	
7,640	-0,00861	156,12	150,10	0,01015	
7,660	-0,00861	156,60	150,09	0,01012	
7,680	-0,00862	156,86	150,10	0,01024	
7,700	-0,00863	156,84	150,10	0,01032	
7,720	-0,00864	156,79	150,10	0,01039	
7,740	-0,00864	156,86	150,10	0,01033	
7,760	-0,00864	156,99	150,10	0,01024	
7,780	-0,00864	157,00	150,10	0,01014	
7,800	-0,00862	156,92	150,10	0,01005	
7,820	-0,00861	156,84	150,10	0,01004	
7,840	-0,00860	156,02	150,10	0,01010	
7,860	-0,00860	154,64	150,10	0,01017	
7,880	-0,00860	154,40	150,10	0,01018	
7,900	-0,00860	154,37	150,10	0,01023	
7,920	-0,00861	153,89	150,10	0,01021	
7,940	-0,00862	154,34	150,10	0,01006	
7,960	-0,00862	155,63	150,10	0,01005	
7,980	-0,00862	155,26	150,10	0,01008	
8,000	-0,00862	154,94	150,09	0,01010	
8,020	-0,00862	155,97	150,09	0,01016	
8,040	-0,00862	156,62	150,09	0,01022	
8,060	-0,00861	156,29	150,10	0,01028	
8,080	-0,00861	156,58	150,10	0,01016	
8,100	-0,00861	156,93	150,10	0,01012	
8,120	-0,00861	156,93	150,10	0,01013	
8,140	-0,00878	156,97	150,11	0,01020	
8,160	-0,00909	156,99	150,10	0,01029	
8,180	-0,00927	157,02	150,10	0,01028	
8,200	-0,00930	157,05	150,10	0,01033	
8,220	-0,00929	157,01	150,10	0,01026	
8,240	-0,00930	157,02	150,10	0,01015	
8,260	-0,00929	156,75	150,09	0,01017	
8,280	-0,00927	155,37	150,09	0,01017	
8,300	-0,00927	154,04	150,10	0,01017	
8,320	-0,00928	153,51	150,10	0,01026	
8,340	-0,00929	153,48	150,10	0,01041	
8,360	-0,00929	153,77	150,09	0,01040	
8,380	-0,00930	155,12	150,10	0,01034	
8,400	-0,00929	155,62	150,10	0,01022	
8,420	-0,00928	155,35	150,10	0,01018	
8,440	-0,00928	156,09	150,10	0,01018	
8,460	-0,00928	156,79	150,11	0,01023	
8,480	-0,00927	157,08	150,11	0,01032	
8,500	-0,00929	157,08	150,10	0,01037	
8,520	-0,00929	157,01	150,10	0,01035	
8,540	-0,00929	156,98	150,10	0,01025	
8,560	-0,00929	156,97	150,10	0,01017	
8,580	-0,00928	156,80	150,10	0,01007	
8,600	-0,00927	156,22	150,10	0,01007	
8,620	-0,00928	156,38	150,10	0,01021	
8,640	-0,00928	156,03	150,10	0,01034	
8,660	-0,00927	154,69	150,10	0,01034	
8,680	-0,00928	154,57	150,10	0,01023	
8,700	-0,00928	155,15	150,11	0,01007	
8,720	-0,00926	155,22	150,11	0,01003	
8,740	-0,00925	156,11	150,11	0,01009	
8,760	-0,00925	156,85	150,10	0,01023	
8,780	-0,00926	157,03	150,10	0,01029	
8,800	-0,00928	157,05	150,10	0,01033	
8,820	-0,00928	157,06	150,10	0,01032	
8,840	-0,00929	157,01	150,09	0,01019	
8,860	-0,00934	157,00	150,09	0,01016	
8,880	-0,00959	156,82	150,09	0,01013	
8,900	-0,00985	155,46	150,09	0,01015	
8,920	-0,00996	154,87	150,10	0,01024	
8,940	-0,00996	155,16	150,10	0,01031	
8,960	-0,00995	154,47	150,10	0,01032	
8,980	-0,00995	153,95	150,10	0,01027	
9,000	-0,00993	154,25	150,11	0,01022	
9,020	-0,00993	154,82	150,10	0,01013	
9,040	-0,00996	156,09	150,11	0,01008	
9,060	-0,00998	156,05	150,10	0,01010	
9,080	-0,00998	155,32	150,10	0,01022	
9,100	-0,00998	155,94	150,10	0,01037	
9,120	-0,00998	156,69	150,10	0,01044	
9,140	-0,00997	156,87	150,10	0,01038	
9,160	-0,00996	156,89	150,10	0,01024	
9,180	-0,00995	156,83	150,10	0,01019	
9,200	-0,00995	156,81	150,10	0,01017	
9,220	-0,00995	156,88	150,10	0,01022	
9,240	-0,00995	156,89	150,10	0,01034	
9,260	-0,00994	156,33	150,11	0,01036	
9,280	-0,00995	156,09	150,11	0,01036	
9,300	-0,00995	156,24	150,10	0,01022	
9,320	-0,00995	155,45	150,10	0,01010	
9,340	-0,00996	155,35	150,10	0,01008	
9,360	-0,00996	154,83	150,09	0,01013	
9,380	-0,00996	154,72	150,09	0,01025	
9,400	-0,00997	155,88	150,10	0,01034	
9,420	-0,00996	156,78	150,09	0,01035	
9,440	-0,00995	157,05	150,09	0,01033	
9,460	-0,00995	157,04	150,10	0,01021	
9,480	-0,00995	156,97	150,10	0,01014	
9,500	-0,00996	156,94	150,10	0,01015	
9,520	-0,00996	156,98	150,10	0,01022	
9,540	-0,00997	156,77	150,10	0,01029	
9,560	-0,00997	156,17	150,10	0,01037	
9,580	-0,00998	156,41	150,10	0,01036	
9,600	-0,00998	156,06	150,11	0,01025	
9,620	-0,00998	154,56	150,11	0,01016	
9,640	-0,00998	154,33	150,10	0,01008	
9,660	-0,00995	154,89	150,10	0,01008	
9,680	-0,00994	154,31	150,10	0,01015	
9,700	-0,00996	154,34	150,10	0,01025	
9,720	-0,00998	154,95	150,10	0,01033	
9,740	-0,00997	154,44	150,09	0,01034	
9,760	-0,00997	154,52	150,09	0,01030	
9,780	-0,00996	155,06	150,09	0,01018	
9,800	-0,00996	154,40	150,09	0,01005	
9,820	-0,00997	154,44	150,09	0,01004	
9,840	-0,00998	155,74	150,10	0,01018	
9,860	-0,00997	155,88	150,10	0,01033	
9,880	-0,00998	155,31	150,10	0,01042	
9,900	-0,00998	155,98	150,10	0,01040	
9,920	-0,00997	156,65	150,10	0,01026	
9,940	-0,00997	156,85	150,10	0,01017	
9,960	-0,00996	156,89	150,11	0,01015	
9,980	-0,00999	156,87	150,10	0,01017	
10,00	-0,01027	156,98	150,10	0,01023	
10,02	-0,01054	157,00	150,10	0,01035	
10,04	-0,01063	156,92	150,09	0,01043	
10,06	-0,01066	156,95	150,09	0,01035	
10,08	-0,01066	156,96	150,09	0,01024	
10,10	-0,01064	156,93	150,09	0,01014	
10,12	-0,01064	157,02	150,09	0,01012	
10,14	-0,01063	157,09	150,10	0,01019	
10,16	-0,01062	157,06	150,10	0,01029	
10,18	-0,01063	157,04	150,09	0,01037	
10,20	-0,01064	157,02	150,09	0,01040	
10,22	-0,01063	156,92	150,09	0,01038	
10,24	-0,01064	156,83	150,09	0,01029	
10,26	-0,01065	156,86	150,10	0,01025	
10,28	-0,01064	156,19	150,10	0,01023	
10,30	-0,01064	154,71	150,10	0,01025	
10,32	-0,01064	154,34	150,11	0,01035	
10,34	-0,01063	154,32	150,11	0,01041	
10,36	-0,01063	154,11	150,10	0,01039	
10,38	-0,01064	155,10	150,10	0,01032	
10,40	-0,01064	155,63	150,10	0,01021	
10,42	-0,01063	154,83	150,09	0,01007	
10,44	-0,01063	155,29	150,09	0,01011	
10,46	-0,01064	155,61	150,09	0,01026	
10,48	-0,01065	154,56	150,10	0,01033	
10,50	-0,01067	154,42	150,10	0,01035	
10,52	-0,01066	154,90	150,10	0,01030	
10,54	-0,01065	154,25	150,10	0,01015	
10,56	-0,01066	154,37	150,10	0,01001	
10,58	-0,01065	155,73	150,10	0,01002	
10,60	-0,01065	156,75	150,11	0,01018	
10,62	-0,01066	157,00	150,11	0,01029	
10,64	-0,01066	156,93	150,11	0,01038	
10,66	-0,01065	156,95	150,10	0,01045	
10,68	-0,01066	157,02	150,10	0,01033	
10,70	-0,01066	157,00	150,10	0,01013	
10,72	-0,01066	156,99	150,10	0,01010	
10,74	-0,01065	156,97	150,10	0,01018	
10,76	-0,01063	156,77	150,10	0,01026	
10,78	-0,01064	156,28	150,10	0,01033	
10,80	-0,01065	156,48	150,11	0,01039	
10,82	-0,01064	156,66	150,11	0,01040	
10,84	-0,01064	155,74	150,11	0,01029	
10,86	-0,01065	155,72	150,10	0,01014	
10,88	-0,01064	155,77	150,10	0,01018	
10,90	-0,01068	154,68	150,10	0,01022	
10,92	-0,01094	153,90	150,10	0,01029	
10,94	-0,01120	153,65	150,10	0,01037	
10,96	-0,01131	153,55	150,10	0,01036	
10,98	-0,01132	153,51	150,10	0,01031	
11,00	-0,01132	153,54	150,10	0,01019	
11,02	-0,01131	153,60	150,10	0,01008	
11,04	-0,01130	153,84	150,11	0,01013	
11,06	-0,01128	155,10	150,11	0,01021	
11,08	-0,01129	156,42	150,11	0,01031	
11,10	-0,01131	156,94	150,10	0,01042	
11,12	-0,01132	156,26	150,10	0,01044	
11,14	-0,01132	154,70	150,09	0,01036	
11,16	-0,01132	154,49	150,10	0,01021	
11,18	-0,01132	155,05	150,10	0,01015	
11,20	-0,01132	154,63	150,10	0,01030	
11,22	-0,01132	155,23	150,10	0,01040	
11,24	-0,01132	156,33	150,10	0,01042	
11,26	-0,01130	156,85	150,10	0,01052	
11,28	-0,01131	156,95	150,11	0,01048	
11,30	-0,01132	156,93	150,11	0,01030	
11,32	-0,01132	156,85	150,11	0,01015	
11,34	-0,01136	157,10	150,11	0,01009	
11,36	-0,01150	157,29	150,14	0,01004	
11,38	-0,01145	150,83	150,13	0,00996	
11,40	-0,01135	139,09	150,11	0,00997	
11,42	-0,01130	126,47	150,10	0,01010	
11,44	-0,01112	114,54	150,10	0,01022	
11,46	-0,01038	102,69	150,09	0,01025	
11,48	-0,00904	95,59	150,09	0,01013	
11,50	-0,00740	93,35	150,10	0,00998	
11,52	-0,00585	93,00	150,09	0,00993	
11,54	-0,00446	93,01	150,10	0,00998	
11,56	-0,00299	93,64	150,10	0,01004	
11,58	-0,00135	95,85	150,10	0,01015	
11,60	0,00021	99,07	150,10	0,01024	
11,62	0,00185	102,48	150,10	0,01013	
11,64	0,00333	105,18	150,10	0,00999	
11,66	0,00448	106,40	150,11	0,00987	
11,68	0,00565	106,59	150,11	0,00988	
11,70	0,00694	105,84	150,10	0,00996	
11,72	0,00813	104,31	150,10	0,01004	
11,74	0,00917	103,42	150,10	0,01019	
11,76	0,01031	103,20	150,09	0,01029	
11,78	0,01161	103,18	150,09	0,01023	
11,80	0,01295	103,26	150,10	0,01004	
11,82	0,01430	103,28	150,10	0,00998	
11,84	0,01563	103,25	150,09	0,01004	
11,86	0,01697	103,29	150,09	0,01008	
11,88	0,01833	103,30	150,09	0,01009	
11,90	0,01968	103,21	150,09	0,01014	
11,92	0,02101	103,16	150,10	0,01022	
11,94	0,02235	103,18	150,10	0,01012	
11,96	0,02371	103,03	150,10	0,00997	
11,98	0,02506	102,43	150,10	0,00991	
12,00	0,02640	102,60	150,11	0,00991	
12,02	0,02773	103,07	150,11	0,00997	
12,04	0,02907	103,30	150,11	0,01007	
12,06	0,03040	103,35	150,10	0,01013	
12,08	0,03175	103,31	150,10	0,01012	
12,10	0,03311	103,34	150,10	0,01000	
12,12	0,03447	103,35	150,10	0,00992	
12,14	0,03581	102,61	150,09	0,00993	
12,16	0,03716	101,02	150,10	0,01004	
12,18	0,03864	100,20	150,10	0,01014	
12,20	0,04028	101,27	150,10	0,01016	
12,22	0,04180	102,71	150,09	0,01012	
12,24	0,04318	103,33	150,09	0,01009	
12,26	0,04452	102,67	150,10	0,01001	
12,28	0,04585	101,09	150,10	0,00991	
12,30	0,04721	100,11	150,10	0,00993	
12,32	0,04856	99,83	150,11	0,00998	
12,34	0,04990	99,82	150,11	0,01011	
12,36	0,05124	99,86	150,10	0,01020	
12,38	0,05258	99,86	150,10	0,01017	
12,40	0,05395	99,85	150,10	0,01006	
12,42	0,05556	99,80	150,09	0,00998	
12,44	0,05718	99,77	150,09	0,00993	
12,46	0,05861	99,77	150,09	0,00992	
12,48	0,05995	99,78	150,10	0,00999	
12,50	0,06128	99,79	150,10	0,01008	
12,52	0,06263	99,83	150,10	0,01015	
12,54	0,06397	99,87	150,10	0,01015	
12,56	0,06533	99,23	150,10	0,01002	
12,58	0,06681	97,64	150,10	0,00994	
12,60	0,06846	96,73	150,11	0,00993	
12,62	0,07001	96,49	150,11	0,01000	
12,64	0,07140	96,46	150,10	0,01013	
12,66	0,07274	96,49	150,10	0,01021	
12,68	0,07408	96,47	150,10	0,01019	
12,70	0,07545	96,42	150,10	0,01010	
12,72	0,07705	96,41	150,10	0,00994	
12,74	0,07867	96,45	150,09	0,00985	
12,76	0,08012	96,49	150,09	0,00992	
12,78	0,08150	96,47	150,09	0,01007	
12,80	0,08311	96,41	150,09	0,01019	
12,82	0,08474	96,40	150,10	0,01026	
12,84	0,08619	96,41	150,10	0,01027	
12,86	0,08754	96,48	150,10	0,01016	
12,88	0,08891	96,47	150,10	0,00995	
12,90	0,09050	96,43	150,10	0,00993	
12,92	0,09211	96,46	150,11	0,01003	
12,94	0,09355	96,45	150,11	0,01010	
12,96	0,09490	96,43	150,11	0,01016	
12,98	0,09638	96,39	150,11	0,01022	
13,00	0,09803	96,43	150,10	0,01023	
13,02	0,09957	96,49	150,10	0,01010	
13,04	0,1010	96,43	150,10	0,00996	
13,06	0,1026	96,35	150,10	0,00999	
13,08	0,1042	96,34	150,10	0,01005	
13,10	0,1056	96,37	150,10	0,01007	
13,12	0,1070	95,77	150,10	0,01017	
13,14	0,1086	94,22	150,10	0,01030	
13,16	0,1102	93,38	150,10	0,01027	
13,18	0,1118	94,41	150,11	0,01012	
13,20	0,1134	95,82	150,11	0,01002	
13,22	0,1150	96,43	150,11	0,00997	
13,24	0,1165	96,43	150,10	0,00997	
13,26	0,1181	96,31	150,10	0,01005	
13,28	0,1197	95,62	150,10	0,01022	
13,30	0,1211	94,12	150,10	0,01027	
13,32	0,1227	93,20	150,22	0,01021	
13,34	0,1243	92,98	150,82	0,01006	
13,36	0,1259	92,99	151,67	0,00995	
13,38	0,1276	93,04	152,75	0,00997	
13,40	0,1291	93,08	153,93	0,01003	
13,42	0,1306	93,08	154,89	0,01013	
13,44	0,1322	93,04	155,64	0,01023	
13,46	0,1338	92,97	156,39	0,01024	
13,48	0,1353	92,95	157,56	0,01015	
13,50	0,1369	92,82	159,53	0,01006	
13,52	0,1385	91,49	161,47	0,01004	
13,54	0,1401	90,10	163,05	0,01005	
13,56	0,1417	89,63	164,52	0,01015	
13,58	0,1433	89,63	165,96	0,01027	
13,60	0,1450	89,67	167,48	0,01032	
13,62	0,1466	89,69	169,23	0,01025	
13,64	0,1483	89,68	170,97	0,01015	
13,66	0,1499	89,60	172,45	0,01005	
13,68	0,1516	89,58	173,88	0,01001	
13,70	0,1532	89,62	175,23	0,01005	
13,72	0,1549	89,67	176,43	0,01014	
13,74	0,1565	89,72	177,84	0,01025	
13,76	0,1583	89,69	179,38	0,01037	
13,78	0,1599	89,63	181,02	0,01032	
13,80	0,1616	89,64	182,71	0,01017	
13,82	0,1633	89,69	184,25	0,01003	
13,84	0,1650	89,76	185,59	0,01000	
13,86	0,1666	89,77	186,83	0,01008	
13,88	0,1683	89,78	188,14	0,01014	
13,90	0,1700	89,76	189,49	0,01021	
13,92	0,1717	89,74	190,70	0,01023	
13,94	0,1734	89,73	192,05	0,01016	
13,96	0,1751	89,63	193,67	0,01001	
13,98	0,1768	89,09	195,28	0,00995	
14,00	0,1786	89,20	196,81	0,01004	
14,02	0,1804	89,56	198,27	0,01017	
14,04	0,1821	89,75	199,67	0,01021	
14,06	0,1838	89,76	201,10	0,01023	
14,08	0,1855	89,08	202,48	0,01023	
14,10	0,1873	87,52	203,78	0,01011	
14,12	0,1891	86,51	205,08	0,00996	
14,14	0,1908	86,28	206,42	0,00989	
14,16	0,1925	86,30	207,89	0,01000	
14,18	0,1943	86,34	209,34	0,01014	
14,20	0,1961	86,34	210,71	0,01024	
14,22	0,1978	86,35	212,12	0,01030	
14,24	0,1996	86,38	213,49	0,01025	
14,26	0,2014	86,19	214,74	0,01011	
14,28	0,2031	84,95	216,06	0,00997	
14,30	0,2048	83,60	217,47	0,00994	
14,32	0,2066	83,08	218,87	0,01001	
14,34	0,2084	83,01	220,28	0,01012	
14,36	0,2102	83,05	221,70	0,01021	
14,38	0,2120	83,03	223,15	0,01030	
14,40	0,2139	83,01	224,65	0,01027	
14,42	0,2158	83,05	226,14	0,01013	
14,44	0,2176	83,08	227,58	0,01001	
14,46	0,2194	83,13	229,01	0,00997	
14,48	0,2213	83,17	230,44	0,01001	
14,50	0,2232	83,10	231,89	0,01013	
14,52	0,2250	82,95	233,34	0,01022	
14,54	0,2268	82,93	234,77	0,01023	
14,56	0,2286	82,99	236,20	0,01016	
14,58	0,2304	83,03	237,66	0,01002	
14,60	0,2323	83,01	239,09	0,00989	
14,62	0,2342	83,01	240,52	0,00992	
14,64	0,2361	83,05	241,98	0,01006	
14,66	0,2379	83,07	243,45	0,01022	
14,68	0,2398	83,09	244,92	0,01030	
14,70	0,2417	82,48	246,42	0,01029	
14,72	0,2436	81,01	247,94	0,01018	
14,74	0,2455	80,02	249,42	0,01004	
14,76	0,2475	79,91	250,89	0,00993	
14,78	0,2495	81,13	252,34	0,00993	
14,80	0,2514	82,47	253,75	0,01000	
14,82	0,2533	83,00	255,19	0,01010	
14,84	0,2552	82,94	257,08	0,01021	
14,86	0,2571	81,71	260,08	0,01020	
14,88	0,2590	80,35	263,93	0,01011	
14,90	0,2609	79,81	267,51	0,01001	
14,92	0,2628	79,75	270,02	0,00992	
14,94	0,2647	79,79	271,69	0,00995	
14,96	0,2666	79,79	273,16	0,01009	
14,98	0,2686	79,62	274,75	0,01030	
15,00	0,2706	78,31	276,19	0,01034	
15,02	0,2725	76,94	277,69	0,01023	
15,04	0,2744	76,40	279,25	0,01011	
15,06	0,2764	76,32	280,76	0,00997	
15,08	0,2784	76,31	282,27	0,00989	
15,10	0,2804	76,30	283,75	0,00994	
15,12	0,2824	76,28	285,26	0,01009	
15,14	0,2845	76,27	286,80	0,01030	
15,16	0,2865	76,33	288,31	0,01034	
15,18	0,2885	76,39	289,77	0,01026	
15,20	0,2905	76,43	291,22	0,01010	
15,22	0,2925	76,42	292,75	0,00995	
15,24	0,2945	76,45	294,24	0,00990	
15,26	0,2966	76,44	295,77	0,00999	
15,28	0,2986	76,44	297,34	0,01012	
15,30	0,3006	76,42	298,80	0,01020	
15,32	0,3026	76,38	300,23	0,01024	
15,34	0,3046	76,41	301,75	0,01022	
15,36	0,3066	76,42	303,23	0,01010	
15,38	0,3087	76,41	304,73	0,00995	
15,40	0,3109	76,34	306,25	0,00999	
15,42	0,3130	76,26	307,76	0,01013	
15,44	0,3150	76,24	309,25	0,01021	
15,46	0,3170	75,62	310,70	0,01024	
15,48	0,3192	74,74	312,23	0,01027	
15,50	0,3213	75,26	313,76	0,01021	
15,52	0,3233	75,99	315,26	0,01009	
15,54	0,3254	76,30	316,77	0,00998	
15,56	0,3275	75,72	318,24	0,00999	
15,58	0,3297	74,24	319,70	0,01009	
15,60	0,3318	73,30	321,18	0,01018	
15,62	0,3338	73,09	322,69	0,01020	
15,64	0,3358	73,08	324,19	0,01015	
15,66	0,3378	72,88	325,71	0,01004	
15,68	0,3400	71,60	327,26	0,01001	
15,70	0,3422	70,25	328,81	0,01000	
15,72	0,3443	69,77	330,38	0,01003	
15,74	0,3465	69,64	332,01	0,01014	
15,76	0,3486	69,61	333,63	0,01025	
15,78	0,3508	69,63	335,26	0,01024	
15,80	0,3530	69,63	336,91	0,01014	
15,82	0,3552	69,66	338,58	0,01004	
15,84	0,3574	69,73	340,31	0,00999	
15,86	0,3596	69,76	342,09	0,00996	
15,88	0,3617	69,77	343,89	0,01001	
15,90	0,3639	69,74	345,69	0,01018	
15,92	0,3660	69,72	347,50	0,01033	
15,94	0,3682	69,71	349,32	0,01031	
15,96	0,3705	69,67	351,17	0,01020	
15,98	0,3728	69,60	353,05	0,01006	
16,00	0,3750	69,57	354,91	0,00993	
16,02	0,3772	69,58	356,81	0,00993	
16,04	0,3795	69,60	358,71	0,01003	
16,06	0,3819	69,11	360,58	0,01018	
16,08	0,3842	69,57	362,09	0,01025	
16,10	0,3864	76,63	362,90	0,01017	
16,12	0,3886	89,92	363,24	0,01001	
16,14	0,3907	105,23	363,45	0,00989	
16,16	0,3927	118,38	363,74	0,00991	
16,18	0,3941	128,52	364,21	0,01007	
16,20	0,3948	131,40	364,97	0,01016	
16,22	0,3952	127,66	365,85	0,01022	
16,24	0,3956	123,39	366,70	0,01023	
16,26	0,3963	121,71	367,62	0,01012	
16,28	0,3973	121,84	368,55	0,00999	
16,30	0,3982	124,81	369,38	0,00994	
16,32	0,3990	128,19	370,25	0,00996	
16,34	0,3996	128,62	371,16	0,01009	
16,36	0,4001	126,98	372,06	0,01019	
16,38	0,4006	123,98	372,96	0,01026	
16,40	0,4012	120,33	373,84	0,01021	
16,42	0,4019	117,91	374,72	0,01012	
16,44	0,4025	116,41	375,64	0,01004	
16,46	0,4032	115,73	376,52	0,01003	
16,48	0,4040	115,66	377,39	0,01005	
16,50	0,4048	115,43	378,29	0,01021	
16,52	0,4056	114,90	379,17	0,01028	
16,54	0,4062	114,66	380,05	0,01022	
16,56	0,4069	114,38	380,96	0,01018	
16,58	0,4077	113,87	381,83	0,01008	
16,60	0,4085	114,02	382,72	0,00993	
16,62	0,4093	114,17	383,65	0,00993	
16,64	0,4100	113,77	384,56	0,01007	
16,66	0,4108	113,50	385,42	0,01022	
16,68	0,4116	113,53	386,30	0,01022	
16,70	0,4123	113,25	387,24	0,01015	
16,72	0,4130	112,66	388,12	0,01007	
16,74	0,4136	112,39	388,96	0,01003	
16,76	0,4143	111,51	389,87	0,01003	
16,78	0,4150	110,43	390,81	0,01002	
16,80	0,4158	110,68	391,68	0,01011	
16,82	0,4164	111,60	392,53	0,01028	
16,84	0,4172	111,57	393,40	0,01035	
16,86	0,4179	111,42	394,29	0,01026	
16,88	0,4185	111,15	395,22	0,01010	
16,90	0,4191	110,00	396,13	0,01002	
16,92	0,4197	109,24	397,02	0,01001	
16,94	0,4203	108,58	397,87	0,01003	
16,96	0,4210	108,14	398,71	0,01016	
16,98	0,4217	107,47	399,63	0,01029	
17,00	0,4224	106,30	400,60	0,01028	
17,02	0,4229	106,06	401,45	0,01017	
17,04	0,4234	105,78	402,35	0,01008	
17,06	0,4241	103,78	403,31	0,01003	
17,08	0,4247	103,36	404,14	0,01002	
17,10	0,4254	103,81	404,99	0,00998	
17,12	0,4261	102,33	405,91	0,01010	
17,14	0,4267	100,96	406,77	0,01023	
17,16	0,4272	100,94	407,69	0,01020	
17,18	0,4278	99,70	408,64	0,01010	
17,20	0,4284	99,20	409,48	0,00995	
17,22	0,4291	99,21	410,39	0,00989	
17,24	0,4298	98,33	411,30	0,00999	
17,26	0,4304	98,61	412,13	0,01013	
17,28	0,4311	99,06	413,04	0,01016	
17,30	0,4318	97,99	413,94	0,01018	
17,32	0,4324	98,55	414,78	0,01016	
17,34	0,4330	99,87	415,69	0,01006	
17,36	0,4336	99,07	416,62	0,01003	
17,38	0,4341	98,75	417,51	0,01003	
17,40	0,4348	99,14	418,41	0,01007	
17,42	0,4355	98,54	419,27	0,01016	
17,44	0,4361	98,60	420,13	0,01019	
17,46	0,4367	99,10	421,05	0,01015	
17,48	0,4372	99,03	421,96	0,01006	
17,50	0,4378	100,05	422,82	0,00995	
17,52	0,4385	100,68	423,69	0,00990	
17,54	0,4392	100,20	424,61	0,00991	
17,56	0,4399	100,53	425,50	0,01004	
17,58	0,4404	101,98	426,35	0,01018	
17,60	0,4409	101,58	427,27	0,01019	
17,62	0,4416	100,53	428,17	0,01017	
17,64	0,4422	101,32	428,98	0,01011	
17,66	0,4427	101,01	429,91	0,00999	
17,68	0,4433	99,34	430,84	0,01000	
17,70	0,4438	100,72	431,70	0,01005	
17,72	0,4445	101,65	432,64	0,01009	
17,74	0,4452	100,36	433,55	0,01019	
17,76	0,4458	101,08	434,38	0,01027	
17,78	0,4464	101,70	435,27	0,01029	
17,80	0,4470	100,35	436,18	0,01018	
17,82	0,4475	100,44	437,04	0,01004	
17,84	0,4480	100,15	437,94	0,00997	
17,86	0,4486	99,19	438,84	0,01008	
17,88	0,4492	99,32	439,71	0,01017	
17,90	0,4499	99,56	440,59	0,01026	
17,92	0,4505	99,34	441,49	0,01026	
17,94	0,4510	99,61	442,39	0,01020	
17,96	0,4516	99,65	443,29	0,01007	
17,98	0,4523	99,03	444,16	0,00993	
18,00	0,4529	99,37	445,03	0,00991	
18,02	0,4534	100,31	445,91	0,00998	
18,04	0,4540	100,26	446,80	0,01008	
18,06	0,4546	99,96	447,71	0,01027	
18,08	0,4553	99,87	448,63	0,01035	
18,10	0,4558	99,94	449,50	0,01024	
18,12	0,4564	99,86	450,39	0,01006	
18,14	0,4570	99,32	451,29	0,00995	
18,16	0,4576	99,10	452,16	0,00996	
18,18	0,4582	99,69	453,02	0,01005	
18,20	0,4588	99,49	453,92	0,01016	
18,22	0,4593	98,89	454,85	0,01025	
18,24	0,4600	98,67	455,74	0,01023	
18,26	0,4605	98,65	456,61	0,01014	
18,28	0,4611	97,92	457,51	0,01006	
18,30	0,4617	97,36	458,40	0,01002	
18,32	0,4623	97,49	459,28	0,01004	
18,34	0,4630	97,67	460,16	0,01013	
18,36	0,4634	97,74	461,01	0,01025	
18,38	0,4640	97,06	461,91	0,01033	
18,40	0,4647	95,31	462,87	0,01032	
18,42	0,4653	95,03	463,73	0,01018	
18,44	0,4659	95,75	464,64	0,01002	
18,46	0,4664	94,97	465,60	0,01001	
18,48	0,4670	95,15	466,38	0,01013	
18,50	0,4676	95,86	467,24	0,01019	
18,52	0,4684	94,94	468,23	0,01022	
18,54	0,4690	95,77	469,07	0,01021	
18,56	0,4697	97,43	469,95	0,01011	
18,58	0,4702	95,44	470,91	0,00996	
18,60	0,4707	94,39	471,75	0,00994	
18,62	0,4713	95,65	472,63	0,00995	
18,64	0,4720	94,18	473,55	0,01003	
18,66	0,4727	92,87	474,40	0,01015	
18,68	0,4733	93,22	475,30	0,01020	
18,70	0,4738	92,36	476,22	0,01016	
18,72	0,4744	92,13	477,05	0,01004	
18,74	0,4750	92,37	477,96	0,00993	
18,76	0,4756	91,70	478,88	0,00996	
18,78	0,4761	92,37	479,73	0,01012	
18,80	0,4767	92,20	480,64	0,01025	
18,82	0,4774	90,94	481,56	0,01033	
18,84	0,4781	91,43	482,42	0,01032	
18,86	0,4787	91,79	483,31	0,01021	
18,88	0,4792	91,06	484,18	0,01008	
18,90	0,4797	91,59	485,04	0,01005	
18,92	0,4804	92,31	485,97	0,01007	
18,94	0,4811	91,77	486,86	0,01012	
18,96	0,4817	91,30	487,73	0,01025	
18,98	0,4823	90,16	488,68	0,01031	
19,00	0,4830	89,38	489,54	0,01026	
19,02	0,4837	90,98	490,35	0,01015	
19,04	0,4843	91,23	491,30	0,01000	
19,06	0,4848	90,63	492,20	0,01001	
19,08	0,4854	91,44	493,08	0,01003	
19,10	0,4861	90,75	494,03	0,01013	
19,12	0,4868	89,15	494,86	0,01025	
19,14	0,4874	89,35	495,70	0,01025	
19,16	0,4881	89,77	496,59	0,01024	
19,18	0,4889	87,87	497,59	0,01015	
19,20	0,4895	87,70	498,46	0,01005	
19,22	0,4899	91,11	499,12	0,01001	
19,24	0,4905	91,53	500,08	0,01000	
19,26	0,4913	89,42	501,31	0,01005	
19,28	0,4919	90,30	502,23	0,01020	
19,30	0,4924	93,78	502,79	0,01027	
19,32	0,4931	94,58	503,57	0,01015	
19,34	0,4939	92,43	504,79	0,01001	
19,36	0,4946	94,02	505,84	0,00995	
19,38	0,4949	97,39	506,50	0,01000	
19,40	0,4953	98,63	507,16	0,01008	
19,42	0,4960	96,74	508,16	0,01015	
19,44	0,4967	96,58	509,16	0,01022	
19,46	0,4971	98,59	509,96	0,01027	
19,48	0,4975	97,20	510,87	0,01022	
19,50	0,4980	94,53	511,79	0,01019	
19,52	0,4986	95,02	512,65	0,01014	
19,54	0,4991	96,18	513,50	0,01011	
19,56	0,4995	94,86	514,39	0,01017	
19,58	0,5000	93,50	515,31	0,01027	
19,60	0,5005	92,65	516,20	0,01034	
19,62	0,5009	91,69	517,02	0,01023	
19,64	0,5015	90,84	517,93	0,01006	
19,66	0,5021	89,40	518,88	0,00996	
19,68	0,5025	89,60	519,67	0,00994	
19,70	0,5030	90,36	520,52	0,01004	
19,72	0,5037	88,28	521,53	0,01011	
19,74	0,5042	86,73	522,47	0,01018	
19,76	0,5047	87,45	523,31	0,01020	
19,78	0,5053	87,24	524,18	0,01020	
19,80	0,5059	86,36	525,05	0,01010	
19,82	0,5064	87,05	525,98	0,00999	
19,84	0,5070	87,46	526,88	0,00995	
19,86	0,5075	87,19	527,65	0,01004	
19,88	0,5080	86,41	528,55	0,01018	
19,90	0,5087	84,54	529,53	0,01025	
19,92	0,5093	84,15	530,40	0,01028	
19,94	0,5098	84,42	531,31	0,01025	
19,96	0,5104	82,64	532,23	0,01009	
19,98	0,5110	80,85	533,08	0,00994	
20,00	0,5116	80,33	533,97	0,00988	
20,02	0,5122	79,00	534,86	0,00997	
20,04	0,5127	78,71	535,72	0,01011	
20,06	0,5134	79,04	536,62	0,01025	
20,08	0,5141	78,43	537,51	0,01031	
20,10	0,5147	77,96	538,37	0,01020	
20,12	0,5154	76,85	539,32	0,01005	
20,14	0,5161	75,89	540,17	0,01000	
20,16	0,5167	76,22	540,99	0,00999	
20,18	0,5173	74,38	542,00	0,01003	
20,20	0,5178	71,96	542,93	0,01019	
20,22	0,5185	72,30	543,73	0,01029	
20,24	0,5192	72,11	544,64	0,01027	
20,26	0,5200	70,82	545,49	0,01014	
20,28	0,5207	71,18	546,36	0,01004	
20,30	0,5215	70,37	547,35	0,00998	
20,32	0,5221	68,81	548,19	0,00997	
20,34	0,5227	68,81	549,02	0,01001	
20,36	0,5235	67,44	549,97	0,01011	
20,38	0,5241	65,49	550,81	0,01021	
20,40	0,5248	65,39	551,68	0,01028	
20,42	0,5255	64,02	552,67	0,01017	
20,44	0,5262	62,69	553,52	0,01007	
20,46	0,5270	63,10	554,38	0,01001	
20,48	0,5278	62,02	555,34	0,01004	
20,50	0,5285	60,55	556,21	0,01013	
20,52	0,5292	59,46	557,09	0,01021	
20,54	0,5300	56,98	557,98	0,01028	
20,56	0,5308	55,72	558,74	0,01020	
20,58	0,5315	55,71	559,64	0,01004	
20,60	0,5323	53,01	560,72	0,00999	
20,62	0,5331	51,43	561,59	0,01003	
20,64	0,5338	51,17	562,37	0,01008	
20,66	0,5348	48,25	563,35	0,01021	
20,68	0,5356	45,83	564,27	0,01029	
20,70	0,5364	46,00	565,06	0,01021	
20,72	0,5372	45,34	565,84	0,01008	
20,74	0,5381	43,16	566,78	0,00997	
20,76	0,5389	41,96	567,72	0,00999	
20,78	0,5398	42,27	568,58	0,01007	
20,80	0,5408	40,84	569,51	0,01018	
20,82	0,5416	39,00	570,42	0,01030	
20,84	0,5425	38,29	571,26	0,01034	
20,86	0,5434	37,76	572,11	0,01027	
20,88	0,5443	36,36	572,96	0,01013	
20,90	0,5452	35,27	573,85	0,01010	
20,92	0,5461	34,33	574,78	0,01009	
20,94	0,5470	32,85	575,64	0,01013	
20,96	0,5479	30,75	576,48	0,01024	
20,98	0,5489	27,93	577,42	0,01029	
21,00	0,5499	25,23	578,38	0,01029	
21,02	0,5509	23,90	579,30	0,01021	
21,04	0,5519	23,22	580,11	0,01006	
21,06	0,5529	21,36	580,91	0,01000	
21,08	0,5540	18,56	581,87	0,01002	
21,10	0,5551	15,87	582,83	0,01014	
21,12	0,5562	15,08	583,54	0,01021	
21,14	0,5572	12,95	584,43	0,01019	
21,16	0,5584	8,031	585,68	0,01017	
21,18	0,5596	4,609	586,64	0,01013	
21,20	0,5606	4,350	587,16	0,01007	
21,22	0,5616	3,209	587,78	0,01003	
21,24	0,5629	-1,105	588,90	0,01007	
21,26	0,5643	-4,922	590,19	0,01016	
21,28	0,5655	-6,891	590,95	0,01026	
21,30	0,5664	-7,318	591,25	0,01030	
21,32	0,5677	-9,464	591,91	0,01024	
21,34	0,5693	-12,69	593,18	0,01007	
21,36	0,5708	-16,36	594,70	0,00997	
21,38	0,5720	-21,98	595,95	0,00998	
21,40	0,5731	-26,58	596,42	0,01014	
21,42	0,5744	-26,95	596,53	0,01026	
21,44	0,5761	-27,56	597,10	0,01028	
21,46	0,5776	-30,09	598,25	0,01025	
21,48	0,5790	-33,70	599,65	0,01019	
21,50	0,5804	-40,17	601,07	0,01009	
21,52	0,5818	-50,10	602,32	0,01006	
21,54	0,5832	-57,20	602,93	0,01011	
21,56	0,5847	-56,65	602,93	0,01014	
21,58	0,5862	-54,97	603,22	0,01024	
21,60	0,5880	-56,37	604,19	0,01038	
21,62	0,5896	-59,15	605,52	0,01038	
21,64	0,5911	-63,01	606,92	0,01021	
21,66	0,5925	-70,56	608,33	0,01009	
21,68	0,5942	-79,68	609,65	0,01001	
21,70	0,5959	-84,52	610,45	0,01004	
21,72	0,5975	-84,21	610,62	0,01019	
21,74	0,5991	-82,21	610,75	0,01026	
21,76	0,6009	-81,32	611,49	0,01030	
21,78	0,6027	-81,40	612,84	0,01024	
21,80	0,6044	-82,93	614,41	0,01013	
21,82	0,6061	-86,49	615,63	0,00999	
21,84	0,6077	-86,52	616,13	0,01004	
21,86	0,6093	-81,52	616,54	0,01015	
21,88	0,6112	-78,69	617,60	0,01024	
21,90	0,6131	-77,85	618,88	0,01033	
21,92	0,6146	-73,23	619,55	0,01029	
21,94	0,6159	-65,97	619,90	0,01018	
21,96	0,6176	-63,35	620,83	0,01002	
21,98	0,6196	-62,49	622,34	0,00992	
22,00	0,6213	-57,55	623,49	0,01000	
22,02	0,6226	-49,06	624,03	0,01019	
22,04	0,6239	-44,82	624,76	0,01036	
22,06	0,6254	-43,26	625,74	0,01039	
22,08	0,6267	-36,73	626,57	0,01032	
22,10	0,6280	-30,15	627,39	0,01019	
22,12	0,6294	-28,21	628,26	0,01009	
22,14	0,6307	-25,94	629,10	0,01007	
22,16	0,6321	-20,84	630,04	0,01008	
22,18	0,6333	-15,65	630,92	0,01016	
22,20	0,6343	-10,35	631,73	0,01023	
22,22	0,6355	-5,408	632,70	0,01024	
22,24	0,6367	-2,209	633,65	0,01015	
22,26	0,6376	2,282	634,47	0,01002	
22,28	0,6387	6,242	635,36	0,01001	
22,30	0,6397	8,482	636,24	0,01011	
22,32	0,6408	12,05	637,08	0,01021	
22,34	0,6419	14,45	638,05	0,01024	
22,36	0,6429	15,48	638,95	0,01032	
22,38	0,6437	18,23	639,77	0,01032	
22,40	0,6446	20,20	640,73	0,01015	
22,42	0,6456	21,10	641,64	0,01001	
22,44	0,6466	24,22	642,45	0,00999	
22,46	0,6475	26,15	643,37	0,01002	
22,48	0,6484	25,82	644,27	0,01009	
22,50	0,6493	27,39	645,13	0,01021	
22,52	0,6502	28,71	646,06	0,01027	
22,54	0,6511	28,91	646,90	0,01029	
22,56	0,6520	30,22	647,76	0,01017	
22,58	0,6528	30,50	648,76	0,01000	
22,60	0,6536	31,64	649,64	0,00999	
22,62	0,6545	34,14	650,48	0,01004	
22,64	0,6554	34,43	651,39	0,01014	
22,66	0,6562	34,10	652,22	0,01023	
22,68	0,6570	35,46	653,09	0,01024	
22,70	0,6579	35,46	654,05	0,01016	
22,72	0,6587	34,63	654,89	0,01004	
22,74	0,6594	34,87	655,78	0,00999	
22,76	0,6603	34,33	656,74	0,01004	
22,78	0,6611	34,66	657,55	0,01017	
22,80	0,6620	35,34	658,42	0,01021	
22,82	0,6628	34,14	659,40	0,01031	
22,84	0,6636	33,72	660,28	0,01034	
22,86	0,6644	34,03	661,16	0,01015	
22,88	0,6653	32,67	662,03	0,01001	
22,90	0,6661	31,62	662,85	0,00997	
22,92	0,6670	31,03	663,76	0,01009	
22,94	0,6678	30,06	664,67	0,01020	
22,96	0,6686	30,21	665,48	0,01027	
22,98	0,6694	30,64	666,40	0,01034	
23,00	0,6704	28,95	667,39	0,01030	
23,02	0,6711	28,31	668,26	0,01018	
23,04	0,6719	28,13	669,15	0,01010	
23,06	0,6728	25,99	670,05	0,01007	
23,08	0,6737	24,57	670,90	0,01010	
23,10	0,6746	24,41	671,78	0,01017	
23,12	0,6755	23,43	672,68	0,01024	
23,14	0,6764	22,26	673,54	0,01023	
23,16	0,6772	21,47	674,43	0,01020	
23,18	0,6780	20,28	675,33	0,01009	
23,20	0,6788	19,52	676,22	0,01000	
23,22	0,6797	18,74	677,13	0,00999	
23,24	0,6806	17,68	678,00	0,01006	
23,26	0,6815	16,58	678,89	0,01020	
23,28	0,6825	14,91	679,79	0,01029	
23,30	0,6835	14,49	680,59	0,01032	
23,32	0,6844	15,42	681,42	0,01025	
23,34	0,6854	14,00	682,48	0,01013	
23,36	0,6864	12,34	683,46	0,01009	
23,38	0,6873	12,30	684,27	0,01005	
23,40	0,6882	11,57	685,12	0,01009	
23,42	0,6892	9,706	686,00	0,01024	
23,44	0,6902	9,332	686,89	0,01031	
23,46	0,6912	8,802	687,79	0,01031	
23,48	0,6921	7,250	688,64	0,01018	
23,50	0,6931	7,121	689,51	0,01003	
23,52	0,6941	5,929	690,47	0,00992	
23,54	0,6951	4,879	691,32	0,01001	
23,56	0,6961	4,967	692,19	0,01020	
23,58	0,6972	3,809	693,15	0,01027	
23,60	0,6981	3,189	694,01	0,01034	
23,62	0,6991	3,169	694,87	0,01030	
23,64	0,7001	1,727	695,78	0,01015	
23,66	0,7012	0,1608	696,66	0,01005	
23,68	0,7023	-0,09936	697,52	0,01005	
23,70	0,7033	-0,3327	698,43	0,01008	
23,72	0,7043	-0,6980	699,33	0,01011	
23,74	0,7053	-0,9693	700,19	0,01017	
23,76	0,7064	-1,617	701,08	0,01018	
23,78	0,7075	-2,884	702,02	0,01018	
23,80	0,7086	-3,509	702,86	0,01004	
23,82	0,7098	-2,999	703,70	0,00997	
23,84	0,7109	-3,757	704,68	0,01003	
23,86	0,7120	-4,487	705,63	0,01014	
23,88	0,7130	-4,521	706,47	0,01021	
23,90	0,7141	-5,503	707,31	0,01023	
23,92	0,7153	-7,047	708,20	0,01022	
23,94	0,7164	-7,379	709,11	0,01017	
23,96	0,7175	-7,105	709,99	0,01007	
23,98	0,7186	-7,321	710,84	0,01006	
24,00	0,7196	-7,223	711,72	0,01011	
24,02	0,7207	-7,311	712,65	0,01017	
24,04	0,7220	-7,509	713,53	0,01020	
24,06	0,7231	-7,814	714,39	0,01022	
24,08	0,7242	-8,573	715,29	0,01020	
24,10	0,7254	-9,512	716,20	0,01011	
24,12	0,7265	-9,470	717,06	0,01007	
24,14	0,7275	-9,404	717,91	0,01003	
24,16	0,7287	-10,79	718,84	0,01003	
24,18	0,7298	-11,90	719,75	0,01011	
24,20	0,7309	-12,17	720,61	0,01019	
24,22	0,7321	-12,71	721,50	0,01018	
24,24	0,7332	-13,75	722,38	0,01018	
24,26	0,7342	-14,04	723,26	0,01004	
24,28	0,7355	-14,91	724,20	0,00993	
24,30	0,7366	-15,50	725,09	0,01004	
24,32	0,7376	-14,59	725,94	0,01020	
24,34	0,7388	-14,10	726,86	0,01032	
24,36	0,7401	-14,17	727,78	0,01034	
24,38	0,7412	-13,34	728,65	0,01026	
24,40	0,7423	-11,50	729,53	0,01015	
24,42	0,7435	-9,906	730,47	0,01004	
24,44	0,7446	-7,700	731,41	0,00998	
24,46	0,7457	-4,915	732,28	0,01001	
24,48	0,7468	-2,345	733,15	0,01014	
24,50	0,7478	-0,2085	734,03	0,01024	
24,52	0,7488	2,116	734,91	0,01028	
24,54	0,7498	5,075	735,82	0,01024	
24,56	0,7509	7,758	736,72	0,01013	
24,58	0,7520	10,38	737,60	0,01003	
24,60	0,7531	12,92	738,47	0,01003	
24,62	0,7540	14,84	739,31	0,01013	
24,64	0,7550	16,65	740,24	0,01017	
24,66	0,7559	18,18	741,17	0,01022	
24,68	0,7567	20,28	741,91	0,01024	
24,70	0,7576	22,26	742,82	0,01014	
24,72	0,7586	21,89	744,02	0,01004	
24,74	0,7594	23,78	744,94	0,01003	
24,76	0,7603	26,65	745,69	0,01010	
24,78	0,7612	26,86	746,54	0,01014	
24,80	0,7621	26,36	747,39	0,01022	
24,82	0,7630	27,60	748,23	0,01025	
24,84	0,7639	27,89	749,13	0,01027	
24,86	0,7647	26,86	750,04	0,01020	
24,88	0,7655	27,20	750,92	0,01004	
24,90	0,7664	28,59	751,81	0,00997	
24,92	0,7673	29,39	752,71	0,00998	
24,94	0,7681	30,62	753,53	0,01008	
24,96	0,7689	31,42	754,43	0,01015	
24,98	0,7698	30,98	755,38	0,01023	
25,00	0,7706	31,26	756,11	0,01024	
25,02	0,7715	32,17	757,01	0,01011	
25,04	0,7724	30,01	758,31	0,00996	
25,06	0,7732	29,72	759,29	0,00995	
25,08	0,7740	31,90	759,98	0,01007	
25,10	0,7749	31,87	760,78	0,01017	
25,12	0,7758	30,64	761,62	0,01019	
25,14	0,7766	31,29	762,49	0,01015	
25,16	0,7774	31,32	763,38	0,01009	
25,18	0,7782	30,98	764,19	0,00998	
25,20	0,7791	31,04	765,14	0,00994	
25,22	0,7800	30,73	766,10	0,01000	
25,24	0,7807	32,14	766,81	0,01014	
25,26	0,7816	33,14	767,84	0,01024	
25,28	0,7826	31,23	769,09	0,01029	
25,30	0,7834	31,09	769,90	0,01033	
25,32	0,7842	32,53	770,61	0,01022	
25,34	0,7851	31,47	771,38	0,01004	
25,36	0,7858	31,34	772,16	0,00994	
25,38	0,7868	32,33	773,19	0,00990	
25,40	0,7877	31,78	774,10	0,01000	
25,42	0,7885	32,62	774,77	0,01019	
25,44	0,7894	32,67	775,94	0,01032	
25,46	0,7904	30,73	777,24	0,01024	
25,48	0,7912	31,81	777,93	0,01010	
25,50	0,7920	34,62	778,42	0,01004	
25,52	0,7928	33,63	779,34	0,01009	
25,54	0,7938	31,69	780,40	0,01013	
25,56	0,7944	34,53	781,03	0,01019	
25,58	0,7952	35,76	781,96	0,01026	
25,60	0,7962	32,00	783,41	0,01025	
25,62	0,7971	31,29	784,32	0,01016	
25,64	0,7977	35,70	784,63	0,01004	
25,66	0,7985	36,33	785,37	0,00999	
25,68	0,7996	31,97	786,84	0,00996	
25,70	0,8004	32,22	787,97	0,01006	
25,72	0,8011	35,52	788,52	0,01023	
25,74	0,8018	34,92	789,19	0,01033	
25,76	0,8027	33,00	790,12	0,01036	
25,78	0,8034	35,11	790,87	0,01028	
25,80	0,8042	38,42	791,61	0,01011	
25,82	0,8051	36,49	792,84	0,01002	
25,84	0,8059	34,61	793,94	0,01007	
25,86	0,8064	38,11	794,62	0,01020	
25,88	0,8072	38,53	795,56	0,01025	
25,90	0,8080	36,92	796,41	0,01028	
25,92	0,8087	39,65	797,14	0,01029	
25,94	0,8096	40,82	798,28	0,01018	
25,96	0,8103	39,16	799,28	0,01009	
25,98	0,8111	40,86	800,00	0,01003	
26,00	0,8119	41,67	800,86	0,01005	
26,02	0,8126	41,24	801,47	0,01017	
26,04	0,8131	44,58	802,17	0,01029	
26,06	0,8140	45,43	803,66	0,01030	
26,08	0,8147	42,58	804,99	0,01018	
26,10	0,8152	44,79	805,37	0,01007	
26,12	0,8158	48,64	805,69	0,00995	
26,14	0,8167	47,42	806,99	0,01000	
26,16	0,8176	46,00	808,59	0,01011	
26,18	0,8182	49,48	809,26	0,01018	
26,20	0,8187	52,15	809,45	0,01027	
26,22	0,8194	51,59	810,34	0,01030	
26,24	0,8203	49,55	811,93	0,01023	
26,26	0,8208	51,86	812,93	0,01011	
26,28	0,8212	54,20	813,32	0,01008	
26,30	0,8217	51,67	814,06	0,01008	
26,32	0,8223	49,36	815,08	0,01010	
26,34	0,8229	52,98	815,66	0,01018	
26,36	0,8234	57,52	816,29	0,01026	
26,38	0,8240	55,33	817,82	0,01024	
26,40	0,8248	52,14	819,30	0,01009	
26,42	0,8252	56,20	819,64	0,01003	
26,44	0,8256	60,62	819,78	0,01000	
26,46	0,8261	58,67	821,02	0,00997	
26,48	0,8268	55,72	822,86	0,00997	
26,50	0,8274	57,63	823,70	0,01013	
26,52	0,8276	61,93	823,57	0,01029	
26,54	0,8280	62,59	824,09	0,01023	
26,56	0,8287	60,04	825,86	0,01013	
26,58	0,8294	58,49	827,51	0,01002	
26,60	0,8296	61,08	827,84	0,01003	
26,62	0,8298	62,63	827,94	0,01003	
26,64	0,8304	59,51	829,22	0,01011	
26,66	0,8310	56,75	830,90	0,01023	
26,68	0,8314	60,13	831,46	0,01030	
26,70	0,8315	64,24	831,35	0,01026	
26,72	0,8319	61,30	832,15	0,01010	
26,74	0,8325	56,81	834,10	0,01002	
26,76	0,8329	56,72	835,58	0,01002	
26,78	0,8331	60,18	835,75	0,01018	
26,80	0,8333	60,06	836,13	0,01032	
26,82	0,8338	55,55	837,64	0,01031	
26,84	0,8343	54,99	838,94	0,01037	
26,86	0,8346	59,14	839,20	0,01031	
26,88	0,8349	59,14	839,47	0,01016	
26,90	0,8353	53,68	840,88	0,01002	
26,92	0,8358	50,57	842,55	0,01004	
26,94	0,8360	53,85	843,12	0,01023	
26,96	0,8362	55,70	843,24	0,01033	
26,98	0,8366	52,63	844,29	0,01028	
27,00	0,8372	48,43	845,91	0,01024	
27,02	0,8375	50,63	846,79	0,01023	
27,04	0,8377	51,83	847,35	0,01014	
27,06	0,8380	49,17	847,91	0,01010	
27,08	0,8384	48,66	848,56	0,01015	
27,10	0,8389	49,70	849,63	0,01029	
27,12	0,8393	48,87	850,30	0,01040	
27,14	0,8396	51,24	850,06	0,01034	
27,16	0,8399	56,52	849,73	0,01019	
27,18	0,8404	58,14	849,93	0,01007	
27,20	0,8407	62,04	849,89	0,01003	
27,22	0,8409	69,10	849,64	0,01006	
27,24	0,8414	69,25	849,82	0,01010	
27,26	0,8417	67,76	849,86	0,01026	
27,28	0,8420	73,71	849,62	0,01033	
27,30	0,8424	77,26	849,79	0,01029	
27,32	0,8428	76,35	849,94	0,01016	
27,34	0,8429	80,47	849,68	0,01004	
27,36	0,8431	83,45	849,70	0,01006	
27,38	0,8435	81,27	849,85	0,01016	
27,40	0,8437	83,84	849,64	0,01032	
27,42	0,8440	87,27	849,69	0,01032	
27,44	0,8444	85,05	849,96	0,01036	
27,46	0,8445	86,53	849,79	0,01031	
27,48	0,8447	91,30	849,64	0,01016	
27,50	0,8451	89,43	849,87	0,01013	
27,52	0,8453	88,61	849,80	0,01015	
27,54	0,8455	92,99	849,62	0,01022	
27,56	0,8458	92,58	849,82	0,01024	
27,58	0,8460	91,20	849,79	0,01028	
27,60	0,8461	95,60	849,58	0,01030	
27,62	0,8464	96,17	849,83	0,01023	
27,64	0,8467	93,53	849,96	0,01015	
27,66	0,8468	96,14	849,68	0,01009	
27,68	0,8471	97,19	849,73	0,01005	
27,70	0,8474	93,88	849,89	0,01012	
27,72	0,8475	95,59	849,67	0,01023	
27,74	0,8477	98,10	849,65	0,01032	
27,76	0,8481	95,27	849,91	0,01034	
27,78	0,8483	96,08	849,77	0,01029	
27,80	0,8483	100,16	849,61	0,01017	
27,82	0,8487	98,15	849,85	0,01009	
27,84	0,8490	96,84	849,81	0,01015	
27,86	0,8490	100,87	849,60	0,01019	
27,88	0,8492	100,36	849,84	0,01023	
27,90	0,8496	97,21	849,94	0,01029	
27,92	0,8496	100,36	849,66	0,01034	
27,94	0,8499	101,40	849,77	0,01025	
27,96	0,8502	98,11	849,95	0,01006	
27,98	0,8503	100,98	849,69	0,00999	
28,00	0,8504	103,52	849,67	0,01003	
28,02	0,8508	99,25	849,94	0,01015	
28,04	0,8509	99,01	849,79	0,01028	
28,06	0,8510	103,34	849,61	0,01039	
28,08	0,8514	101,17	849,89	0,01036	
28,10	0,8517	98,80	849,90	0,01022	
28,12	0,8517	103,11	849,66	0,01012	
28,14	0,8519	102,31	849,82	0,01007	
28,16	0,8522	99,08	849,86	0,01014	
28,18	0,8523	102,93	849,61	0,01021	
28,20	0,8525	103,87	849,79	0,01024	
28,22	0,8528	100,34	849,98	0,01031	
28,24	0,8529	102,29	849,71	0,01030	
28,26	0,8531	104,57	849,71	0,01017	
28,28	0,8534	100,40	850,00	0,01010	
28,30	0,8536	101,07	849,85	0,01020	
28,32	0,8537	105,58	849,66	0,01021	
28,34	0,8539	103,20	849,85	0,01029	
28,36	0,8542	100,94	849,79	0,01045	
28,38	0,8543	103,97	849,59	0,01043	
28,40	0,8545	102,87	849,82	0,01026	
28,42	0,8548	100,50	849,86	0,01006	
28,44	0,8549	104,42	849,61	0,00994	
28,46	0,8551	105,20	849,78	0,00998	
28,48	0,8555	101,67	849,92	0,01019	
28,50	0,8556	104,45	849,66	0,01025	
28,52	0,8558	106,19	849,72	0,01025	
28,54	0,8560	102,42	849,92	0,01029	
28,56	0,8562	103,37	849,72	0,01018	
28,58	0,8564	105,79	849,67	0,01008	
28,60	0,8566	102,64	849,82	0,01006	
28,62	0,8567	103,62	849,63	0,01017	
28,64	0,8569	107,77	849,61	0,01020	
28,66	0,8572	104,37	850,02	0,01021	
28,68	0,8574	102,19	850,00	0,01024	
28,70	0,8576	106,89	849,69	0,01014	
28,72	0,8578	106,04	849,83	0,00999	
28,74	0,8580	102,63	849,89	0,00992	
28,76	0,8581	106,41	849,62	0,01000	
28,78	0,8584	107,45	849,76	0,01008	
28,80	0,8586	103,81	849,97	0,01017	
28,82	0,8587	105,59	849,71	0,01029	
28,84	0,8589	108,32	849,67	0,01033	
28,86	0,8592	105,06	849,98	0,01028	
28,88	0,8592	104,65	849,87	0,01019	
28,90	0,8593	108,57	849,66	0,01010	
28,92	0,8597	106,36	849,85	0,01004	
28,94	0,8599	104,13	849,82	0,01011	
28,96	0,8598	107,78	849,59	0,01025	
28,98	0,8601	107,25	849,85	0,01027	
29,00	0,8604	103,94	850,00	0,01024	
29,02	0,8604	107,04	849,71	0,01009	
29,04	0,8606	108,72	849,73	0,00994	
29,06	0,8610	105,34	849,89	0,01001	
29,08	0,8611	106,67	849,66	0,01018	
29,10	0,8612	109,23	849,66	0,01025	
29,12	0,8615	105,60	849,97	0,01027	
29,14	0,8617	105,51	849,84	0,01026	
29,16	0,8618	109,24	849,64	0,01021	
29,18	0,8619	106,63	849,87	0,01007	
29,20	0,8621	104,25	849,84	0,01007	
29,22	0,8623	108,47	849,59	0,01014	
29,24	0,8625	108,01	849,84	0,01017	
29,26	0,8627	104,24	850,01	0,01024	
29,28	0,8628	106,97	849,73	0,01030	
29,30	0,8631	108,57	849,71	0,01028	
29,32	0,8633	105,37	849,82	0,01024	
29,34	0,8634	107,37	849,60	0,01015	
29,36	0,8637	109,81	849,68	0,00997	
29,38	0,8639	105,82	850,03	0,00998	
29,40	0,8639	105,52	849,89	0,01019	
29,42	0,8639	109,17	849,70	0,01028	
29,44	0,8643	106,69	849,83	0,01028	
29,46	0,8645	105,54	849,70	0,01027	
29,48	0,8645	109,70	849,57	0,01012	
29,50	0,8648	108,76	849,85	0,00998	
29,52	0,8651	106,43	849,84	0,01004	
29,54	0,8651	109,70	849,60	0,01011	
29,56	0,8653	109,56	849,79	0,01014	
29,58	0,8657	106,36	849,89	0,01018	
29,60	0,8658	109,74	849,61	0,01020	
29,62	0,8659	110,76	849,72	0,01016	
29,64	0,8661	106,43	849,98	0,01004	
29,66	0,8662	108,05	849,77	0,00997	
29,68	0,8664	111,04	849,68	0,00993	
29,70	0,8666	106,73	849,91	0,01002	
29,72	0,8666	105,77	849,80	0,01017	
29,74	0,8669	109,85	849,62	0,01026	
29,76	0,8672	107,81	849,84	0,01029	
29,78	0,8673	104,98	849,82	0,01018	
29,80	0,8672	108,48	849,60	0,01007	
29,82	0,8675	107,82	849,87	0,01007	
29,84	0,8678	105,12	850,02	0,01010	
29,86	0,8678	108,77	849,72	0,01019	
29,88	0,8679	110,13	849,72	0,01029	
29,90	0,8683	106,19	849,89	0,01040	
29,92	0,8685	107,98	849,66	0,01035	
29,94	0,8685	110,91	849,65	0,01013	
29,96	0,8688	106,53	849,98	0,00995	
29,98	0,8690	105,55	849,89	0,00991	
30,00	0,8691	110,27	849,66	0,00995	
30,02	0,8693	108,83	849,85	0,01008	
30,04	0,8693	106,56	849,84	0,01025	
30,06	0,8695	110,39	849,61	0,01034	
30,08	0,8699	109,25	849,83	0,01031	
30,10	0,8700	104,57	849,95	0,01023	
30,12	0,8698	107,21	849,67	0,01006	
30,14	0,8701	109,21	849,73	0,01005	
30,16	0,8705	106,09	849,90	0,01026	
30,18	0,8705	108,18	849,66	0,01036	
30,20	0,8706	110,35	849,70	0,01036	
30,22	0,8709	106,07	850,00	0,01036	
30,24	0,8711	105,57	849,84	0,01027	
30,26	0,8711	109,22	849,64	0,01006	
30,28	0,8713	106,67	849,87	0,01008	
30,30	0,8715	105,27	849,83	0,01020	
30,32	0,8716	109,72	849,61	0,01022	
30,34	0,8719	108,55	849,82	0,01025	
30,36	0,8721	105,28	849,89	0,01026	
30,38	0,8722	108,40	849,61	0,01022	
30,40	0,8725	108,81	849,74	0,00992	
30,42	0,8727	104,86	849,96	0,00973	
30,44	0,8726	107,39	849,70	0,00976	
30,46	0,8726	110,15	849,64	0,00975	
30,48	0,8730	105,90	849,91	0,00988	
30,50	0,8732	105,28	849,80	0,00965	
30,52	0,8732	108,93	849,63	0,00890	
30,54	0,8734	107,08	849,85	0,00834	
30,56	0,8737	105,73	849,81	0,00806	
30,58	0,8738	109,92	849,58	0,00791	
30,60	0,8740	108,59	849,86	0,00789	
30,62	0,8742	105,21	850,04	0,00799	
30,64	0,8744	108,23	849,75	0,00809	
30,66	0,8746	109,22	849,70	0,00809	
30,68	0,8747	105,75	849,82	0,00802	
30,70	0,8746	107,91	849,61	0,00786	
30,72	0,8749	110,22	849,67	0,00767	
30,74	0,8753	106,25	850,00	0,00719	
30,76	0,8753	106,09	849,86	0,00610	
30,78	0,8752	110,24	849,65	0,00486	
30,80	0,8755	108,08	849,86	0,00415	
30,82	0,8758	106,03	849,83	0,00401	
30,84	0,8758	110,35	849,59	0,00402	
30,86	0,8760	110,09	849,85	0,00450	
30,88	0,8763	106,34	850,00	0,00512	
30,90	0,8764	108,87	849,71	0,00546	
30,92	0,8766	109,92	849,72	0,00557	
30,94	0,8767	106,02	849,87	0,00561	
30,96	0,8768	107,80	849,64	0,00564	
30,98	0,8771	110,04	849,68	0,00558	
31,00	0,8774	106,19	849,95	0,00541	
31,02	0,8773	106,56	849,78	0,00529	
31,04	0,8772	110,93	849,65	0,00526	
31,06	0,8776	108,78	849,88	0,00524	
31,08	0,8778	107,07	849,80	0,00509	
31,10	0,8779	110,33	849,61	0,00453	
31,12	0,8781	108,88	849,86	0,00409	
31,14	0,8784	106,44	849,91	0,00389	
31,16	0,8785	110,57	849,64	0,00368	
31,18	0,8787	111,22	849,78	0,00355	
31,20	0,8788	107,64	849,93	0,00358	
31,22	0,8789	109,64	849,68	0,00371	
31,24	0,8792	110,96	849,70	0,00374	
31,26	0,8794	107,18	849,86	0,00383	
31,28	0,8792	108,06	849,64	0,00391	
31,30	0,8793	111,12	849,66	0,00381	
31,32	0,8797	108,39	850,00	0,00364	
31,34	0,8799	107,51	849,89	0,00357	
31,36	0,8799	111,05	849,64	0,00363	
31,38	0,8801	108,94	849,84	0,00369	
31,40	0,8804	106,42	849,86	0,00385	
31,42	0,8805	110,38	849,62	0,00400	
31,44	0,8807	110,52	849,75	0,00393	
31,46	0,8808	107,32	849,83	0,00380	
31,48	0,8809	110,16	849,58	0,00373	
31,50	0,8812	111,41	849,75	0,00369	
31,52	0,8814	107,71	850,03	0,00372	
31,54	0,8813	108,92	849,79	0,00381	
31,56	0,8813	112,50	849,64	0,00389	
31,58	0,8818	109,42	849,90	0,00390	
31,60	0,8820	108,17	849,82	0,00389	
31,62	0,8819	111,98	849,59	0,00383	
31,64	0,8820	110,48	849,82	0,00367	
31,66	0,8823	107,30	849,89	0,00363	
31,68	0,8824	110,76	849,62	0,00365	
31,70	0,8827	111,25	849,74	0,00372	
31,72	0,8828	107,64	849,93	0,00383	
31,74	0,8828	110,21	849,69	0,00393	
31,76	0,8831	112,73	849,68	0,00385	
31,78	0,8834	108,99	849,98	0,00374	
31,80	0,8834	108,62	849,85	0,00371	
31,82	0,8833	112,49	849,63	0,00369	
31,84	0,8836	110,11	849,87	0,00374	
31,86	0,8839	108,09	849,88	0,00387	
31,88	0,8839	112,00	849,61	0,00396	
31,90	0,8840	111,80	849,79	0,00393	
31,92	0,8843	107,88	849,95	0,00379	
31,94	0,8844	110,28	849,70	0,00359	
31,96	0,8846	112,01	849,69	0,00347	
31,98	0,8848	108,82	849,81	0,00361	
32,00	0,8848	110,61	849,60	0,00379	
32,02	0,8851	113,26	849,71	0,00386	
32,04	0,8854	110,43	850,03	0,00385	
32,06	0,8853	110,46	849,86	0,00380	
32,08	0,8853	113,95	849,66	0,00373	
32,10	0,8856	111,61	849,84	0,00372	
32,12	0,8859	109,59	849,76	0,00378	
32,14	0,8859	113,29	849,59	0,00379	
32,16	0,8861	112,26	849,88	0,00384	
32,18	0,8863	109,45	849,97	0,00386	
32,20	0,8864	113,07	849,68	0,00383	
32,22	0,8867	114,18	849,74	0,00377	
32,24	0,8868	111,00	849,84	0,00370	
32,26	0,8867	113,55	849,60	0,00366	
32,28	0,8870	114,88	849,71	0,00362	
32,30	0,8874	110,83	849,98	0,00369	
32,32	0,8873	111,40	849,78	0,00380	
32,34	0,8873	114,65	849,63	0,00383	
32,36	0,8876	111,94	849,86	0,00380	
32,38	0,8879	111,24	849,79	0,00367	
32,40	0,8879	115,19	849,59	0,00352	
32,42	0,8881	113,16	849,81	0,00354	
32,44	0,8883	110,05	849,84	0,00367	
32,46	0,8885	113,50	849,61	0,00382	
32,48	0,8887	113,72	849,74	0,00384	
32,50	0,8888	110,62	849,81	0,00380	
32,52	0,8886	113,51	849,56	0,00373	
32,54	0,8888	114,84	849,74	0,00359	
32,56	0,8892	111,10	850,03	0,00353	
32,58	0,8893	112,15	849,82	0,00363	
32,60	0,8893	115,02	849,66	0,00368	
32,62	0,8895	112,00	849,77	0,00364	
32,64	0,8897	111,40	849,60	0,00372	
32,66	0,8899	114,69	849,60	0,00379	
32,68	0,8901	112,36	849,99	0,00374	
32,70	0,8901	110,39	849,97	0,00364	
32,72	0,8900	114,17	849,66	0,00352	
32,74	0,8903	113,70	849,80	0,00353	
32,76	0,8906	110,28	849,87	0,00369	
32,78	0,8906	113,49	849,62	0,00376	
32,80	0,8907	113,92	849,74	0,00373	
32,82	0,8910	110,33	849,90	0,00369	
32,84	0,8912	112,06	849,65	0,00356	
32,86	0,8913	114,99	849,67	0,00344	
32,88	0,8915	112,17	849,97	0,00347	
32,90	0,8915	112,15	849,83	0,00365	
32,92	0,8916	115,65	849,63	0,00379	
32,94	0,8920	112,80	849,85	0,00385	
32,96	0,8921	111,03	849,84	0,00386	
32,98	0,8920	114,77	849,61	0,00376	
33,00	0,8921	114,24	849,81	0,00360	
33,02	0,8925	111,05	849,89	0,00347	
33,04	0,8925	114,23	849,61	0,00351	
33,06	0,8927	114,76	849,76	0,00357	
33,08	0,8929	110,70	849,98	0,00370	
33,10	0,8930	111,97	849,73	0,00376	
33,12	0,8933	114,29	849,69	0,00375	
33,14	0,8935	111,32	849,97	0,00372	
33,16	0,8934	111,03	849,83	0,00363	
33,18	0,8934	114,85	849,65	0,00352	
33,20	0,8938	112,47	849,89	0,00351	
33,22	0,8940	110,31	849,87	0,00363	
33,24	0,8940	114,06	849,61	0,00369	
33,26	0,8941	113,95	849,78	0,00368	
33,28	0,8943	110,96	849,87	0,00365	
33,30	0,8944	114,22	849,61	0,00356	
33,32	0,8947	115,33	849,75	0,00346	
33,34	0,8948	111,28	849,99	0,00340	
33,36	0,8948	112,09	849,75	0,00350	
33,38	0,8950	114,94	849,64	0,00357	
33,40	0,8954	112,01	849,87	0,00364	
33,42	0,8954	111,77	849,76	0,00374	
33,44	0,8953	115,59	849,62	0,00370	
33,46	0,8955	113,34	849,89	0,00355	
33,48	0,8958	110,84	849,87	0,00344	
33,50	0,8959	114,72	849,61	0,00349	
33,52	0,8961	114,57	849,80	0,00357	
33,54	0,8962	111,11	849,93	0,00366	
33,56	0,8962	114,07	849,65	0,00372	
33,58	0,8965	115,31	849,68	0,00370	
33,60	0,8968	111,74	849,86	0,00359	
33,62	0,8967	114,04	849,65	0,00351	
33,64	0,8967	116,98	849,65	0,00351	
33,66	0,8970	113,28	849,96	0,00350	
33,68	0,8973	112,87	849,84	0,00356	
33,70	0,8973	117,07	849,61	0,00368	
33,72	0,8975	115,09	849,83	0,00371	
33,74	0,8975	112,71	849,88	0,00367	
33,76	0,8977	116,95	849,63	0,00359	
33,78	0,8980	116,38	849,82	0,00350	
33,80	0,8982	111,89	849,97	0,00356	
33,82	0,8980	114,67	849,70	0,00364	
33,84	0,8981	116,72	849,71	0,00363	
33,86	0,8985	112,77	849,89	0,00368	
33,88	0,8987	113,79	849,68	0,00373	
33,90	0,8987	117,55	849,64	0,00364	
33,92	0,8989	114,59	849,92	0,00358	
33,94	0,8990	113,52	849,82	0,00356	
33,96	0,8992	117,11	849,63	0,00346	
33,98	0,8995	115,38	849,87	0,00350	
34,00	0,8995	113,59	849,87	0,00365	
34,02	0,8994	117,58	849,60	0,00369	
34,04	0,8995	117,62	849,77	0,00373	
34,06	0,8999	114,11	849,93	0,00373	
34,08	0,9000	116,75	849,67	0,00361	
34,10	0,9001	118,45	849,67	0,00346	
34,12	0,9002	114,05	849,89	0,00347	
34,14	0,9003	114,78	849,72	0,00358	
34,16	0,9006	118,31	849,61	0,00362	
34,18	0,9009	115,56	849,93	0,00367	
34,20	0,9009	114,17	849,92	0,00375	
34,22	0,9007	118,15	849,66	0,00374	
34,24	0,9010	117,84	849,78	0,00363	
34,26	0,9014	115,22	849,79	0,00355	
34,28	0,9014	118,26	849,56	0,00349	
34,30	0,9015	118,30	849,80	0,00349	
34,32	0,9016	114,36	850,04	0,00363	
34,34	0,9018	116,06	849,78	0,00370	
34,36	0,9020	118,08	849,69	0,00363	
34,38	0,9022	115,19	849,83	0,00358	
34,40	0,9021	115,91	849,63	0,00353	
34,42	0,9021	118,37	849,63	0,00349	
34,44	0,9026	115,24	849,97	0,00351	
34,46	0,9028	114,34	849,90	0,00357	
34,48	0,9027	118,46	849,64	0,00362	
34,50	0,9029	117,32	849,82	0,00362	
34,52	0,9031	114,76	849,87	0,00360	
34,54	0,9032	118,12	849,62	0,00350	
34,56	0,9035	118,35	849,76	0,00339	
34,58	0,9036	114,47	849,91	0,00337	
34,60	0,9034	116,73	849,66	0,00348	
34,62	0,9035	118,68	849,69	0,00356	
34,64	0,9039	115,36	849,92	0,00362	
34,66	0,9041	116,20	849,72	0,00363	
34,68	0,9041	119,92	849,64	0,00350	
34,70	0,9043	116,69	849,94	0,00337	
34,72	0,9045	115,45	849,87	0,00340	
34,74	0,9047	120,04	849,62	0,00353	
34,76	0,9049	118,94	849,82	0,00362	
34,78	0,9049	115,44	849,88	0,00368	
34,80	0,9048	118,13	849,61	0,00365	
34,82	0,9050	118,79	849,74	0,00358	
34,84	0,9054	114,98	849,92	0,00349	
34,86	0,9054	117,18	849,69	0,00355	
34,88	0,9055	120,10	849,67	0,00350	
34,90	0,9057	116,55	849,90	0,00347	
34,92	0,9058	116,50	849,73	0,00360	
34,94	0,9060	120,20	849,62	0,00368	
34,96	0,9062	117,65	849,92	0,00358	
34,98	0,9062	115,93	849,89	0,00350	
35,00	0,9062	120,32	849,63	0,00390	
35,02	0,9066	119,99	849,85	0,00972	
35,04	0,9068	117,01	849,94	0,02477	
35,06	0,9067	120,53	849,66	0,04008	
35,08	0,9068	121,44	849,75	0,05138	
35,10	0,9071	117,46	849,92	0,06066	
35,12	0,9073	119,16	849,69	0,06277	
35,14	0,9075	121,49	849,66	0,06499	
35,16	0,9076	118,58	849,84	0,06716	
35,18	0,9075	119,22	849,66	0,06274	
35,20	0,9076	122,40	849,62	0,06148	
35,22	0,9081	119,40	849,96	0,06099	
35,24	0,9082	117,94	849,90	0,05847	
35,26	0,9081	122,16	849,62	0,05691	
35,28	0,9083	121,52	849,82	0,05989	
35,30	0,9086	118,49	849,92	0,06083	
35,32	0,9087	121,46	849,64	0,05451	
35,34	0,9089	121,71	849,73	0,05200	
35,36	0,9090	117,72	849,94	0,04664	
35,38	0,9089	119,95	849,72	0,04021	
35,40	0,9092	122,81	849,67	0,03546	
35,42	0,9095	119,52	849,91	0,03463	
35,44	0,9095	119,35	849,78	0,03807	
35,46	0,9095	122,90	849,62	0,04060	
35,48	0,9097	120,34	849,88	0,04119	
35,50	0,9099	118,36	849,88	0,04105	
35,52	0,9101	122,80	849,63	0,04085	
35,54	0,9102	122,23	849,82	0,04071	
35,56	0,9103	118,82	849,90	0,04063	
35,58	0,9103	122,15	849,64	0,04041	
35,60	0,9107	123,40	849,77	0,04012	
35,62	0,9109	120,27	849,95	0,03982	
35,64	0,9108	121,89	849,70	0,03956	
35,66	0,9109	124,05	849,68	0,03952	
35,68	0,9110	120,82	849,92	0,03962	
35,70	0,9112	121,32	849,76	0,03975	
35,72	0,9114	125,35	849,64	0,03985	
35,74	0,9116	122,89	849,87	0,03980	
35,76	0,9116	121,42	849,79	0,03949	
35,78	0,9115	124,96	849,62	0,03925	
35,80	0,9118	123,25	849,87	0,03929	
35,82	0,9121	120,76	849,88	0,03950	
35,84	0,9121	124,25	849,60	0,03975	
35,86	0,9122	124,21	849,80	0,04014	
35,88	0,9124	120,97	849,97	0,04064	
35,90	0,9125	124,04	849,70	0,04076	
35,92	0,9128	125,59	849,73	0,04085	
35,94	0,9130	121,58	849,94	0,04104	
35,96	0,9129	122,13	849,73	0,04145	
35,98	0,9128	125,05	849,64	0,04194	
36,00	0,9130	122,23	849,89	0,04240	
36,02	0,9133	121,26	849,80	0,04272	
36,04	0,9134	125,13	849,61	0,04286	
36,06	0,9136	123,40	849,86	0,04308	
36,08	0,9137	120,70	849,91	0,04314	
36,10	0,9136	124,47	849,63	0,04314	
36,12	0,9139	125,06	849,76	0,04319	
36,14	0,9142	121,18	849,92	0,04331	
36,16	0,9142	123,30	849,66	0,04332	
36,18	0,9142	125,40	849,69	0,04313	
36,20	0,9144	122,16	849,98	0,04301	
36,22	0,9146	122,50	849,82	0,04290	
36,24	0,9147	125,92	849,64	0,04287	
36,26	0,9150	123,01	849,87	0,04282	
36,28	0,9149	121,36	849,82	0,04267	
36,30	0,9148	125,13	849,59	0,04250	
36,32	0,9151	124,02	849,81	0,04248	
36,34	0,9155	121,27	849,90	0,04246	
36,36	0,9155	124,65	849,62	0,04217	
36,38	0,9156	125,24	849,75	0,04173	
36,40	0,9158	121,23	850,01	0,04135	
36,42	0,9159	122,65	849,78	0,04097	
36,44	0,9161	125,58	849,66	0,04064	
36,46	0,9163	122,41	849,90	0,04047	
36,48	0,9163	121,81	849,79	0,04042	
36,50	0,9162	125,76	849,62	0,04033	
36,52	0,9164	123,74	849,88	0,04010	
36,54	0,9167	120,88	849,90	0,03994	
36,56	0,9168	124,12	849,63	0,03980	
36,58	0,9170	124,14	849,78	0,03986	
36,60	0,9170	120,93	849,92	0,04014	
36,62	0,9170	124,00	849,65	0,04050	
36,64	0,9174	125,52	849,76	0,04080	
36,66	0,9177	121,56	850,00	0,04111	
36,68	0,9176	122,21	849,79	0,04153	
36,70	0,9176	125,01	849,70	0,04186	
36,72	0,9178	122,34	849,84	0,04221	
36,74	0,9179	122,06	849,65	0,04272	
36,76	0,9181	124,60	849,65	0,04312	
36,78	0,9184	122,04	849,98	0,04362	
36,80	0,9183	121,13	849,88	0,04399	
36,82	0,9182	125,12	849,64	0,04387	
36,84	0,9185	123,52	849,85	0,04368	
36,86	0,9188	120,88	849,87	0,04368	
36,88	0,9188	124,18	849,62	0,04374	
36,90	0,9189	124,25	849,78	0,04366	
36,92	0,9190	120,85	849,90	0,04367	
36,94	0,9189	123,33	849,63	0,04376	
36,96	0,9192	124,50	849,70	0,04394	
36,98	0,9196	120,78	849,96	0,04413	
37,00	0,9196	121,84	849,75	0,04385	
37,02	0,9196	125,00	849,66	0,04339	
37,04	0,9198	122,24	849,92	0,04312	
37,06	0,9200	121,17	849,83	0,04320	
37,08	0,9202	124,67	849,63	0,04317	
37,10	0,9204	122,64	849,79	0,04301	
37,12	0,9203	120,46	849,73	0,04276	
37,14	0,9202	123,66	849,56	0,04226	
37,16	0,9205	122,65	849,87	0,04171	
37,18	0,9209	119,60	850,02	0,04122	
37,20	0,9209	122,64	849,71	0,04093	
37,22	0,9210	123,71	849,73	0,04077	
37,24	0,9211	120,03	849,90	0,04081	
37,26	0,9213	121,95	849,66	0,04086	
37,28	0,9215	124,46	849,68	0,04083	
37,30	0,9217	121,06	849,99	0,04082	
37,32	0,9216	120,63	849,84	0,04072	
37,34	0,9216	124,70	849,65	0,04075	
37,36	0,9219	122,79	849,89	0,04087	
37,38	0,9222	120,54	849,85	0,04107	
37,40	0,9222	123,81	849,60	0,04131	
37,42	0,9223	122,81	849,85	0,04148	
37,44	0,9224	119,54	849,98	0,04164	
37,46	0,9224	122,80	849,68	0,04182	
37,48	0,9228	124,31	849,72	0,04209	
37,50	0,9231	120,09	849,91	0,04245	
37,52	0,9230	121,11	849,68	0,04285	
37,54	0,9229	123,74	849,66	0,04312	
37,56	0,9233	120,11	849,97	0,04343	
37,58	0,9235	119,68	849,85	0,04375	
37,60	0,9236	123,71	849,63	0,04387	
37,62	0,9237	121,65	849,87	0,04381	
37,64	0,9237	119,23	849,89	0,04369	
37,66	0,9238	123,05	849,63	0,04355	
37,68	0,9242	122,63	849,79	0,04352	
37,70	0,9244	119,67	849,87	0,04375	
37,72	0,9242	122,67	849,60	0,04406	
37,74	0,9243	123,37	849,76	0,04416	
37,76	0,9246	118,93	850,01	0,04406	
37,78	0,9248	120,50	849,77	0,04384	
37,80	0,9249	123,83	849,67	0,04373	
37,82	0,9251	120,36	849,94	0,04380	
37,84	0,9251	119,87	849,82	0,04386	
37,86	0,9253	123,84	849,63	0,04359	
37,88	0,9256	121,75	849,85	0,04314	
37,90	0,9257	119,27	849,84	0,04290	
37,92	0,9256	123,01	849,61	0,04273	
37,94	0,9258	122,30	849,85	0,04253	
37,96	0,9261	118,80	849,97	0,04232	
37,98	0,9262	121,42	849,70	0,04231	
38,00	0,9264	122,46	849,75	0,04247	
38,02	0,9264	118,78	849,85	0,04276	
38,04	0,9263	120,40	849,61	0,04305	
38,06	0,9265	122,16	849,73	0,04316	
38,08	0,9269	118,98	849,98	0,04309	
38,10	0,9270	119,59	849,75	0,04293	
38,12	0,9270	122,73	849,65	0,04291	
38,14	0,9271	119,95	849,89	0,04315	
38,16	0,9273	119,51	849,76	0,04348	
38,18	0,9275	122,91	849,61	0,04378	
38,20	0,9277	120,53	849,90	0,04406	
38,22	0,9278	118,36	849,93	0,04417	
38,24	0,9276	122,82	849,64	0,04407	
38,26	0,9279	122,47	849,80	0,04396	
38,28	0,9282	118,79	849,94	0,04398	
38,30	0,9283	121,30	849,68	0,04421	
38,32	0,9284	122,46	849,72	0,04447	
38,34	0,9285	118,59	849,88	0,04479	
38,36	0,9286	120,43	849,65	0,04503	
38,38	0,9289	123,52	849,70	0,04512	
38,40	0,9291	120,09	850,00	0,04518	
38,42	0,9290	119,46	849,84	0,04513	
38,44	0,9290	122,88	849,65	0,04508	
38,46	0,9293	120,52	849,91	0,04528	
38,48	0,9296	118,40	849,88	0,04557	
38,50	0,9296	122,16	849,63	0,04572	
38,52	0,9297	121,60	849,84	0,04591	
38,54	0,9298	117,87	849,95	0,04610	
38,56	0,9299	120,54	849,67	0,04603	
38,58	0,9303	121,48	849,76	0,04589	
38,60	0,9305	117,87	849,93	0,04595	
38,62	0,9303	119,92	849,67	0,04619	
38,64	0,9304	122,18	849,67	0,04630	
38,66	0,9308	118,86	849,97	0,04639	
38,68	0,9310	118,86	849,83	0,04654	
38,70	0,9310	122,48	849,64	0,04654	
38,72	0,9311	119,82	849,87	0,04656	
38,74	0,9313	117,97	849,84	0,04654	
38,76	0,9314	121,81	849,60	0,04644	
38,78	0,9317	120,32	849,83	0,04634	
38,80	0,9318	116,72	849,94	0,04632	
38,82	0,9316	120,19	849,65	0,04615	
38,84	0,9318	121,60	849,73	0,04600	
38,86	0,9321	117,87	849,92	0,04587	
38,88	0,9322	119,80	849,68	0,04565	
38,90	0,9323	121,90	849,65	0,04542	
38,92	0,9325	117,97	849,90	0,04524	
38,94	0,9326	117,83	849,75	0,04527	
38,96	0,9328	121,39	849,60	0,04533	
38,98	0,9331	119,05	849,90	0,04539	
39,00	0,9331	117,43	849,90	0,04545	
39,02	0,9330	120,97	849,64	0,04534	
39,04	0,9332	119,47	849,82	0,04524	
39,06	0,9335	115,82	849,89	0,04534	
39,08	0,9335	119,50	849,62	0,04561	
39,10	0,9337	120,41	849,77	0,04605	
39,12	0,9338	115,69	850,04	0,04659	
39,14	0,9339	116,98	849,80	0,04693	
39,16	0,9341	120,34	849,65	0,04681	
39,18	0,9344	116,87	849,89	0,04653	
39,20	0,9344	116,26	849,80	0,04631	
39,22	0,9343	121,08	849,59	0,04616	
39,24	0,9345	119,26	849,90	0,04610	
39,26	0,9348	115,80	850,01	0,04624	
39,28	0,9349	119,14	849,70	0,04639	
39,30	0,9351	120,11	849,74	0,04641	
39,32	0,9352	115,98	849,85	0,04634	
39,34	0,9352	118,59	849,62	0,04626	
39,36	0,9355	120,86	849,71	0,04623	
39,38	0,9358	116,67	849,96	0,04626	
39,40	0,9357	116,35	849,76	0,04639	
39,42	0,9357	119,27	849,67	0,04649	
39,44	0,9360	116,52	849,92	0,04659	
39,46	0,9363	116,10	849,79	0,04659	
39,48	0,9363	120,13	849,65	0,04644	
39,50	0,9365	117,98	849,96	0,04629	
39,52	0,9365	115,41	849,95	0,04624	
39,54	0,9364	118,48	849,69	0,04628	
39,56	0,9368	117,47	849,79	0,04640	
39,58	0,9371	114,15	849,79	0,04652	
39,60	0,9370	116,79	849,58	0,04655	
39,62	0,9371	117,22	849,85	0,04652	
39,64	0,9374	114,10	850,01	0,04647	
39,66	0,9375	116,52	849,73	0,04631	
39,68	0,9377	118,48	849,74	0,04617	
39,70	0,9379	115,30	849,84	0,04624	
39,72	0,9377	116,90	849,61	0,04632	
39,74	0,9378	118,49	849,71	0,04641	
39,76	0,9382	114,52	850,01	0,04648	
39,78	0,9383	114,41	849,82	0,04649	
39,80	0,9384	117,82	849,69	0,04635	
39,82	0,9386	115,58	849,91	0,04622	
39,84	0,9388	114,53	849,78	0,04615	
39,86	0,9389	118,09	849,62	0,04607	
39,88	0,9391	116,16	849,90	0,04616	
39,90	0,9391	113,70	849,90	0,04631	
39,92	0,9390	116,93	849,65	0,04637	
39,94	0,9393	116,22	849,81	0,04630	
39,96	0,9397	113,85	849,85	0,04621	
39,98	0,9397	117,25	849,59	0,04609	
40,00	0,9398	117,60	849,81	0,04608	
40,02	0,9399	113,97	850,04	0,04628	
40,04	0,9400	115,57	849,78	0,04633	
40,06	0,9403	117,04	849,68	0,04626	
40,08	0,9405	113,76	849,80	0,04625	
40,10	0,9404	114,91	849,60	0,04616	
40,12	0,9405	117,28	849,66	0,04598	
40,14	0,9409	114,11	850,01	0,04596	
40,16	0,9411	113,55	849,89	0,04605	
40,18	0,9410	117,74	849,65	0,04609	
40,20	0,9412	116,05	849,83	0,04615	
40,22	0,9414	114,50	849,81	0,04630	
40,24	0,9415	118,38	849,59	0,04623	
40,26	0,9418	117,01	849,85	0,04605	
40,28	0,9419	113,16	849,98	0,04600	
40,30	0,9417	115,81	849,71	0,04604	
40,32	0,9419	116,65	849,81	0,04609	
40,34	0,9422	112,50	849,97	0,04620	
40,36	0,9423	114,47	849,70	0,04626	
40,38	0,9424	116,76	849,71	0,04625	
40,40	0,9426	112,95	849,97	0,04622	
40,42	0,9426	112,72	849,79	0,04606	
40,44	0,9429	116,47	849,65	0,04592	
40,46	0,9432	113,60	849,91	0,04599	
40,48	0,9432	112,06	849,84	0,04609	
40,50	0,9431	115,60	849,66	0,04613	
40,52	0,9434	113,76	849,89	0,04621	
40,54	0,9437	110,78	849,88	0,04618	
40,56	0,9437	114,50	849,62	0,04599	
40,58	0,9439	114,91	849,83	0,04588	
40,60	0,9440	111,33	849,98	0,04597	
40,62	0,9441	113,82	849,69	0,04601	
40,64	0,9444	115,54	849,72	0,04599	
40,66	0,9446	111,96	849,91	0,04607	
40,68	0,9445	113,37	849,69	0,04615	
40,70	0,9445	115,22	849,69	0,04614	
40,72	0,9449	111,55	849,96	0,04605	
40,74	0,9451	111,75	849,79	0,04587	
40,76	0,9451	115,55	849,63	0,04573	
40,78	0,9453	113,09	849,89	0,04584	
40,80	0,9454	111,24	849,84	0,04602	
40,82	0,9456	114,94	849,62	0,04603	
40,84	0,9459	113,60	849,84	0,04603	
40,86	0,9460	110,68	849,88	0,04599	
40,88	0,9458	114,01	849,61	0,04583	
40,90	0,9461	114,52	849,81	0,04573	
40,92	0,9464	110,92	850,01	0,04571	
40,94	0,9464	113,07	849,74	0,04571	
40,96	0,9465	115,30	849,71	0,04578	
40,98	0,9468	111,68	849,93	0,04596	
41,00	0,9469	111,94	849,74	0,04597	
41,02	0,9471	115,10	849,64	0,04579	
41,04	0,9473	112,50	849,93	0,04569	
41,06	0,9472	111,03	849,87	0,04567	
41,08	0,9472	114,90	849,62	0,04560	
41,10	0,9477	113,57	849,83	0,04559	
41,12	0,9479	110,69	849,88	0,04575	
41,14	0,9477	113,84	849,62	0,04577	
41,16	0,9479	114,01	849,81	0,04573	
41,18	0,9483	109,98	850,02	0,04566	
41,20	0,9484	112,44	849,76	0,04554	
41,22	0,9485	114,49	849,70	0,04551	
41,24	0,9486	110,90	849,84	0,04562	
41,26	0,9486	111,65	849,63	0,04567	
41,28	0,9490	114,02	849,67	0,04569	
41,30	0,9493	111,01	849,97	0,04572	
41,32	0,9492	110,48	849,83	0,04561	
41,34	0,9491	113,89	849,66	0,04546	
41,36	0,9494	112,08	849,87	0,04541	
41,38	0,9497	110,94	849,80	0,04546	
41,40	0,9497	114,59	849,61	0,04549	
41,42	0,9499	112,71	849,86	0,04550	
41,44	0,9501	110,00	849,90	0,04559	
41,46	0,9502	113,65	849,61	0,04559	
41,48	0,9505	114,30	849,78	0,04544	
41,50	0,9506	110,70	849,98	0,04534	
41,52	0,9505	112,82	849,72	0,04533	
41,54	0,9505	114,47	849,71	0,04531	
41,56	0,9509	110,10	849,96	0,04542	
41,58	0,9511	110,58	849,79	0,04552	
41,60	0,9511	114,53	849,65	0,04552	
41,62	0,9513	111,76	849,89	0,04547	
41,64	0,9516	110,24	849,80	0,04533	
41,66	0,9517	114,23	849,63	0,04519	
41,68	0,9519	112,70	849,89	0,04517	
41,70	0,9519	110,17	849,88	0,04526	
41,72	0,9520	113,38	849,62	0,04536	
41,74	0,9524	112,59	849,87	0,04542	
41,76	0,9526	108,75	850,03	0,04544	
41,78	0,9525	112,00	849,73	0,04536	
41,80	0,9526	114,38	849,74	0,04518	
41,82	0,9530	111,02	849,90	0,04506	
41,84	0,9531	111,74	849,67	0,04508	
41,86	0,9532	113,96	849,67	0,04511	
41,88	0,9533	110,88	849,93	0,04518	
41,90	0,9534	110,35	849,77	0,04527	
41,92	0,9536	113,78	849,64	0,04524	
41,94	0,9539	111,51	849,88	0,04517	
41,96	0,9539	110,17	849,81	0,04507	
41,98	0,9539	114,23	849,61	0,04495	
42,00	0,9543	112,76	849,88	0,04497	
42,02	0,9546	110,20	849,93	0,04512	
42,04	0,9545	113,36	849,66	0,04519	
42,06	0,9547	112,62	849,79	0,04528	
42,08	0,9550	108,73	849,92	0,04523	
42,10	0,9551	111,89	849,64	0,04502	
42,12	0,9552	114,23	849,72	0,04480	
42,14	0,9553	110,75	850,00	0,04480	
42,16	0,9554	111,42	849,80	0,04488	
42,18	0,9556	114,60	849,68	0,04488	
42,20	0,9560	111,05	849,90	0,04494	
42,22	0,9559	109,75	849,78	0,04494	
42,24	0,9558	113,47	849,61	0,04485	
42,26	0,9561	111,93	849,86	0,04480	
42,28	0,9564	109,89	849,83	0,04474	
42,30	0,9565	113,28	849,60	0,04459	
42,32	0,9566	112,56	849,86	0,04463	
42,34	0,9567	108,77	849,99	0,04482	
42,36	0,9568	111,69	849,71	0,04491	
42,38	0,9572	113,43	849,77	0,04486	
42,40	0,9573	110,69	849,88	0,04475	
42,42	0,9572	112,93	849,64	0,04463	
42,44	0,9573	114,39	849,75	0,04453	
42,46	0,9577	110,80	849,99	0,04456	
42,48	0,9578	111,53	849,76	0,04466	
42,50	0,9223	114,02	849,68	0,04479	
42,52	0,7327	110,44	849,91	0,04488	
42,54	0,5555	110,14	849,78	0,04481	
42,56	0,4917	114,20	849,62	0,04462	
42,58	0,4870	112,38	849,87	0,04447	
42,60	0,4905	110,95	849,82	0,04445	
42,62	0,4913	114,82	849,63	0,04443	
42,64	0,4912	113,65	849,88	0,04453	
42,66	0,4911	110,66	849,91	0,04463	
42,68	0,4911	113,74	849,62	0,04458	
42,70	0,4914	114,03	849,79	0,04452	
42,72	0,4917	109,94	849,98	0,04452	
42,74	0,4916	112,02	849,72	0,04445	
42,76	0,4916	113,41	849,71	0,04438	
42,78	0,4918	109,01	849,91	0,04454	
42,80	0,4917	110,05	849,70	0,04463	
42,82	0,4919	113,59	849,64	0,04452	
42,84	0,4923	110,40	849,97	0,04440	
42,86	0,4925	109,42	849,91	0,04418	
42,88	0,4926	115,31	849,62	0,04387	
42,90	0,4932	116,21	849,84	0,04358	
42,92	0,4938	115,61	849,96	0,04336	
42,94	0,4943	122,68	849,68	0,04311	
42,96	0,4950	127,37	849,75	0,04276	
42,98	0,4958	127,60	849,91	0,04239	
43,00	0,4964	134,53	849,66	0,04199	
43,02	0,4972	142,47	849,71	0,04149	
43,04	0,4983	145,54	849,99	0,04089	
43,06	0,4992	153,09	849,80	0,04032	
43,08	0,5001	164,71	849,67	0,03973	
43,10	0,5015	170,30	849,93	0,03930	
43,12	0,5027	176,68	849,85	0,03893	
43,14	0,5040	188,95	849,63	0,03839	
43,16	0,5056	197,05	849,85	0,03775	
43,18	0,5072	204,58	849,86	0,03703	
43,20	0,5086	218,43	849,60	0,03630	
43,22	0,5104	228,80	849,82	0,03563	
43,24	0,5123	236,35	850,00	0,03505	
43,26	0,5140	250,95	849,72	0,03447	
43,28	0,5161	264,33	849,71	0,03376	
43,30	0,5182	272,58	849,85	0,03300	
43,32	0,5201	286,67	849,62	0,03220	
43,34	0,5222	301,49	849,67	0,03136	
43,36	0,5246	310,36	850,01	0,03053	
43,38	0,5268	322,66	849,88	0,02976	
43,40	0,5291	338,94	849,66	0,02898	
43,42	0,5318	349,35	849,85	0,02820	
43,44	0,5342	360,95	849,78	0,02745	
43,46	0,5366	378,38	849,59	0,02659	
43,48	0,5396	390,14	849,88	0,02546	
43,50	0,5425	399,45	849,98	0,02432	
43,52	0,5452	415,59	849,70	0,02322	
43,54	0,5481	429,62	849,76	0,02208	
43,56	0,5512	439,99	849,83	0,02109	
43,58	0,5542	455,86	849,58	0,02017	
43,60	0,5576	470,12	849,76	0,01904	
43,62	0,5610	479,42	850,03	0,01784	
43,64	0,5641	493,06	849,80	0,01661	
43,66	0,5675	507,54	849,70	0,01521	
43,68	0,5712	516,11	849,85	0,01385	
43,70	0,5746	528,00	849,65	0,01263	
43,72	0,5783	542,11	849,64	0,01127	
43,74	0,5823	549,73	850,01	0,00992	
43,76	0,5859	558,24	849,94	0,00854	
43,78	0,5897	572,06	849,67	0,00704	
43,80	0,5939	579,85	849,81	0,00543	
43,82	0,5979	585,78	849,78	0,00390	
43,84	0,6018	597,13	849,58	0,00243	
43,86	0,6059	603,96	849,88	0,00092	
43,88	0,6100	607,06	850,01	-0,00046	
43,90	0,6139	615,73	849,71	-0,00185	
43,92	0,6180	622,48	849,76	-0,00337	
43,94	0,6221	625,08	849,88	-0,00484	
43,96	0,6260	632,91	849,64	-0,00640	
43,98	0,6301	639,29	849,71	-0,00811	
44,00	0,6342	639,80	849,90	-0,00966	
44,02	0,6380	644,37	849,69	-0,01106	
44,04	0,6418	650,78	849,69	-0,01261	
44,06	0,6458	651,73	849,94	-0,01413	
44,08	0,6496	655,57	849,78	-0,01563	
44,10	0,6535	661,65	849,64	-0,01725	
44,12	0,6577	661,93	849,84	-0,01897	
44,14	0,6616	663,99	849,74	-0,02061	
44,16	0,6655	670,72	849,59	-0,02218	
44,18	0,6697	670,64	849,92	-0,02367	
44,20	0,6737	670,22	849,99	-0,02514	
44,22	0,6776	676,00	849,70	-0,02670	
44,24	0,6818	677,62	849,78	-0,02842	
44,26	0,6858	675,93	849,79	-0,03008	
44,28	0,6897	680,53	849,56	-0,03176	
44,30	0,6939	682,51	849,80	-0,03354	
44,32	0,6980	680,28	850,05	-0,03509	
44,34	0,7019	683,61	849,77	-0,03651	
44,36	0,7059	687,90	849,70	-0,03815	
44,38	0,7101	685,91	849,92	-0,03981	
44,40	0,7140	687,87	849,76	-0,04144	
44,42	0,7180	693,04	849,65	-0,04322	
44,44	0,7221	691,15	849,93	-0,04494	
44,46	0,7261	690,45	849,86	-0,04650	
44,48	0,7300	695,34	849,64	-0,04808	
44,50	0,7341	694,95	849,87	-0,04969	
44,52	0,7379	693,34	849,89	-0,05125	
44,54	0,7415	698,13	849,62	-0,05293	
44,56	0,7456	699,40	849,82	-0,05480	
44,58	0,7497	696,42	849,98	-0,05657	
44,60	0,7535	699,37	849,71	-0,05821	
44,62	0,7576	701,28	849,75	-0,05983	
44,64	0,7618	698,47	849,90	-0,06136	
44,66	0,7656	700,82	849,66	-0,06294	
44,68	0,7697	704,03	849,71	-0,06467	
44,70	0,7739	701,64	849,97	-0,06632	
44,72	0,7778	702,68	849,76	-0,06800	
44,74	0,7818	706,77	849,66	-0,06983	
44,76	0,7859	704,54	849,96	-0,07157	
44,78	0,7899	703,86	849,88	-0,07303	
44,80	0,7938	707,86	849,67	-0,07455	
44,82	0,7980	705,82	849,86	-0,07618	
44,84	0,8020	702,95	849,81	-0,07777	
44,86	0,8059	706,82	849,59	-0,07950	
44,88	0,8101	706,87	849,87	-0,08131	
44,90	0,8141	703,48	850,00	-0,08305	
44,92	0,8180	706,83	849,70	-0,08470	
44,94	0,8221	708,55	849,75	-0,08628	
44,96	0,8262	705,59	849,91	-0,08778	
44,98	0,8299	708,79	849,66	-0,08934	
45,00	0,8336	711,89	849,70	-0,09114	
45,02	0,8376	708,14	850,01	-0,09298	
45,04	0,8415	708,35	849,86	-0,09467	
45,06	0,8455	712,38	849,66	-0,09641	
45,08	0,8497	710,46	849,82	-0,09812	
45,10	0,8537	709,61	849,72	-0,09961	
45,12	0,8576	714,65	849,57	-0,1011	
45,14	0,8618	713,13	849,92	-0,1028	
45,16	0,8658	709,77	850,00	-0,1046	
45,18	0,8697	713,55	849,70	-0,1064	
45,20	0,8738	713,75	849,81	-0,1081	
45,22	0,8779	710,22	849,89	-0,1096	
45,24	0,8818	713,44	849,62	-0,1112	
45,26	0,8859	715,09	849,77	-0,1128	
45,28	0,8900	711,93	850,02	-0,1143	
45,30	0,8939	713,85	849,78	-0,1160	
45,32	0,8980	716,35	849,72	-0,1179	
45,34	0,9021	712,91	849,86	-0,1196	
45,36	0,9060	713,63	849,65	-0,1212	
45,38	0,9100	717,42	849,65	-0,1228	
45,40	0,9142	714,80	850,00	-0,1245	
45,42	0,9181	713,69	849,90	-0,1260	
45,44	0,9221	717,18	849,66	-0,1277	
45,46	0,9262	715,36	849,86	-0,1294	
45,48	0,9301	713,52	849,84	-0,1311	
45,50	0,9337	718,28	849,61	-0,1329	
45,52	0,9377	718,07	849,85	-0,1345	
45,54	0,9417	714,56	849,98	-0,1359	
45,56	0,9456	717,32	849,70	-0,1374	
45,58	0,9497	718,59	849,77	-0,1392	
45,60	0,9539	715,51	849,93	-0,1409	
45,62	0,9577	718,21	849,68	-0,1426	
45,64	0,9618	720,99	849,70	-0,1444	
45,66	0,9659	717,16	849,94	-0,1460	
45,68	0,9698	717,84	849,75	-0,1475	
45,70	0,9738	721,29	849,69	-0,1490	
45,72	0,9780	718,29	849,95	-0,1506	
45,74	0,9820	717,18	849,82	-0,1523	
45,76	0,9859	721,78	849,62	-0,1541	
45,78	0,9900	720,01	849,93	-0,1559	
45,80	0,9941	717,16	849,99	-0,1574	
45,82	0,9979	721,02	849,71	-0,1590	
45,84	1,002	720,85	849,83	-0,1605	
45,86	1,006	717,04	849,90	-0,1621	
45,88	1,010	720,44	849,62	-0,1637	
45,90	1,014	722,72	849,77	-0,1655	
45,92	1,018	719,27	850,02	-0,1672	
45,94	1,021	720,63	849,78	-0,1689	
45,96	1,026	723,04	849,71	-0,1705	
45,98	1,030	719,60	849,92	-0,1721	
46,00	1,034	720,21	849,73	-0,1735	
46,02	1,038	724,21	849,66	-0,1750	
46,04	1,042	721,34	850,00	-0,1767	
46,06	1,046	719,41	849,95	-0,1785	
46,08	1,050	723,78	849,70	-0,1802	
46,10	1,054	722,70	849,91	-0,1819	
46,12	1,058	719,76	849,92	-0,1833	
46,14	1,062	723,43	849,68	-0,1848	
46,16	1,066	723,92	849,82	-0,1864	
46,18	1,070	721,24	849,85	-0,1880	
46,20	1,074	723,89	849,61	-0,1897	
46,22	1,078	723,72	849,84	-0,1914	
46,24	1,082	719,98	850,04	-0,1931	
46,26	1,086	722,86	849,74	-0,1946	
46,28	1,090	725,62	849,72	-0,1962	
46,30	1,094	722,54	849,92	-0,1977	
46,32	1,098	723,92	849,72	-0,1993	
46,34	1,102	726,38	849,68	-0,2009	
46,36	1,106	722,76	849,89	-0,2026	
46,38	1,110	722,07	849,71	-0,2043	
46,40	1,114	725,56	849,65	-0,2060	
46,42	1,118	723,74	850,00	-0,2075	
46,44	1,122	722,59	849,96	-0,2089	
46,46	1,126	726,59	849,67	-0,2104	
46,48	1,130	725,30	849,81	-0,2120	
46,50	1,134	722,65	849,81	-0,2137	
46,52	1,138	726,79	849,59	-0,2154	
46,54	1,142	727,17	849,85	-0,2170	
46,56	1,146	723,48	850,02	-0,2185	
46,58	1,150	725,55	849,72	-0,2199	
46,60	1,154	727,20	849,73	-0,2215	
46,62	1,158	723,40	849,91	-0,2231	
46,64	1,162	724,48	849,68	-0,2247	
46,66	1,166	727,51	849,67	-0,2264	
46,68	1,170	724,35	849,99	-0,2281	
46,70	1,174	724,16	849,87	-0,2296	
46,72	1,178	728,58	849,67	-0,2312	
46,74	1,182	726,57	849,93	-0,2327	
46,76	1,186	724,63	849,90	-0,2342	
46,78	1,190	728,95	849,63	-0,2358	
46,80	1,194	728,44	849,86	-0,2375	
46,82	1,198	725,24	849,98	-0,2392	
46,84	1,202	728,04	849,70	-0,2408	
46,86	1,206	728,92	849,81	-0,2423	
46,88	1,210	725,38	850,01	-0,2437	
46,90	1,214	727,16	849,75	-0,2452	
46,92	1,218	729,70	849,72	-0,2468	
46,94	1,222	726,39	849,93	-0,2485	
46,96	1,226	727,03	849,74	-0,2501	
46,98	1,230	730,98	849,64	-0,2518	
47,00	1,234	728,13	849,95	-0,2533	
47,02	1,238	726,25	849,88	-0,2547	
47,04	1,242	730,03	849,66	-0,2561	
47,06	1,246	728,81	849,86	-0,2577	
47,08	1,250	726,28	849,85	-0,2593	
47,10	1,254	730,11	849,61	-0,2610	
47,12	1,258	729,90	849,87	-0,2627	
47,14	1,262	726,38	850,03	-0,2643	
47,16	1,266	729,35	849,74	-0,2657	
47,18	1,270	731,32	849,80	-0,2672	
47,20	1,274	727,94	849,96	-0,2686	
47,22	1,278	729,95	849,70	-0,2701	
47,24	1,282	732,40	849,69	-0,2717	
47,26	1,286	728,95	849,95	-0,2734	
47,28	1,290	729,07	849,79	-0,2750	
47,30	1,294	731,89	849,66	-0,2765	
47,32	1,298	728,52	849,93	-0,2780	
47,34	1,302	727,10	849,85	-0,2795	
47,36	1,306	731,88	849,60	-0,2810	
47,38	1,310	730,79	849,88	-0,2827	
47,40	1,314	727,27	850,00	-0,2844	
47,42	1,318	730,50	849,70	-0,2859	
47,44	1,322	731,56	849,72	-0,2875	
47,46	1,326	728,65	849,84	-0,2889	
47,48	1,330	731,18	849,61	-0,2902	
47,50	1,334	732,90	849,73	-0,2917	
47,52	1,338	729,22	850,03	-0,2933	
47,54	1,342	729,84	849,82	-0,2950	
47,56	1,346	732,48	849,68	-0,2966	
47,58	1,350	729,55	849,96	-0,2982	
47,60	1,354	729,32	849,88	-0,2996	
47,62	1,358	733,56	849,64	-0,3010	
47,64	1,362	731,55	849,89	-0,3026	
47,66	1,366	728,85	849,94	-0,3041	
47,68	1,370	733,29	849,65	-0,3057	
47,70	1,374	734,03	849,80	-0,3075	
47,72	1,378	730,26	849,94	-0,3090	
47,74	1,382	732,60	849,67	-0,3105	
47,76	1,386	733,89	849,75	-0,3119	
47,78	1,390	729,60	849,99	-0,3133	
47,80	1,394	730,70	849,76	-0,3148	
47,82	1,398	734,09	849,67	-0,3164	
47,84	1,402	731,02	849,96	-0,3181	
47,86	1,406	730,19	849,85	-0,3196	
47,88	1,410	734,35	849,66	-0,3212	
47,90	1,414	732,08	849,93	-0,3227	
47,92	1,418	729,13	849,93	-0,3240	
47,94	1,422	733,11	849,65	-0,3254	
47,96	1,426	733,10	849,84	-0,3270	
47,98	1,430	729,69	849,98	-0,3286	
48,00	1,434	733,06	849,70	-0,3301	
48,02	1,438	734,40	849,78	-0,3317	
48,04	1,442	730,51	849,97	-0,3333	
48,06	1,446	732,77	849,72	-0,3347	
48,08	1,450	735,61	849,72	-0,3362	
48,10	1,454	732,22	850,01	-0,3377	
48,12	1,458	732,21	849,84	-0,3391	
48,14	1,462	735,87	849,68	-0,3406	
48,16	1,466	733,92	849,93	-0,3423	
48,18	1,470	732,66	849,87	-0,3438	
48,20	1,474	736,38	849,67	-0,3453	
48,22	1,478	734,68	849,88	-0,3468	
48,24	1,482	731,60	849,87	-0,3481	
48,26	1,486	734,47	849,63	-0,3495	
48,28	1,490	734,38	849,88	-0,3512	
48,30	1,494	731,74	849,99	-0,3528	
48,32	1,498	734,76	849,70	-0,3542	
48,34	1,502	735,78	849,80	-0,3558	
48,36	1,506	732,37	849,95	-0,3573	
48,38	1,510	734,54	849,68	-0,3586	
48,40	1,514	736,46	849,71	-0,3601	
48,42	1,518	732,49	850,05	-0,3616	
48,44	1,522	732,30	849,89	-0,3632	
48,46	1,526	736,07	849,70	-0,3649	
48,48	1,530	734,12	849,96	-0,3664	
48,50	1,534	732,69	849,90	-0,3677	
48,52	1,538	736,30	849,69	-0,3692	
48,54	1,542	734,60	849,87	-0,3707	
48,56	1,546	731,76	849,83	-0,3721	
48,58	1,550	735,08	849,61	-0,3736	
48,60	1,554	734,78	849,88	-0,3752	
48,62	1,558	731,99	849,98	-0,3768	
48,64	1,562	735,39	849,70	-0,3782	
48,66	1,566	736,60	849,79	-0,3796	
48,68	1,570	733,36	849,92	-0,3810	
48,70	1,574	735,95	849,67	-0,3824	
48,72	1,578	737,38	849,78	-0,3840	
48,74	1,582	733,21	850,00	-0,3856	
48,76	1,586	734,26	849,75	-0,3871	
48,78	1,590	737,25	849,72	-0,3885	
48,80	1,594	733,72	849,98	-0,3899	
48,82	1,598	733,68	849,80	-0,3913	
48,84	1,602	737,66	849,65	-0,3928	
48,86	1,606	735,00	849,95	-0,3943	
48,88	1,610	732,90	849,91	-0,3958	
48,90	1,614	736,59	849,68	-0,3974	
48,92	1,618	735,50	849,86	-0,3990	
48,94	1,622	732,91	849,86	-0,4004	
48,96	1,626	736,68	849,62	-0,4018	
48,98	1,630	736,67	849,85	-0,4032	
49,00	1,634	733,12	849,97	-0,4046	
49,02	1,638	735,88	849,68	-0,4062	
49,04	1,642	737,42	849,80	-0,4079	
49,06	1,646	733,94	850,00	-0,4094	
49,08	1,650	736,20	849,75	-0,4108	
49,10	1,654	738,93	849,75	-0,4121	
49,12	1,658	735,83	849,92	-0,4135	
49,14	1,662	736,06	849,69	-0,4149	
49,16	1,666	738,60	849,70	-0,4164	
49,18	1,670	735,43	850,02	-0,4181	
49,20	1,674	734,63	849,87	-0,4196	
49,22	1,678	737,89	849,72	-0,4211	
49,24	1,682	735,84	849,94	-0,4225	
49,26	1,686	734,82	849,84	-0,4238	
49,28	1,690	738,94	849,66	-0,4252	
49,30	1,694	737,93	849,93	-0,4267	
49,32	1,698	735,11	849,92	-0,4282	
49,34	1,702	737,60	849,67	-0,4298	
49,36	1,706	736,89	849,87	-0,4314	
49,38	1,710	734,52	849,96	-0,4328	
49,40	1,714	737,95	849,67	-0,4341	
49,42	1,718	739,20	849,82	-0,4355	
49,44	1,722	735,82	850,00	-0,4370	
49,46	1,726	737,86	849,73	-0,4385	
49,48	1,730	739,77	849,73	-0,4400	
49,50	1,734	736,10	849,92	-0,4415	
49,52	1,738	737,15	849,71	-0,4429	
49,54	1,742	739,87	849,71	-0,4444	
49,56	1,746	736,46	850,05	-0,4458	
49,58	1,750	735,34	849,92	-0,4471	
49,60	1,754	738,94	849,70	-0,4485	
49,62	1,758	737,29	849,89	-0,4501	
49,64	1,762	735,48	849,83	-0,4517	
49,66	1,766	739,01	849,65	-0,4532	
49,68	1,770	737,84	849,93	-0,4547	
49,70	1,774	734,95	849,97	-0,4560	
49,72	1,778	737,77	849,68	-0,4572	
49,74	1,782	737,80	849,84	-0,4587	
49,76	1,786	734,53	849,98	-0,4603	
49,78	1,790	737,46	849,69	-0,4619	
49,80	1,794	739,70	849,79	-0,4634	
49,82	1,798	736,22	850,03	-0,4647	
49,84	1,802	737,32	849,79	-0,4659	
49,86	1,806	739,94	849,75	-0,4673	
49,88	1,810	736,75	850,01	-0,4687	
49,90	1,814	736,96	849,83	-0,4702	
49,92	1,818	741,15	849,66	-0,4719	
49,94	1,822	738,63	849,94	-0,4735	
49,96	1,826	736,39	849,90	-0,4749	
49,98	1,830	739,84	849,66	-0,4762	
50,00	1,834	738,30	849,90	-0,4776	
50,02	1,838	735,77	849,95	-0,4790	
50,04	1,842	739,78	849,69	-0,4805	
50,06	1,846	740,06	849,78	-0,4820	
50,08	1,850	736,84	849,78	-0,4835	
50,10	1,854	739,76	849,56	-0,4850	
50,12	1,858	740,42	849,84	-0,4864	
50,14	1,862	736,78	850,07	-0,4876	
50,16	1,866	738,61	849,80	-0,4889	
50,18	1,870	740,06	849,76	-0,4904	
50,20	1,874	736,37	849,91	-0,4920	
50,22	1,878	738,14	849,68	-0,4935	
50,24	1,882	741,21	849,72	-0,4949	
50,26	1,886	737,36	850,05	-0,4964	
50,28	1,890	736,28	849,89	-0,4977	
50,30	1,894	740,09	849,69	-0,4991	
50,32	1,898	738,00	849,93	-0,5006	
50,34	1,902	736,21	849,88	-0,5020	
50,36	1,906	740,68	849,62	-0,5036	
50,38	1,910	739,56	849,89	-0,5051	
50,40	1,914	736,27	849,99	-0,5065	
50,42	1,918	740,02	849,71	-0,5079	
50,44	1,922	740,87	849,80	-0,5093	
50,46	1,926	737,14	849,89	-0,5106	
50,48	1,930	739,11	849,64	-0,5120	
50,50	1,934	739,96	849,78	-0,5136	
50,52	1,938	735,94	850,01	-0,5151	
50,54	1,942	737,26	849,75	-0,5165	
50,56	1,946	740,69	849,71	-0,5179	
50,58	1,950	737,45	849,97	-0,5193	
50,60	1,954	737,74	849,80	-0,5204	
50,62	1,958	741,55	849,66	-0,5218	
50,64	1,962	738,58	849,97	-0,5233	
50,66	1,966	736,25	849,93	-0,5248	
50,68	1,970	740,62	849,69	-0,5263	
50,70	1,974	739,59	849,93	-0,5279	
50,72	1,978	736,32	850,00	-0,5292	
50,74	1,982	740,04	849,70	-0,5305	
50,76	1,986	740,86	849,81	-0,5318	
50,78	1,990	737,23	849,94	-0,5333	
50,80	1,994	740,04	849,67	-0,5348	
50,82	1,998	741,92	849,78	-0,5363	
50,84	2,002	738,18	850,04	-0,5378	
50,86	2,006	739,27	849,80	-0,5392	
50,88	2,010	741,78	849,73	-0,5405	
50,90	2,014	738,41	849,97	-0,5418	
50,92	2,018	738,29	849,80	-0,5432	
50,94	2,022	741,70	849,68	-0,5446	
50,96	2,026	738,80	849,97	-0,5462	
50,98	2,030	737,12	849,91	-0,5477	
51,00	2,034	741,74	849,68	-0,5491	
51,02	2,038	741,24	849,91	-0,5505	
51,04	2,042	738,24	849,93	-0,5518	
51,06	2,046	740,93	849,65	-0,5532	
51,08	2,050	740,92	849,84	-0,5546	
51,10	2,054	737,09	850,01	-0,5560	
51,12	2,058	739,64	849,74	-0,5574	
51,14	2,062	740,55	849,77	-0,5588	
51,16	2,066	736,83	849,90	-0,5603	
51,18	2,070	739,29	849,65	-0,5616	
51,20	2,074	742,39	849,72	-0,5630	
51,22	2,078	739,20	850,02	-0,5644	
51,24	2,082	739,03	849,83	-0,5659	
51,26	2,086	741,84	849,70	-0,5674	
51,28	2,090	738,77	849,91	-0,5688	
51,30	2,094	737,75	849,78	-0,5701	
51,32	2,098	741,24	849,63	-0,5714	
51,34	2,102	738,51	849,97	-0,5728	
51,36	2,106	735,94	850,03	-0,5742	
51,38	2,110	740,54	849,71	-0,5757	
51,40	2,114	741,27	849,80	-0,5772	
51,42	2,118	737,82	849,91	-0,5786	
51,44	2,122	740,75	849,65	-0,5799	
51,46	2,126	742,47	849,78	-0,5813	
51,48	2,130	739,02	850,07	-0,5827	
51,50	2,134	740,24	849,83	-0,5840	
51,52	2,138	743,36	849,71	-0,5854	
51,54	2,142	739,42	850,00	-0,5870	
51,56	2,146	737,61	849,90	-0,5884	
51,58	2,150	741,79	849,67	-0,5897	
51,60	2,154	739,97	849,97	-0,5911	
51,62	2,158	736,74	850,03	-0,5925	
51,64	2,162	740,67	849,71	-0,5938	
51,66	2,166	741,19	849,85	-0,5952	
51,68	2,170	737,20	850,03	-0,5966	
51,70	2,174	739,87	849,75	-0,5981	
51,72	2,178	741,96	849,77	-0,5997	
51,74	2,182	738,13	849,99	-0,6010	
51,76	2,186	739,59	849,78	-0,6023	
51,78	2,190	742,96	849,71	-0,6036	
51,80	2,194	740,03	849,93	-0,6051	
51,82	2,198	739,44	849,75	-0,6065	
51,84	2,202	742,02	849,66	-0,6079	
51,86	2,206	738,79	850,03	-0,6094	
51,88	2,210	736,93	850,00	-0,6107	
51,90	2,214	741,75	849,69	-0,6120	
51,92	2,218	740,71	849,95	-0,6133	
51,94	2,222	736,61	850,09	-0,6147	
51,96	2,226	740,10	849,77	-0,6161	
51,98	2,230	741,71	849,82	-0,6175	
52,00	2,234	737,64	849,98	-0,6189	
52,02	2,238	739,45	849,72	-0,6203	
52,04	2,242	742,42	849,76	-0,6218	
52,06	2,246	739,27	850,04	-0,6231	
52,08	2,250	739,03	849,84	-0,6243	
52,10	2,254	741,90	849,70	-0,6257	
52,12	2,258	739,36	849,97	-0,6271	
52,14	2,262	738,45	849,89	-0,6285	
52,16	2,266	742,22	849,67	-0,6300	
52,18	2,270	740,83	849,87	-0,6314	
52,20	2,274	738,71	849,84	-0,6327	
52,22	2,278	742,27	849,63	-0,6340	
52,24	2,282	741,28	849,91	-0,6354	
52,26	2,286	738,12	850,03	-0,6368	
52,28	2,290	740,91	849,72	-0,6381	
52,30	2,294	741,03	849,80	-0,6396	
52,32	2,298	737,03	849,93	-0,6411	
52,34	2,302	739,71	849,68	-0,6424	
52,36	2,306	741,99	849,77	-0,6437	
52,38	2,310	738,91	849,99	-0,6451	
52,40	2,314	740,19	849,76	-0,6464	
52,42	2,318	742,60	849,74	-0,6478	
52,44	2,322	739,19	850,01	-0,6493	
52,46	2,326	738,88	849,82	-0,6506	
52,48	2,330	741,97	849,66	-0,6519	
52,50	2,334	738,87	849,97	-0,6533	
52,52	2,338	736,82	849,98	-0,6546	
52,54	2,342	741,51	849,70	-0,6560	
52,56	2,346	741,24	849,89	-0,6574	
52,58	2,350	738,70	849,96	-0,6588	
52,60	2,354	741,69	849,69	-0,6602	
52,62	2,358	741,61	849,85	-0,6616	
52,64	2,362	737,99	849,98	-0,6629	
52,66	2,366	740,43	849,70	-0,6642	
52,68	2,370	742,25	849,78	-0,6656	
52,70	2,374	738,95	850,02	-0,6670	
52,72	2,378	740,14	849,78	-0,6684	
52,74	2,382	743,16	849,72	-0,6699	
52,76	2,386	739,99	850,00	-0,6713	
52,78	2,390	739,21	849,87	-0,6725	
52,80	2,394	742,59	849,71	-0,6738	
52,82	2,398	740,80	849,96	-0,6751	
52,84	2,402	738,63	849,89	-0,6764	
52,86	2,406	742,10	849,65	-0,6778	
52,88	2,410	741,25	849,91	-0,6792	
52,90	2,414	738,19	849,97	-0,6806	
52,92	2,418	740,88	849,70	-0,6820	
52,94	2,422	741,18	849,87	-0,6833	
52,96	2,426	738,47	849,97	-0,6845	
52,98	2,430	741,02	849,71	-0,6859	
53,00	2,434	741,26	849,84	-0,6873	
53,02	2,438	737,65	849,99	-0,6887	
53,04	2,442	739,67	849,70	-0,6901	
53,06	2,446	742,44	849,78	-0,6915	
53,08	2,450	739,39	850,07	-0,6929	
53,10	2,454	740,23	849,86	-0,6941	
53,12	2,458	743,19	849,73	-0,6954	
53,14	2,462	740,04	849,94	-0,6968	
53,16	2,466	739,23	849,78	-0,6982	
53,18	2,470	742,04	849,69	-0,6996	
53,20	2,474	740,06	849,97	-0,7011	
53,22	2,478	738,84	849,87	-0,7023	
53,24	2,482	742,20	849,67	-0,7035	
53,26	2,486	740,70	849,94	-0,7050	
53,28	2,490	738,43	849,95	-0,7063	
53,30	2,494	742,09	849,67	-0,7076	
53,32	2,498	741,09	849,91	-0,7090	
53,34	2,502	737,11	850,09	-0,7104	
53,36	2,506	740,23	849,78	-0,7118	
53,38	2,510	742,34	849,81	-0,7131	
53,40	2,514	739,04	849,99	-0,7144	
53,42	2,518	740,19	849,75	-0,7156	
53,44	2,522	742,57	849,74	-0,7169	
53,46	2,526	739,33	849,92	-0,7184	
53,48	2,530	739,61	849,71	-0,7198	
53,50	2,534	742,58	849,71	-0,7213	
53,52	2,538	739,87	849,99	-0,7226	
53,54	2,542	739,27	849,83	-0,7238	
53,56	2,546	742,56	849,69	-0,7251	
53,58	2,550	740,91	849,92	-0,7265	
53,60	2,554	739,34	849,81	-0,7278	
53,62	2,558	742,41	849,65	-0,7292	
53,64	2,562	740,83	849,96	-0,7307	
53,66	2,566	738,55	849,99	-0,7320	
53,68	2,570	742,37	849,69	-0,7333	
53,70	2,574	742,14	849,88	-0,7346	
53,72	2,578	738,59	850,00	-0,7359	
53,74	2,582	741,10	849,70	-0,7372	
53,76	2,586	742,00	849,80	-0,7386	
53,78	2,590	737,57	850,02	-0,7400	
53,80	2,594	739,14	849,76	-0,7413	
53,82	2,598	742,23	849,74	-0,7427	
53,84	2,602	738,06	850,06	-0,7441	
53,86	2,606	737,41	849,93	-0,7453	
53,88	2,610	741,87	849,71	-0,7466	
53,90	2,614	739,65	849,96	-0,7480	
53,92	2,618	737,27	849,94	-0,7494	
53,94	2,622	741,55	849,68	-0,7508	
53,96	2,626	741,20	849,91	-0,7522	
53,98	2,630	738,11	850,00	-0,7535	
54,00	2,634	740,74	849,72	-0,7547	
54,02	2,638	741,15	849,86	-0,7560	
54,04	2,642	737,83	850,01	-0,7573	
54,06	2,646	740,24	849,72	-0,7588	
54,08	2,650	742,21	849,81	-0,7603	
54,10	2,654	739,01	850,06	-0,7616	
54,12	2,658	740,12	849,81	-0,7628	
54,14	2,662	742,76	849,74	-0,7641	
54,16	2,666	739,41	850,04	-0,7654	
54,18	2,670	738,90	849,91	-0,7666	
54,20	2,674	742,62	849,73	-0,7679	
54,22	2,678	740,47	850,00	-0,7693	
54,24	2,682	738,26	849,95	-0,7707	
54,26	2,686	742,08	849,68	-0,7720	
54,28	2,690	740,82	849,88	-0,7734	
54,30	2,694	736,74	849,94	-0,7747	
54,32	2,698	739,90	849,66	-0,7760	
54,34	2,702	740,95	849,84	-0,7773	
54,36	2,706	737,33	850,03	-0,7787	
54,38	2,710	739,83	849,75	-0,7801	
54,40	2,714	742,28	849,75	-0,7816	
54,42	2,718	739,16	849,99	-0,7828	
54,44	2,722	740,22	849,78	-0,7840	
54,46	2,726	743,33	849,71	-0,7853	
54,48	2,730	739,58	850,04	-0,7867	
54,50	2,734	737,63	849,94	-0,7880	
54,52	2,738	741,60	849,69	-0,7893	
54,54	2,742	739,63	849,93	-0,7907	
54,56	2,746	737,25	849,93	-0,7920	
54,58	2,750	741,65	849,66	-0,7933	
54,60	2,754	740,84	849,88	-0,7946	
54,62	2,758	736,17	850,05	-0,7959	
54,64	2,762	739,23	849,75	-0,7972	
54,66	2,766	741,53	849,80	-0,7985	
54,68	2,770	737,71	850,02	-0,7999	
54,70	2,774	739,29	849,78	-0,8013	
54,72	2,778	742,67	849,72	-0,8026	
54,74	2,782	739,09	850,04	-0,8040	
54,76	2,786	738,07	849,92	-0,8051	
54,78	2,790	742,13	849,69	-0,8064	
54,80	2,794	739,75	849,97	-0,8079	
54,82	2,798	737,23	849,99	-0,8093	
54,84	2,802	741,53	849,72	-0,8106	
54,86	2,806	741,33	849,86	-0,8120	
54,88	2,810	738,14	849,88	-0,8133	
54,90	2,814	740,64	849,62	-0,8144	
54,92	2,818	741,11	849,84	-0,8156	
54,94	2,822	737,70	850,05	-0,8169	
54,96	2,826	739,46	849,77	-0,8183	
54,98	2,830	741,64	849,78	-0,8197	
55,00	2,834	738,20	850,02	-0,8211	
55,02	2,838	739,43	849,81	-0,8225	
55,04	2,842	742,60	849,74	-0,8238	
55,06	2,846	739,35	850,05	-0,8250	
55,08	2,850	738,06	849,93	-0,8262	
55,10	2,854	741,91	849,68	-0,8276	
55,12	2,858	739,64	849,93	-0,8290	
55,14	2,862	737,13	849,93	-0,8303	
55,16	2,866	740,87	849,69	-0,8316	
55,18	2,870	740,31	849,87	-0,8329	
55,20	2,874	737,03	849,93	-0,8342	
55,22	2,878	740,12	849,64	-0,8354	
55,24	2,882	740,97	849,85	-0,8368	
55,26	2,886	736,96	850,10	-0,8382	
55,28	2,890	738,77	849,82	-0,8394	
55,30	2,894	741,44	849,76	-0,8408	
55,32	2,898	737,70	849,99	-0,8421	
55,34	2,902	738,14	849,80	-0,8433	
55,36	2,906	741,31	849,71	-0,8445	
55,38	2,910	738,76	849,94	-0,8459	
55,40	2,914	737,96	849,77	-0,8473	
55,42	2,918	741,77	849,67	-0,8487	
55,44	2,922	739,56	850,09	-0,8500	
55,46	2,926	736,89	850,12	-0,8513	
55,48	2,930	740,68	849,76	-0,8525	
55,50	2,934	740,14	849,92	-0,8539	
55,52	2,938	736,31	850,08	-0,8552	
55,54	2,942	739,80	849,78	-0,8564	
55,56	2,946	741,82	849,81	-0,8577	
55,58	2,950	737,66	850,02	-0,8590	
55,60	2,954	738,49	849,78	-0,8603	
55,62	2,958	740,75	849,76	-0,8615	
55,64	2,962	737,14	850,01	-0,8628	
55,66	2,966	736,60	849,82	-0,8641	
55,68	2,970	740,25	849,69	-0,8655	
55,70	2,974	737,99	849,98	-0,8669	
55,72	2,978	736,55	849,89	-0,8681	
55,74	2,982	740,64	849,66	-0,8694	
55,76	2,986	739,02	849,93	-0,8708	
55,78	2,990	736,09	849,97	-0,8720	
55,80	2,994	740,11	849,69	-0,8732	
55,82	2,998	740,01	849,89	-0,8746	
55,84	3,002	735,89	850,04	-0,8760	
55,86	3,006	738,84	849,74	-0,8773	
55,88	3,010	740,55	849,80	-0,8787	
55,90	3,014	736,35	850,03	-0,8799	
55,92	3,018	737,28	849,80	-0,8811	
55,94	3,022	740,09	849,74	-0,8824	
55,96	3,026	736,80	849,98	-0,8837	
55,98	3,030	736,27	849,82	-0,8849	
56,00	3,034	739,17	849,73	-0,8862	
56,02	3,038	736,52	849,99	-0,8876	
56,04	3,042	735,83	849,85	-0,8889	
56,06	3,046	740,01	849,68	-0,8902	
56,08	3,050	738,33	849,96	-0,8915	
56,10	3,054	735,91	849,94	-0,8928	
56,12	3,058	739,55	849,68	-0,8940	
56,14	3,062	739,08	849,91	-0,8954	
56,16	3,066	735,89	849,99	-0,8967	
56,18	3,070	739,30	849,70	-0,8981	
56,20	3,074	739,96	849,88	-0,8994	
56,22	3,078	736,24	850,07	-0,9007	
56,24	3,082	738,47	849,79	-0,9018	
56,26	3,086	740,71	849,86	-0,9031	
56,28	3,090	736,63	850,09	-0,9044	
56,30	3,094	736,76	849,82	-0,9057	
56,32	3,098	739,21	849,79	-0,9070	
56,34	3,102	736,04	850,09	-0,9084	
56,36	3,106	735,88	849,93	-0,9096	
56,38	3,110	739,71	849,76	-0,9109	
56,40	3,114	737,26	850,08	-0,9122	
56,42	3,118	735,03	850,04	-0,9135	
56,44	3,122	739,14	849,72	-0,9148	
56,46	3,126	738,39	849,95	-0,9162	
56,48	3,130	735,32	850,08	-0,9176	
56,50	3,134	738,85	849,75	-0,9189	
56,52	3,138	740,14	849,83	-0,9201	
56,54	3,142	736,19	850,04	-0,9212	
56,56	3,146	737,41	849,79	-0,9225	
56,58	3,150	739,75	849,76	-0,9238	
56,60	3,154	736,07	850,03	-0,9252	
56,62	3,158	735,82	849,85	-0,9265	
56,64	3,162	739,08	849,73	-0,9279	
56,66	3,166	736,40	849,97	-0,9291	
56,68	3,170	734,86	849,84	-0,9303	
56,70	3,174	738,50	849,68	-0,9315	
56,72	3,178	737,45	849,98	-0,9329	
56,74	3,182	735,65	849,96	-0,9342	
56,76	3,186	739,32	849,72	-0,9355	
56,78	3,190	738,40	849,95	-0,9369	
56,80	3,194	735,46	849,99	-0,9382	
56,82	3,198	738,77	849,71	-0,9393	
56,84	3,202	738,87	849,88	-0,9406	
56,86	3,206	735,38	850,02	-0,9418	
56,88	3,210	737,60	849,73	-0,9431	
56,90	3,214	739,22	849,79	-0,9445	
56,92	3,218	735,77	850,01	-0,9458	
56,94	3,222	736,57	849,75	-0,9471	
56,96	3,226	739,18	849,75	-0,9483	
56,98	3,230	735,97	850,10	-0,9496	
57,00	3,234	735,16	849,95	-0,9507	
57,02	3,238	738,95	849,72	-0,9520	
57,04	3,242	736,56	850,05	-0,9534	
57,06	3,246	734,18	850,09	-0,9547	
57,08	3,250	738,95	849,75	-0,9560	
57,10	3,254	739,23	849,89	-0,9573	
57,12	3,258	734,87	850,04	-0,9586	
57,14	3,262	736,66	849,74	-0,9597	
57,16	3,266	738,80	849,78	-0,9610	
57,18	3,270	735,64	850,05	-0,9624	
57,20	3,274	736,40	849,83	-0,9637	
57,22	3,278	739,12	849,72	-0,9650	
57,24	3,282	735,87	849,97	-0,9663	
57,26	3,286	735,13	849,83	-0,9676	
57,28	3,290	738,36	849,68	-0,9688	
57,30	3,294	735,72	850,00	-0,9700	
57,32	3,298	733,36	849,98	-0,9711	
57,34	3,302	737,91	849,69	-0,9724	
57,36	3,306	737,43	849,91	-0,9739	
57,38	3,310	733,27	850,04	-0,9752	
57,40	3,314	736,30	849,72	-0,9764	
57,42	3,318	737,67	849,86	-0,9776	
57,44	3,322	733,89	850,11	-0,9789	
57,46	3,326	736,19	849,83	-0,9802	
57,48	3,330	739,59	849,78	-0,9814	
57,50	3,334	736,33	850,05	-0,9828	
57,52	3,338	735,55	849,87	-0,9841	
57,54	3,342	738,59	849,71	-0,9854	
57,56	3,346	736,33	849,97	-0,9867	
57,58	3,350	734,87	849,88	-0,9879	
57,60	3,354	738,52	849,66	-0,9891	
57,62	3,358	736,39	849,94	-0,9905	
57,64	3,362	733,52	850,00	-0,9918	
57,66	3,366	737,21	849,70	-0,9931	
57,68	3,370	737,44	849,90	-0,9944	
57,70	3,374	734,56	850,05	-0,9957	
57,72	3,378	737,34	849,77	-0,9969	
57,74	3,382	738,78	849,80	-0,9980	
57,76	3,386	735,10	849,94	-0,9992	
57,78	3,390	736,14	849,68	-1,000	
57,80	3,394	738,19	849,77	-1,002	
57,82	3,398	734,72	850,09	-1,003	
57,84	3,402	734,59	849,89	-1,004	
57,86	3,406	737,75	849,71	-1,006	
57,88	3,410	735,08	849,96	-1,007	
57,90	3,414	734,38	849,87	-1,008	
57,92	3,418	738,11	849,67	-1,009	
57,94	3,422	735,75	849,93	-1,011	
57,96	3,426	733,29	849,91	-1,012	
57,98	3,430	736,80	849,65	-1,013	
58,00	3,434	736,18	849,93	-1,015	
58,02	3,438	732,75	850,10	-1,016	
58,04	3,442	736,20	849,77	-1,017	
58,06	3,446	737,78	849,82	-1,018	
58,08	3,450	733,84	850,05	-1,019	
58,10	3,454	735,32	849,80	-1,021	
58,12	3,458	738,13	849,75	-1,022	
58,14	3,462	734,31	850,03	-1,023	
58,16	3,466	733,74	849,87	-1,025	
58,18	3,470	737,80	849,72	-1,026	
58,20	3,474	735,68	850,04	-1,027	
58,22	3,478	733,45	850,00	-1,028	
58,24	3,482	737,28	849,72	-1,030	
58,26	3,486	735,89	849,93	-1,031	
58,28	3,490	732,31	849,99	-1,032	
58,30	3,494	735,28	849,72	-1,033	
58,32	3,498	735,51	849,83	-1,035	
58,34	3,502	732,24	849,90	-1,036	
58,36	3,506	735,38	849,64	-1,037	
58,38	3,510	737,17	849,84	-1,038	
58,40	3,514	733,65	850,10	-1,040	
58,42	3,518	734,84	849,82	-1,041	
58,44	3,522	736,89	849,78	-1,042	
58,46	3,526	733,14	850,04	-1,043	
58,48	3,530	733,28	849,87	-1,045	
58,50	3,534	737,12	849,72	-1,046	
58,52	3,538	734,18	850,01	-1,047	
58,54	3,542	732,40	849,94	-1,049	
58,56	3,546	736,29	849,71	-1,050	
58,58	3,550	735,21	850,00	-1,051	
58,60	3,554	732,04	850,07	-1,052	
58,62	3,558	735,38	849,76	-1,053	
58,64	3,562	735,64	849,93	-1,055	
58,66	3,566	731,95	850,12	-1,056	
58,68	3,570	734,09	849,81	-1,057	
58,70	3,574	735,99	849,87	-1,058	
58,72	3,578	732,51	850,14	-1,060	
58,74	3,582	733,05	849,90	-1,061	
58,76	3,586	736,44	849,76	-1,062	
58,78	3,590	733,62	850,04	-1,063	
58,80	3,594	732,27	849,93	-1,065	
58,82	3,598	735,71	849,73	-1,066	
58,84	3,602	734,46	849,94	-1,067	
58,86	3,606	732,41	849,87	-1,068	
58,88	3,610	735,94	849,68	-1,070	
58,90	3,614	735,15	850,01	-1,071	
58,92	3,618	732,19	850,08	-1,072	
58,94	3,622	735,45	849,74	-1,073	
58,96	3,626	735,68	849,86	-1,075	
58,98	3,630	732,00	850,04	-1,076	
59,00	3,634	734,10	849,76	-1,077	
59,02	3,638	736,05	849,78	-1,078	
59,04	3,642	732,58	850,01	-1,080	
59,06	3,646	733,13	849,78	-1,081	
59,08	3,650	735,92	849,75	-1,082	
59,10	3,654	732,85	850,09	-1,083	
59,12	3,658	731,90	849,96	-1,085	
59,14	3,662	735,67	849,71	-1,086	
59,16	3,666	733,46	849,98	-1,087	
59,18	3,670	730,46	850,02	-1,088	
59,20	3,674	734,55	849,71	-1,090	
59,22	3,678	734,64	849,88	-1,091	
59,24	3,682	730,66	850,04	-1,092	
59,26	3,686	733,26	849,75	-1,093	
59,28	3,690	735,14	849,85	-1,095	
59,30	3,694	731,08	850,11	-1,096	
59,32	3,698	732,18	849,85	-1,097	
59,34	3,702	735,77	849,75	-1,098	
59,36	3,706	732,97	850,05	-1,100	
59,38	3,710	732,02	849,92	-1,101	
59,40	3,714	735,15	849,74	-1,102	
59,42	3,718	733,06	850,00	-1,103	
59,44	3,722	731,42	849,93	-1,104	
59,46	3,726	735,74	849,71	-1,106	
59,48	3,730	734,84	850,03	-1,107	
59,50	3,734	731,27	850,13	-1,108	
59,52	3,738	734,27	849,77	-1,109	
59,54	3,742	734,98	849,92	-1,111	
59,56	3,746	730,62	850,24	-1,112	
59,58	3,750	732,35	849,96	-1,113	
59,60	3,754	735,65	849,80	-1,114	
59,62	3,758	731,37	850,21	-1,116	
59,64	3,762	729,22	850,20	-1,117	
59,66	3,766	733,87	849,79	-1,118	
59,68	3,770	733,36	849,98	-1,119	
59,70	3,774	729,33	850,21	-1,121	
59,72	3,778	732,18	849,87	-1,122	
59,74	3,782	734,53	849,75	-1,123	
59,76	3,786	730,11	850,02	-1,124	
59,78	3,790	729,78	849,86	-1,125	
59,80	3,794	733,87	849,70	-1,127	
59,82	3,798	731,58	850,01	-1,128	
59,84	3,802	729,55	849,98	-1,129	
59,86	3,806	733,65	849,71	-1,130	
59,88	3,810	732,55	849,94	-1,132	
59,90	3,814	728,86	850,01	-1,133	
59,92	3,818	732,29	849,70	-1,134	
59,94	3,822	733,48	849,84	-1,135	
59,96	3,826	729,97	850,03	-1,137	
59,98	3,830	732,32	849,76	-1,138	
60,00	3,834	734,12	849,77	-1,139	
60,02	3,838	730,44	849,96	-1,140	
60,04	3,842	731,54	849,71	-1,141	
60,06	3,846	734,77	849,73	-1,143	
60,08	3,850	731,36	850,11	-1,144	
60,10	3,854	730,42	849,98	-1,145	
60,12	3,858	734,57	849,74	-1,146	
60,14	3,862	732,59	850,03	-1,148	
60,16	3,866	730,10	850,04	-1,149	
60,18	3,870	734,20	849,74	-1,150	
60,20	3,874	733,70	849,96	-1,151	
60,22	3,878	729,81	850,10	-1,152	
60,24	3,882	732,96	849,79	-1,154	
60,26	3,886	734,61	849,90	-1,155	
60,28	3,890	730,19	850,15	-1,156	
60,30	3,894	730,60	849,88	-1,157	
60,32	3,898	733,26	849,77	-1,159	
60,34	3,902	729,97	850,04	-1,160	
60,36	3,906	729,89	849,89	-1,161	
60,38	3,910	733,25	849,71	-1,162	
60,40	3,914	730,36	850,02	-1,163	
60,42	3,918	728,09	849,99	-1,165	
60,44	3,922	732,31	849,73	-1,166	
60,46	3,926	731,94	849,99	-1,167	
60,48	3,930	728,80	850,09	-1,168	
60,50	3,934	731,99	849,76	-1,169	
60,52	3,938	732,45	849,90	-1,171	
60,54	3,942	728,28	850,12	-1,172	
60,56	3,946	729,92	849,83	-1,173	
60,58	3,950	733,02	849,83	-1,175	
60,60	3,954	729,87	850,13	-1,176	
60,62	3,958	729,77	849,92	-1,177	
60,64	3,962	733,15	849,75	-1,178	
60,66	3,966	730,26	850,08	-1,179	
60,68	3,970	727,94	850,05	-1,180	
60,70	3,974	732,24	849,74	-1,182	
60,72	3,978	731,96	849,97	-1,183	
60,74	3,982	728,82	850,08	-1,184	
60,76	3,986	731,90	849,76	-1,185	
60,78	3,990	732,37	849,86	-1,187	
60,80	3,994	728,33	850,04	-1,188	
60,82	3,998	729,89	849,77	-1,189	
60,84	4,002	732,22	849,77	-1,190	
60,86	4,006	729,20	849,97	-1,192	
60,88	4,010	729,74	849,74	-1,193	
60,90	4,014	732,51	849,73	-1,194	
60,92	4,018	729,48	850,09	-1,195	
60,94	4,022	728,51	849,96	-1,196	
60,96	4,026	731,88	849,74	-1,197	
60,98	4,030	729,46	850,04	-1,199	
61,00	4,034	727,29	850,03	-1,200	
61,02	4,038	731,97	849,74	-1,201	
61,04	4,042	732,01	849,94	-1,202	
61,06	4,046	728,46	850,03	-1,204	
61,08	4,050	731,21	849,72	-1,205	
61,10	4,054	732,06	849,87	-1,206	
61,12	4,058	728,19	850,11	-1,207	
61,14	4,062	729,81	849,82	-1,208	
61,16	4,066	732,99	849,80	-1,210	
61,18	4,070	728,75	850,19	-1,211	
61,20	4,074	727,65	850,08	-1,212	
61,22	4,078	732,34	849,76	-1,213	
61,24	4,082	730,32	850,02	-1,214	
61,26	4,086	726,24	850,10	-1,216	
61,28	4,090	730,52	849,75	-1,217	
61,30	4,094	731,62	849,94	-1,218	
61,32	4,098	726,27	850,25	-1,219	
61,34	4,102	726,70	849,96	-1,220	
61,36	4,106	729,82	849,82	-1,222	
61,38	4,110	726,66	850,09	-1,223	
61,40	4,114	726,42	849,95	-1,224	
61,42	4,118	730,41	849,75	-1,225	
61,44	4,122	728,74	850,00	-1,227	
61,46	4,126	726,72	849,95	-1,228	
61,48	4,130	730,11	849,71	-1,229	
61,50	4,134	728,77	849,89	-1,230	
61,52	4,138	726,54	849,87	-1,231	
61,54	4,142	729,95	849,63	-1,233	
61,56	4,146	729,70	849,94	-1,234	
61,58	4,150	726,79	850,10	-1,235	
61,60	4,154	729,87	849,78	-1,236	
61,62	4,158	731,30	849,83	-1,237	
61,64	4,162	727,31	850,01	-1,239	
61,66	4,166	728,36	849,77	-1,240	
61,68	4,170	730,14	849,81	-1,241	
61,70	4,174	726,51	850,01	-1,242	
61,72	4,178	726,68	849,77	-1,243	
61,74	4,182	729,88	849,75	-1,245	
61,76	4,186	727,39	850,08	-1,246	
61,78	4,190	727,08	849,93	-1,247	
61,80	4,194	730,82	849,75	-1,248	
61,82	4,198	728,59	850,00	-1,249	
61,84	4,202	726,48	849,92	-1,250	
61,86	4,206	729,91	849,71	-1,252	
61,88	4,210	728,53	849,99	-1,253	
61,90	4,214	725,25	850,02	-1,254	
61,92	4,218	728,47	849,71	-1,255	
61,94	4,222	729,08	849,88	-1,257	
61,96	4,226	726,08	850,01	-1,258	
61,98	4,230	729,34	849,72	-1,259	
62,00	4,234	731,13	849,84	-1,260	
62,02	4,238	726,84	850,09	-1,261	
62,04	4,242	727,21	849,83	-1,263	
62,06	4,246	729,81	849,79	-1,264	
62,08	4,250	726,50	850,09	-1,265	
62,10	4,254	726,22	849,93	-1,266	
62,12	4,258	729,66	849,75	-1,267	
62,14	4,262	727,10	850,05	-1,269	
62,16	4,266	725,35	850,01	-1,270	
62,18	4,270	729,47	849,71	-1,271	
62,20	4,274	728,82	849,94	-1,272	
62,22	4,278	725,33	850,07	-1,273	
62,24	4,282	728,46	849,75	-1,275	
62,26	4,286	729,20	849,90	-1,276	
62,28	4,290	725,08	850,20	-1,277	
62,30	4,294	726,44	849,93	-1,278	
62,32	4,298	729,87	849,78	-1,279	
62,34	4,302	726,62	850,05	-1,280	
62,36	4,306	725,26	849,93	-1,282	
62,38	4,310	728,45	849,74	-1,283	
62,40	4,314	726,53	849,99	-1,284	
62,42	4,318	724,66	849,95	-1,285	
62,44	4,322	728,42	849,70	-1,286	
62,46	4,326	727,83	849,94	-1,288	
62,48	4,330	725,09	850,00	-1,289	
62,50	4,334	728,35	849,72	-1,290	
62,52	4,338	728,34	849,93	-1,291	
62,54	4,342	724,80	850,10	-1,293	
62,56	4,346	726,97	849,80	-1,294	
62,58	4,350	728,14	849,84	-1,295	
62,60	4,354	724,75	850,00	-1,296	
62,62	4,358	726,50	849,73	-1,297	
62,64	4,362	729,00	849,80	-1,298	
62,66	4,366	725,21	850,15	-1,300	
62,68	4,370	724,37	849,96	-1,301	
62,70	4,374	728,17	849,75	-1,302	
62,72	4,378	726,09	850,04	-1,303	
62,74	4,382	723,84	850,00	-1,304	
62,76	4,386	727,83	849,73	-1,306	
62,78	4,390	726,62	849,94	-1,307	
62,80	4,394	723,67	849,98	-1,308	
62,82	4,398	727,60	849,72	-1,309	
62,84	4,402	728,07	849,93	-1,310	
62,86	4,406	724,78	850,05	-1,312	
62,88	4,410	726,94	849,74	-1,313	
62,90	4,414	727,96	849,84	-1,314	
62,92	4,418	724,03	850,02	-1,315	
62,94	4,422	725,63	849,76	-1,316	
62,96	4,426	727,38	849,80	-1,317	
62,98	4,430	723,71	850,02	-1,319	
63,00	4,434	724,43	849,78	-1,320	
63,02	4,438	727,23	849,73	-1,321	
63,04	4,442	724,06	850,10	-1,322	
63,06	4,446	723,12	850,00	-1,323	
63,08	4,450	726,97	849,73	-1,325	
63,10	4,454	725,29	849,99	-1,326	
63,12	4,458	722,20	850,04	-1,327	
63,14	4,462	725,76	849,72	-1,328	
63,16	4,466	726,13	849,89	-1,329	
63,18	4,470	722,33	850,05	-1,330	
63,20	4,474	724,52	849,76	-1,332	
63,22	4,478	725,39	849,84	-1,333	
63,24	4,482	721,52	850,06	-1,334	
63,26	4,486	723,03	849,80	-1,335	
63,28	4,490	726,38	849,76	-1,336	
63,30	4,494	723,29	850,08	-1,338	
63,32	4,498	722,94	849,93	-1,339	
63,34	4,502	726,39	849,76	-1,340	
63,36	4,506	723,85	850,03	-1,341	
63,38	4,510	722,06	849,97	-1,342	
63,40	4,514	725,61	849,72	-1,343	
63,42	4,518	724,62	849,98	-1,345	
63,44	4,522	721,56	850,03	-1,346	
63,46	4,526	724,84	849,72	-1,347	
63,48	4,530	724,98	849,95	-1,348	
63,50	4,534	721,43	850,20	-1,349	
63,52	4,538	723,59	849,89	-1,351	
63,54	4,542	725,63	849,86	-1,352	
63,56	4,546	721,32	850,14	-1,353	
63,58	4,550	721,68	849,93	-1,354	
63,60	4,554	725,68	849,78	-1,355	
63,62	4,558	722,62	850,16	-1,356	
63,64	4,562	719,98	850,15	-1,358	
63,66	4,566	724,52	849,76	-1,359	
63,68	4,570	724,13	849,96	-1,360	
63,70	4,574	720,08	850,17	-1,361	
63,72	4,578	723,22	849,85	-1,362	
63,74	4,582	725,69	849,83	-1,363	
63,76	4,586	720,99	850,13	-1,365	
63,78	4,590	720,85	849,92	-1,366	
63,80	4,594	724,57	849,73	-1,367	
63,82	4,598	721,89	850,02	-1,368	
63,84	4,602	719,85	849,99	-1,369	
63,86	4,606	724,22	849,72	-1,370	
63,88	4,610	723,21	849,94	-1,372	
63,90	4,614	720,20	849,99	-1,373	
63,92	4,618	724,15	849,71	-1,374	
63,94	4,622	724,80	849,93	-1,375	
63,96	4,626	721,36	850,14	-1,376	
63,98	4,630	723,51	849,82	-1,377	
64,00	4,634	725,43	849,85	-1,379	
64,02	4,638	720,85	850,14	-1,380	
64,04	4,642	720,46	849,92	-1,381	
64,06	4,646	723,68	849,79	-1,382	
64,08	4,650	720,72	850,17	-1,383	
64,10	4,654	718,99	850,14	-1,384	
64,12	4,658	723,46	849,78	-1,386	
64,14	4,662	722,69	849,96	-1,387	
64,16	4,666	719,20	850,06	-1,388	
64,18	4,670	722,45	849,75	-1,389	
64,20	4,674	722,95	849,90	-1,390	
64,22	4,678	718,93	850,14	-1,391	
64,24	4,682	720,89	849,85	-1,393	
64,26	4,686	724,29	849,81	-1,394	
64,28	4,690	720,65	850,13	-1,395	
64,30	4,694	720,29	849,97	-1,396	
64,32	4,698	724,14	849,76	-1,397	
64,34	4,702	722,26	850,03	-1,398	
64,36	4,706	719,74	849,98	-1,400	
64,38	4,710	722,46	849,71	-1,401	
64,40	4,714	721,36	849,94	-1,402	
64,42	4,718	718,32	850,00	-1,403	
64,44	4,721	721,55	849,72	-1,404	
64,46	4,726	722,30	849,92	-1,405	
64,48	4,730	718,76	850,11	-1,407	
64,50	4,734	721,00	849,81	-1,408	
64,52	4,738	723,17	849,81	-1,409	
64,54	4,742	719,77	850,00	-1,410	
64,56	4,746	720,72	849,75	-1,411	
64,58	4,750	723,81	849,76	-1,412	
64,60	4,754	720,24	850,11	-1,414	
64,62	4,758	719,43	849,96	-1,415	
64,64	4,762	722,85	849,74	-1,416	
64,66	4,766	720,37	850,01	-1,416	
64,68	4,770	718,45	849,98	-1,416	
64,70	4,774	722,51	849,69	-1,416	
64,72	4,778	722,14	849,91	-1,417	
64,74	4,782	718,73	850,03	-1,418	
64,76	4,786	721,62	849,74	-1,420	
64,78	4,790	722,35	849,85	-1,421	
64,80	4,794	718,66	850,02	-1,422	
64,82	4,798	720,21	849,74	-1,423	
64,84	4,802	722,37	849,81	-1,424	
64,86	4,806	719,14	850,15	-1,425	
64,88	4,810	719,13	849,95	-1,427	
64,90	4,814	722,86	849,77	-1,429	
64,92	4,818	720,50	850,05	-1,432	
64,94	4,822	718,57	849,97	-1,433	
64,96	4,826	722,02	849,72	-1,435	
64,98	4,830	721,21	849,97	-1,436	
65,00	4,834	718,65	850,00	-1,437	
65,02	4,838	722,16	849,73	-1,438	
65,04	4,842	721,96	849,98	-1,439	
65,06	4,846	718,09	850,14	-1,440	
65,08	4,850	720,13	849,80	-1,442	
65,10	4,854	722,13	849,89	-1,443	
65,12	4,858	718,65	850,20	-1,444	
65,14	4,862	719,58	849,94	-1,445	
65,16	4,866	723,07	849,78	-1,446	
65,18	4,870	719,97	850,08	-1,447	
65,20	4,874	718,58	849,99	-1,448	
65,22	4,878	722,72	849,74	-1,449	
65,24	4,882	721,05	850,05	-1,451	
65,26	4,886	718,05	850,12	-1,452	
65,28	4,890	722,05	849,77	-1,453	
65,30	4,894	722,83	849,94	-1,454	
65,32	4,898	718,78	850,18	-1,455	
65,34	4,902	720,18	849,87	-1,456	
65,36	4,906	722,17	849,86	-1,458	
65,38	4,910	717,46	850,30	-1,459	
65,40	4,914	716,53	850,19	-1,460	
65,42	4,918	721,29	849,78	-1,461	
65,44	4,922	719,92	850,05	-1,462	
65,46	4,926	715,87	850,29	-1,463	
65,48	4,930	719,62	849,92	-1,465	
65,50	4,934	722,23	849,88	-1,466	
65,52	4,938	717,53	850,26	-1,467	
65,54	4,942	717,12	850,11	-1,468	
65,56	4,946	722,73	849,79	-1,469	
65,58	4,950	720,91	850,16	-1,470	
65,60	4,954	716,54	850,33	-1,472	
65,62	4,958	719,76	849,89	-1,473	
65,64	4,962	722,01	849,97	-1,474	
65,66	4,966	717,34	850,65	-1,475	
65,68	4,970	716,27	850,68	-1,476	
65,70	4,974	720,15	850,04	-1,477	
65,72	4,978	720,30	849,96	-1,478	
65,74	4,982	715,44	850,56	-1,480	
65,76	4,986	715,97	850,58	-1,481	
65,78	4,990	719,98	849,97	-1,482	
65,80	4,994	720,04	849,97	-1,483	
65,82	4,998	715,31	850,57	-1,484	
65,84	5,002	715,97	850,54	-1,485	
65,86	5,006	720,07	849,94	-1,486	
65,88	5,010	719,59	850,07	-1,488	
65,90	5,014	714,49	850,73	-1,489	
65,92	5,018	715,44	850,68	-1,490	
65,94	5,022	719,76	850,01	-1,491	
65,96	5,026	720,05	850,01	-1,492	
65,98	5,030	715,33	850,78	-1,493	
66,00	5,034	715,91	850,88	-1,495	
66,02	5,038	719,57	850,22	-1,496	
66,04	5,042	720,89	849,91	-1,497	
66,06	5,046	715,81	850,63	-1,498	
66,08	5,050	714,38	850,97	-1,499	
66,10	5,054	716,83	850,45	-1,500	
66,12	5,058	718,55	849,87	-1,501	
66,14	5,062	714,73	850,41	-1,503	
66,16	5,066	712,87	850,99	-1,504	
66,18	5,070	715,42	850,68	-1,505	
66,20	5,074	718,14	849,95	-1,506	
66,22	5,078	716,67	850,08	-1,507	
66,24	5,082	713,57	850,74	-1,508	
66,26	5,086	714,95	850,69	-1,509	
66,28	5,090	717,63	850,01	-1,510	
66,30	5,094	716,95	850,00	-1,512	
66,32	5,098	712,41	850,73	-1,513	
66,34	5,102	713,36	850,83	-1,514	
66,36	5,106	716,72	850,18	-1,515	
66,38	5,110	717,75	849,90	-1,516	
66,40	5,114	713,64	850,64	-1,518	
66,42	5,118	713,34	850,97	-1,519	
66,44	5,122	715,99	850,45	-1,520	
66,46	5,126	718,17	849,84	-1,521	
66,48	5,130	715,36	850,40	-1,522	
66,50	5,134	713,57	851,08	-1,523	
66,52	5,138	715,64	850,85	-1,524	
66,54	5,142	717,94	850,07	-1,525	
66,56	5,146	717,16	850,02	-1,527	
66,58	5,150	713,27	850,91	-1,528	
66,60	5,154	713,74	851,17	-1,529	
66,62	5,158	716,33	850,58	-1,530	
66,64	5,162	718,35	849,86	-1,531	
66,66	5,166	716,00	850,30	-1,532	
66,68	5,170	713,89	851,07	-1,534	
66,70	5,174	715,11	850,95	-1,535	
66,72	5,178	716,83	850,19	-1,536	
66,74	5,182	716,53	849,94	-1,537	
66,76	5,186	712,89	850,73	-1,538	
66,78	5,190	713,51	851,06	-1,539	
66,80	5,194	716,46	850,52	-1,540	
66,82	5,198	718,54	849,89	-1,541	
66,84	5,202	714,86	850,42	-1,543	
66,86	5,206	712,32	851,08	-1,544	
66,88	5,210	714,81	850,84	-1,545	
66,90	5,214	717,84	850,06	-1,546	
66,92	5,218	717,33	850,05	-1,547	
66,94	5,222	713,55	850,92	-1,548	
66,96	5,226	713,94	851,13	-1,550	
66,98	5,230	716,49	850,50	-1,551	
67,00	5,234	718,30	849,86	-1,552	
67,02	5,238	715,00	850,41	-1,553	
67,04	5,242	712,91	851,06	-1,554	
67,06	5,246	715,16	850,80	-1,555	
67,08	5,250	717,90	850,02	-1,556	
67,10	5,254	716,88	850,06	-1,558	
67,12	5,258	712,61	850,97	-1,559	
67,14	5,262	712,36	851,18	-1,560	
67,16	5,266	713,82	850,55	-1,561	
67,18	5,270	715,21	849,87	-1,562	
67,20	5,274	712,97	850,39	-1,563	
67,22	5,278	711,86	851,12	-1,564	
67,24	5,282	713,14	850,92	-1,565	
67,26	5,286	714,63	850,13	-1,567	
67,28	5,290	714,29	849,97	-1,568	
67,30	5,294	711,23	850,84	-1,569	
67,32	5,298	711,74	851,16	-1,570	
67,34	5,302	713,61	850,61	-1,571	
67,36	5,306	715,15	849,88	-1,572	
67,38	5,310	713,30	850,24	-1,573	
67,40	5,314	711,66	850,93	-1,575	
67,42	5,318	712,86	850,79	-1,576	
67,44	5,322	714,69	850,06	-1,577	
67,46	5,326	713,68	850,04	-1,578	
67,48	5,330	709,75	850,79	-1,579	
67,50	5,334	711,39	850,91	-1,580	
67,52	5,338	714,35	850,27	-1,581	
67,54	5,342	715,31	849,87	-1,582	
67,56	5,346	711,41	850,57	-1,584	
67,58	5,350	710,57	850,99	-1,585	
67,60	5,354	712,88	850,53	-1,586	
67,62	5,358	715,04	849,87	-1,587	
67,64	5,362	712,27	850,29	-1,588	
67,66	5,366	710,27	850,94	-1,589	
67,68	5,370	712,24	850,73	-1,590	
67,70	5,374	714,68	849,99	-1,591	
67,72	5,378	713,72	850,07	-1,593	
67,74	5,382	710,29	850,85	-1,594	
67,76	5,386	711,23	850,91	-1,595	
67,78	5,390	713,74	850,23	-1,596	
67,80	5,394	714,95	849,89	-1,597	
67,82	5,398	711,68	850,66	-1,598	
67,84	5,402	711,40	851,09	-1,600	
67,86	5,406	713,37	850,60	-1,601	
67,88	5,410	715,16	849,87	-1,602	
67,90	5,414	713,05	850,24	-1,603	
67,92	5,418	710,90	851,06	-1,604	
67,94	5,422	712,39	851,00	-1,605	
67,96	5,426	714,26	850,25	-1,606	
67,98	5,430	714,69	849,88	-1,607	
68,00	5,434	711,54	850,64	-1,608	
68,02	5,438	711,58	851,03	-1,610	
68,04	5,442	713,49	850,54	-1,611	
68,06	5,446	715,05	849,87	-1,612	
68,08	5,450	711,85	850,26	-1,613	
68,10	5,454	709,50	850,88	-1,614	
68,12	5,458	711,89	850,65	-1,615	
68,14	5,462	714,87	849,95	-1,616	
68,16	5,466	713,51	850,15	-1,617	
68,18	5,470	709,60	850,96	-1,619	
68,20	5,474	710,91	850,97	-1,620	
68,22	5,478	713,74	850,26	-1,621	
68,24	5,482	714,65	849,91	-1,622	
68,26	5,486	710,52	850,75	-1,623	
68,28	5,490	709,96	851,24	-1,624	
68,30	5,494	711,67	850,79	-1,625	
68,32	5,498	713,11	849,99	-1,626	
68,34	5,502	711,29	850,12	-1,628	
68,36	5,506	708,94	850,89	-1,629	
68,38	5,510	710,85	850,91	-1,630	
68,40	5,514	712,22	850,22	-1,631	
68,42	5,518	712,09	849,89	-1,632	
68,44	5,522	708,31	850,71	-1,633	
68,46	5,526	707,94	851,17	-1,634	
68,48	5,530	709,92	850,71	-1,635	
68,50	5,534	711,75	849,93	-1,636	
68,52	5,538	710,51	850,19	-1,637	
68,54	5,542	708,34	851,03	-1,639	
68,56	5,546	709,43	851,05	-1,640	
68,58	5,550	711,02	850,34	-1,641	
68,60	5,554	711,88	849,86	-1,642	
68,62	5,558	708,37	850,65	-1,643	
68,64	5,562	707,80	851,29	-1,644	
68,66	5,566	709,80	850,94	-1,645	
68,68	5,570	711,47	850,11	-1,646	
68,70	5,574	710,64	850,00	-1,647	
68,72	5,578	708,35	850,76	-1,649	
68,74	5,582	709,19	850,93	-1,650	
68,76	5,586	710,73	850,31	-1,651	
68,78	5,590	711,70	849,87	-1,652	
68,80	5,594	708,04	850,62	-1,653	
68,82	5,598	707,19	851,16	-1,654	
68,84	5,602	709,49	850,76	-1,655	
68,86	5,606	711,66	849,98	-1,656	
68,88	5,610	710,17	850,18	-1,658	
68,90	5,614	707,50	850,99	-1,659	
68,92	5,618	708,82	851,01	-1,660	
68,94	5,622	710,87	850,31	-1,661	
68,96	5,626	711,76	849,92	-1,662	
68,98	5,630	708,37	850,72	-1,663	
69,00	5,634	707,99	851,23	-1,664	
69,02	5,638	709,94	850,79	-1,665	
69,04	5,642	711,64	849,98	-1,666	
69,06	5,646	709,46	850,11	-1,667	
69,08	5,650	706,18	850,96	-1,669	
69,10	5,654	707,92	851,05	-1,670	
69,12	5,658	710,47	850,37	-1,671	
69,14	5,662	711,63	849,87	-1,672	
69,16	5,666	707,98	850,50	-1,673	
69,18	5,670	707,04	850,96	-1,674	
69,20	5,674	709,36	850,55	-1,675	
69,22	5,678	711,58	849,90	-1,676	
69,24	5,682	708,63	850,29	-1,678	
69,26	5,686	706,14	850,92	-1,679	
69,28	5,690	708,38	850,71	-1,680	
69,30	5,694	711,25	849,99	-1,681	
69,32	5,698	710,49	850,01	-1,682	
69,34	5,702	707,10	850,63	-1,683	
69,36	5,706	708,63	850,60	-1,684	
69,38	5,710	711,58	849,98	-1,685	
69,40	5,714	710,20	850,09	-1,686	
69,42	5,718	704,99	850,80	-1,687	
69,44	5,722	706,14	850,80	-1,688	
69,46	5,726	710,02	850,12	-1,690	
69,48	5,730	710,86	849,92	-1,691	
69,50	5,734	706,75	850,61	-1,692	
69,52	5,738	707,09	850,81	-1,693	
69,54	5,742	710,14	850,23	-1,694	
69,56	5,746	711,31	849,88	-1,695	
69,58	5,750	706,94	850,57	-1,696	
69,60	5,754	705,94	850,94	-1,697	
69,62	5,758	708,90	850,44	-1,698	
69,64	5,762	711,43	849,86	-1,699	
69,66	5,766	707,74	850,52	-1,701	
69,68	5,770	704,27	851,28	-1,702	
69,70	5,774	705,60	851,07	-1,703	
69,72	5,778	707,58	850,26	-1,704	
69,74	5,782	708,13	849,91	-1,705	
69,76	5,786	706,10	850,66	-1,706	
69,78	5,790	706,13	851,05	-1,707	
69,80	5,794	707,28	850,55	-1,708	
69,82	5,798	708,55	849,88	-1,709	
69,84	5,802	705,70	850,38	-1,710	
69,86	5,806	703,54	851,18	-1,712	
69,88	5,810	705,43	851,06	-1,713	
69,90	5,814	707,56	850,28	-1,714	
69,92	5,818	708,15	849,90	-1,715	
69,94	5,822	705,48	850,68	-1,716	
69,96	5,826	705,39	851,14	-1,717	
69,98	5,830	706,84	850,69	-1,718	
70,00	5,834	708,41	849,92	-1,719	
70,02	5,838	707,14	850,20	-1,720	
70,04	5,842	704,94	851,05	-1,721	
70,06	5,846	705,93	851,06	-1,722	
70,08	5,850	707,50	850,33	-1,724	
70,10	5,854	708,50	849,85	-1,725	
70,12	5,858	704,80	850,65	-1,726	
70,14	5,862	703,74	851,31	-1,727	
70,16	5,866	705,96	850,98	-1,728	
70,18	5,870	707,95	850,15	-1,729	
70,20	5,874	707,29	849,98	-1,730	
70,22	5,878	704,37	850,74	-1,731	
70,24	5,882	705,19	850,96	-1,732	
70,26	5,886	707,16	850,36	-1,733	
70,28	5,890	708,35	849,87	-1,734	
70,30	5,894	704,38	850,55	-1,736	
70,32	5,898	702,90	851,08	-1,737	
70,34	5,902	705,42	850,70	-1,738	
70,36	5,906	708,02	849,93	-1,739	
70,38	5,910	706,69	850,22	-1,740	
70,40	5,914	702,93	851,21	-1,741	
70,42	5,918	702,76	851,34	-1,742	
70,44	5,922	703,90	850,65	-1,743	
70,46	5,926	705,16	849,88	-1,744	
70,48	5,930	703,99	850,30	-1,745	
70,50	5,934	703,23	851,08	-1,746	
70,52	5,938	704,18	850,96	-1,747	
70,54	5,942	706,53	850,20	-1,749	
70,56	5,946	707,36	849,93	-1,750	
70,58	5,950	703,65	850,70	-1,751	
70,60	5,954	703,45	851,04	-1,752	
70,62	5,958	706,08	850,51	-1,753	
70,64	5,961	708,24	849,86	-1,754	
70,66	5,966	704,93	850,39	-1,755	
70,68	5,970	702,23	851,08	-1,756	
70,70	5,974	704,17	850,86	-1,757	
70,72	5,978	705,75	850,08	-1,758	
70,74	5,982	704,38	850,05	-1,759	
70,76	5,986	701,09	851,02	-1,760	
70,78	5,990	701,84	851,35	-1,762	
70,80	5,994	703,69	850,76	-1,763	
70,82	5,998	705,08	849,95	-1,763	
70,84	6,002	703,87	850,15	-1,765	
70,86	6,006	702,54	850,93	-1,766	
70,88	6,010	703,29	850,93	-1,767	
70,90	6,014	704,53	850,21	-1,768	
70,92	6,018	704,78	849,93	-1,769	
70,94	6,022	700,90	850,83	-1,770	
70,96	6,026	700,74	851,33	-1,771	
70,98	6,030	703,07	850,86	-1,772	
71,00	6,034	704,95	850,02	-1,773	
71,02	6,038	704,08	850,03	-1,775	
71,04	6,042	701,67	850,90	-1,776	
71,06	6,046	702,53	851,09	-1,777	
71,08	6,050	704,05	850,46	-1,778	
71,10	6,054	705,15	849,86	-1,779	
71,12	6,058	701,57	850,53	-1,780	
71,14	6,062	700,39	851,28	-1,781	
71,16	6,066	702,67	851,05	-1,782	
71,18	6,070	704,58	850,23	-1,783	
71,20	6,074	705,11	849,90	-1,784	
71,22	6,078	702,74	850,78	-1,785	
71,24	6,082	701,75	851,30	-1,786	
71,26	6,086	701,63	850,85	-1,787	
71,28	6,090	701,96	850,01	-1,788	
71,30	6,094	701,07	850,03	-1,790	
71,32	6,098	699,56	850,90	-1,791	
71,34	6,102	701,57	851,08	-1,792	
71,36	6,106	703,87	850,44	-1,793	
71,38	6,110	705,22	849,86	-1,794	
71,40	6,114	701,65	850,51	-1,795	
71,42	6,118	700,43	851,21	-1,796	
71,44	6,122	702,67	850,96	-1,797	
71,46	6,126	704,69	850,15	-1,798	
71,48	6,130	704,14	849,99	-1,799	
71,50	6,134	701,13	850,83	-1,800	
71,52	6,138	701,88	851,12	-1,801	
71,54	6,142	703,76	850,54	-1,802	
71,56	6,146	705,21	849,84	-1,803	
71,58	6,150	702,15	850,36	-1,804	
71,60	6,154	699,36	851,20	-1,806	
71,62	6,158	699,82	851,09	-1,807	
71,64	6,162	701,01	850,32	-1,808	
71,66	6,166	701,83	849,89	-1,809	
71,68	6,170	699,75	850,60	-1,810	
71,70	6,174	699,32	851,04	-1,811	
71,72	6,178	700,80	850,60	-1,812	
71,74	6,182	703,66	849,88	-1,813	
71,76	6,186	701,86	850,26	-1,814	
71,78	6,190	698,52	851,06	-1,815	
71,80	6,194	700,22	850,98	-1,816	
71,82	6,198	703,52	850,24	-1,817	
71,84	6,202	704,51	849,90	-1,818	
71,86	6,206	700,52	850,74	-1,819	
71,88	6,210	699,16	851,23	-1,821	
71,90	6,214	700,25	850,77	-1,822	
71,92	6,218	701,75	849,97	-1,822	
71,94	6,222	700,71	850,10	-1,824	
71,96	6,226	698,48	850,89	-1,825	
71,98	6,230	699,49	850,94	-1,826	
72,00	6,234	702,13	850,25	-1,827	
72,02	6,238	703,69	849,91	-1,828	
72,04	6,242	699,18	850,74	-1,829	
72,06	6,246	697,94	851,23	-1,830	
72,08	6,250	699,89	850,79	-1,831	
72,10	6,254	701,81	849,99	-1,832	
72,12	6,258	700,14	850,18	-1,833	
72,14	6,262	697,08	851,10	-1,834	
72,16	6,266	698,36	851,24	-1,835	
72,18	6,270	700,48	850,57	-1,836	
72,20	6,274	701,88	849,88	-1,837	
72,22	6,278	699,04	850,40	-1,838	
72,24	6,282	697,79	851,10	-1,839	
72,26	6,286	699,57	850,89	-1,840	
72,28	6,290	701,39	850,10	-1,841	
72,30	6,294	700,78	850,00	-1,843	
72,32	6,298	696,75	850,95	-1,844	
72,34	6,302	696,84	851,30	-1,845	
72,36	6,306	699,45	850,74	-1,846	
72,38	6,310	701,60	849,93	-1,847	
72,40	6,314	700,24	850,13	-1,848	
72,42	6,318	698,37	850,93	-1,849	
72,44	6,322	699,43	850,95	-1,850	
72,46	6,326	701,01	850,24	-1,851	
72,48	6,330	701,47	849,92	-1,852	
72,50	6,334	697,28	850,82	-1,853	
72,52	6,338	696,52	851,35	-1,854	
72,54	6,342	698,25	850,92	-1,855	
72,56	6,346	699,02	850,07	-1,856	
72,58	6,350	698,02	850,00	-1,857	
72,60	6,354	695,88	850,84	-1,858	
72,62	6,358	696,35	851,06	-1,859	
72,64	6,362	698,40	850,46	-1,860	
72,66	6,366	700,90	849,86	-1,861	
72,68	6,370	698,12	850,46	-1,863	
72,70	6,374	697,03	851,12	-1,864	
72,72	6,378	699,24	850,84	-1,865	
72,74	6,382	701,41	850,06	-1,866	
72,76	6,386	699,79	850,08	-1,867	
72,78	6,390	696,28	850,89	-1,868	
72,80	6,394	697,71	851,02	-1,869	
72,82	6,398	700,30	850,36	-1,870	
72,84	6,402	701,73	849,86	-1,871	
72,86	6,406	698,12	850,57	-1,872	
72,88	6,410	696,89	851,17	-1,873	
72,90	6,414	698,53	850,83	-1,874	
72,92	6,418	700,68	850,03	-1,875	
72,94	6,422	699,47	850,14	-1,876	
72,96	6,426	695,87	851,11	-1,877	
72,98	6,430	695,99	851,34	-1,878	
73,00	6,434	697,17	850,70	-1,879	
73,02	6,438	698,35	849,91	-1,880	
73,04	6,442	697,32	850,28	-1,881	
73,06	6,446	696,53	851,16	-1,883	
73,08	6,450	697,07	851,18	-1,883	
73,10	6,454	697,68	850,44	-1,884	
73,12	6,458	698,41	849,87	-1,885	
73,14	6,462	695,73	850,58	-1,887	
73,16	6,466	695,07	851,27	-1,888	
73,18	6,470	696,57	850,99	-1,889	
73,20	6,474	697,97	850,16	-1,890	
73,22	6,478	697,85	849,99	-1,891	
73,24	6,482	695,90	850,95	-1,892	
73,26	6,486	696,29	851,38	-1,893	
73,28	6,490	697,35	850,86	-1,894	
73,30	6,494	698,34	850,01	-1,895	
73,32	6,498	697,63	850,08	-1,896	
73,34	6,502	695,74	851,00	-1,897	
73,36	6,506	696,26	851,19	-1,898	
73,38	6,510	697,33	850,55	-1,899	
73,40	6,514	698,39	849,87	-1,900	
73,42	6,518	695,60	850,40	-1,901	
73,44	6,522	694,33	851,16	-1,902	
73,46	6,526	696,08	850,99	-1,903	
73,48	6,530	697,72	850,21	-1,904	
73,50	6,534	697,75	849,93	-1,905	
73,52	6,538	694,27	850,82	-1,906	
73,54	6,542	694,00	851,28	-1,907	
73,56	6,546	696,25	850,81	-1,908	
73,58	6,550	698,22	849,98	-1,909	
73,60	6,554	696,70	850,11	-1,910	
73,62	6,558	693,68	850,99	-1,912	
73,64	6,562	694,90	851,12	-1,913	
73,66	6,566	697,05	850,45	-1,914	
73,68	6,570	698,56	849,83	-1,915	
73,70	6,574	695,69	850,52	-1,916	
73,72	6,578	693,74	851,32	-1,917	
73,74	6,582	694,44	851,13	-1,918	
73,76	6,586	694,92	850,32	-1,919	
73,78	6,590	694,96	849,87	-1,920	
73,80	6,594	692,78	850,65	-1,921	
73,82	6,598	692,66	851,20	-1,922	
73,84	6,602	693,80	850,81	-1,923	
73,86	6,606	694,99	850,00	-1,924	
73,88	6,610	694,00	850,11	-1,925	
73,90	6,614	691,57	851,04	-1,926	
73,92	6,618	692,39	851,23	-1,927	
73,94	6,622	693,78	850,58	-1,928	
73,96	6,625	695,03	849,87	-1,929	
73,98	6,630	693,19	850,37	-1,930	
74,00	6,634	692,38	851,15	-1,931	
74,02	6,638	693,44	851,01	-1,932	
74,04	6,642	694,54	850,24	-1,933	
74,06	6,646	694,82	849,93	-1,934	
74,08	6,650	692,76	850,79	-1,935	
74,10	6,654	692,68	851,28	-1,936	
74,12	6,658	693,76	850,81	-1,937	
74,14	6,662	694,90	849,98	-1,938	
74,16	6,666	694,17	850,10	-1,939	
74,18	6,670	692,25	851,07	-1,940	
74,20	6,674	692,79	851,28	-1,941	
74,22	6,678	693,86	850,64	-1,942	
74,24	6,682	695,01	849,90	-1,943	
74,26	6,686	693,24	850,35	-1,944	
74,28	6,690	692,39	851,16	-1,946	
74,30	6,694	693,36	851,05	-1,946	
74,32	6,698	694,37	850,27	-1,947	
74,34	6,702	694,75	849,91	-1,948	
74,36	6,706	692,09	850,78	-1,950	
74,38	6,710	691,85	851,33	-1,951	
74,40	6,714	693,27	850,90	-1,952	
74,42	6,718	694,59	850,06	-1,953	
74,44	6,722	693,84	850,05	-1,954	
74,46	6,726	691,44	850,98	-1,955	
74,48	6,730	692,25	851,24	-1,956	
74,50	6,734	693,72	850,63	-1,957	
74,52	6,738	694,96	849,88	-1,958	
74,54	6,742	692,97	850,35	-1,959	
74,56	6,746	691,62	851,21	-1,960	
74,58	6,750	692,90	851,16	-1,961	
74,60	6,754	694,17	850,40	-1,962	
74,62	6,758	695,16	849,84	-1,963	
74,64	6,762	693,06	850,53	-1,964	
74,66	6,766	692,37	851,17	-1,965	
74,68	6,770	693,38	850,86	-1,966	
74,70	6,774	694,60	850,07	-1,967	
74,72	6,778	693,48	850,06	-1,968	
74,74	6,782	690,01	850,94	-1,969	
74,76	6,786	691,09	851,16	-1,970	
74,78	6,790	693,34	850,54	-1,971	
74,80	6,794	694,01	849,88	-1,972	
74,82	6,798	690,06	850,43	-1,973	
74,84	6,802	688,38	851,16	-1,974	
74,86	6,806	689,78	850,96	-1,975	
74,88	6,810	692,16	850,17	-1,976	
74,90	6,814	693,21	849,98	-1,977	
74,92	6,818	689,93	850,93	-1,978	
74,94	6,822	689,70	851,38	-1,979	
74,96	6,826	690,84	850,88	-1,980	
74,98	6,830	691,69	850,03	-1,981	
75,00	6,834	691,14	850,11	-1,982	
75,02	6,838	689,69	851,07	-1,983	
75,04	6,842	689,96	851,31	-1,984	
75,06	6,846	690,68	850,69	-1,985	
75,08	6,850	691,71	849,90	-1,986	
75,10	6,854	690,67	850,28	-1,987	
75,12	6,858	689,78	851,24	-1,988	
75,14	6,862	690,27	851,29	-1,989	
75,16	6,866	690,79	850,57	-1,990	
75,18	6,870	691,77	849,83	-1,991	
75,20	6,874	690,54	850,34	-1,992	
75,22	6,878	689,70	851,18	-1,993	
75,24	6,882	690,23	851,09	-1,994	
75,26	6,886	690,99	850,32	-1,995	
75,28	6,890	691,32	849,91	-1,996	
75,30	6,894	688,65	850,71	-1,997	
75,32	6,898	688,46	851,23	-1,998	
75,34	6,902	689,99	850,80	-1,999	
75,36	6,906	691,51	849,99	-2,000	
75,38	6,910	690,64	850,08	-2,001	
75,40	6,914	688,23	850,94	-2,003	
75,42	6,918	689,02	851,07	-2,003	
75,44	6,922	690,46	850,40	-2,004	
75,46	6,926	691,61	849,83	-2,005	
75,48	6,930	688,13	850,57	-2,007	
75,50	6,934	686,72	851,33	-2,008	
75,52	6,938	688,89	851,09	-2,008	
75,54	6,942	690,75	850,27	-2,009	
75,56	6,946	691,09	849,91	-2,010	
75,58	6,950	688,21	850,81	-2,012	
75,60	6,954	687,75	851,38	-2,013	
75,62	6,958	688,87	850,95	-2,013	
75,64	6,962	689,52	850,10	-2,014	
75,66	6,966	688,57	849,97	-2,015	
75,68	6,970	687,45	850,82	-2,017	
75,70	6,974	688,97	851,08	-2,017	
75,72	6,978	690,49	850,49	-2,018	
75,74	6,982	691,67	849,87	-2,019	
75,76	6,986	687,98	850,55	-2,020	
75,78	6,990	685,16	851,37	-2,022	
75,80	6,994	686,15	851,20	-2,022	
75,82	6,998	687,55	850,39	-2,023	
75,84	7,001	688,52	849,87	-2,024	
75,86	7,006	687,59	850,56	-2,025	
75,88	7,010	688,00	851,12	-2,026	
75,90	7,014	689,75	850,75	-2,027	
75,92	7,018	691,48	849,98	-2,028	
75,94	7,022	689,70	850,12	-2,029	
75,96	7,026	686,01	850,93	-2,031	
75,98	7,030	687,37	850,99	-2,031	
76,00	7,034	690,12	850,30	-2,032	
76,02	7,038	691,24	849,88	-2,033	
76,04	7,042	687,26	850,61	-2,034	
76,06	7,046	686,30	851,06	-2,035	
76,08	7,050	688,91	850,61	-2,036	
76,10	7,054	691,39	849,89	-2,037	
76,12	7,058	688,26	850,37	-2,038	
76,14	7,062	684,21	851,30	-2,039	
76,16	7,066	685,19	851,30	-2,040	
76,18	7,070	687,06	850,55	-2,041	
76,20	7,074	688,43	849,88	-2,042	
76,22	7,078	686,53	850,42	-2,043	
76,24	7,082	685,76	851,08	-2,044	
76,26	7,086	686,73	850,83	-2,045	
76,28	7,090	687,99	850,04	-2,046	
76,30	7,094	687,01	850,10	-2,047	
76,32	7,098	683,38	851,12	-2,048	
76,34	7,102	684,26	851,43	-2,049	
76,36	7,106	686,54	850,83	-2,050	
76,38	7,110	688,15	849,98	-2,051	
76,40	7,114	687,17	850,09	-2,052	
76,42	7,118	685,62	850,94	-2,053	
76,44	7,122	686,33	851,04	-2,054	
76,46	7,126	687,42	850,37	-2,055	
76,48	7,130	688,35	849,86	-2,056	
76,50	7,134	684,83	850,67	-2,057	
76,52	7,138	683,51	851,40	-2,058	
76,54	7,142	685,71	851,11	-2,059	
76,56	7,146	687,60	850,27	-2,060	
76,58	7,150	687,79	849,92	-2,061	
76,60	7,154	685,80	850,68	-2,062	
76,62	7,158	686,11	851,07	-2,063	
76,64	7,162	687,15	850,58	-2,064	
76,66	7,166	688,30	849,88	-2,065	
76,68	7,170	685,11	850,41	-2,066	
76,70	7,174	681,93	851,34	-2,067	
76,72	7,178	683,12	851,29	-2,068	
76,74	7,182	684,29	850,52	-2,069	
76,76	7,186	685,14	849,86	-2,070	
76,78	7,190	683,64	850,47	-2,071	
76,80	7,194	682,93	851,23	-2,072	
76,82	7,198	683,82	851,03	-2,073	
76,84	7,202	686,06	850,23	-2,074	
76,86	7,206	686,94	849,97	-2,075	
76,88	7,210	684,05	850,85	-2,076	
76,90	7,214	683,73	851,27	-2,077	
76,92	7,218	684,46	850,77	-2,078	
76,94	7,222	685,21	849,95	-2,078	
76,96	7,226	684,50	850,18	-2,079	
76,98	7,230	683,04	851,10	-2,081	
77,00	7,234	683,28	851,21	-2,082	
77,02	7,238	683,96	850,51	-2,083	
77,04	7,242	684,87	849,87	-2,083	
77,06	7,246	682,28	850,52	-2,085	
77,08	7,250	681,30	851,30	-2,086	
77,10	7,254	682,82	851,11	-2,086	
77,12	7,258	684,15	850,30	-2,087	
77,14	7,262	684,72	849,90	-2,088	
77,16	7,266	682,60	850,81	-2,089	
77,18	7,270	682,30	851,45	-2,090	
77,20	7,274	683,46	851,07	-2,091	
77,22	7,278	684,52	850,20	-2,092	
77,24	7,282	684,48	849,93	-2,093	
77,26	7,286	682,45	850,80	-2,094	
77,28	7,290	682,72	851,22	-2,095	
77,30	7,294	683,75	850,72	-2,096	
77,32	7,298	684,87	849,92	-2,097	
77,34	7,302	683,47	850,28	-2,098	
77,36	7,306	681,45	851,35	-2,099	
77,38	7,310	681,60	851,51	-2,100	
77,40	7,314	681,48	850,82	-2,101	
77,42	7,318	681,78	849,97	-2,102	
77,44	7,322	681,39	850,13	-2,103	
77,46	7,326	680,54	850,95	-2,104	
77,48	7,330	680,59	851,01	-2,105	
77,50	7,334	681,36	850,31	-2,106	
77,52	7,338	683,10	849,86	-2,107	
77,54	7,342	680,20	850,67	-2,108	
77,56	7,346	678,69	851,29	-2,109	
77,58	7,350	679,82	850,93	-2,110	
77,60	7,354	681,23	850,10	-2,110	
77,62	7,358	681,03	850,03	-2,111	
77,64	7,362	679,02	850,99	-2,112	
77,66	7,366	679,39	851,33	-2,113	
77,68	7,370	680,45	850,77	-2,114	
77,70	7,374	681,62	849,95	-2,115	
77,72	7,378	680,51	850,21	-2,116	
77,74	7,382	679,00	851,14	-2,117	
77,76	7,386	679,68	851,24	-2,118	
77,78	7,390	680,63	850,55	-2,119	
77,80	7,393	681,68	849,86	-2,120	
77,82	7,398	679,84	850,42	-2,121	
77,84	7,402	678,99	851,18	-2,122	
77,86	7,406	679,98	851,01	-2,123	
77,88	7,410	681,03	850,21	-2,124	
77,90	7,414	681,08	849,95	-2,125	
77,92	7,418	678,47	850,90	-2,126	
77,94	7,422	678,65	851,42	-2,127	
77,96	7,426	680,19	850,97	-2,128	
77,98	7,430	681,41	850,10	-2,129	
78,00	7,434	681,01	850,04	-2,130	
78,02	7,438	678,93	850,99	-2,131	
78,04	7,442	679,32	851,32	-2,131	
78,06	7,446	680,44	850,75	-2,132	
78,08	7,450	681,60	849,95	-2,133	
78,10	7,454	680,41	850,21	-2,134	
78,12	7,458	678,91	851,08	-2,135	
78,14	7,462	679,66	851,13	-2,136	
78,16	7,466	680,75	850,41	-2,137	
78,18	7,469	681,75	849,85	-2,138	
78,20	7,474	678,78	850,66	-2,139	
78,22	7,478	677,36	851,46	-2,140	
78,24	7,482	679,14	851,23	-2,141	
78,26	7,486	679,78	850,40	-2,142	
78,28	7,489	679,37	849,86	-2,143	
78,30	7,494	677,66	850,64	-2,144	
78,32	7,498	676,99	851,32	-2,145	
78,34	7,502	677,29	851,02	-2,146	
78,36	7,506	677,93	850,19	-2,147	
78,38	7,510	677,84	849,93	-2,147	
78,40	7,514	675,87	850,78	-2,149	
78,42	7,518	677,02	851,18	-2,150	
78,44	7,522	679,52	850,67	-2,150	
78,46	7,526	681,52	849,92	-2,151	
78,48	7,530	679,54	850,29	-2,152	
78,50	7,534	676,57	851,16	-2,153	
78,52	7,538	676,50	851,14	-2,154	
78,54	7,542	677,43	850,39	-2,155	
78,56	7,546	678,43	849,87	-2,156	
78,58	7,550	676,35	850,62	-2,157	
78,60	7,554	675,64	851,27	-2,158	
78,62	7,558	676,73	850,95	-2,159	
78,64	7,562	677,94	850,12	-2,160	
78,66	7,565	677,55	849,99	-2,161	
78,68	7,570	674,99	850,94	-2,162	
78,70	7,574	675,65	851,32	-2,163	
78,72	7,578	677,20	850,78	-2,164	
78,74	7,581	678,42	849,95	-2,164	
78,76	7,586	677,24	850,14	-2,165	
78,78	7,590	675,61	851,06	-2,166	
78,80	7,594	676,35	851,20	-2,167	
78,82	7,598	677,39	850,52	-2,168	
78,84	7,602	678,44	849,87	-2,169	
78,86	7,606	675,86	850,51	-2,170	
78,88	7,610	674,85	851,29	-2,171	
78,90	7,614	676,34	851,10	-2,172	
78,92	7,618	677,65	850,29	-2,173	
78,94	7,622	677,89	849,87	-2,174	
78,96	7,626	675,29	850,63	-2,175	
78,98	7,630	675,25	851,11	-2,176	
79,00	7,634	676,68	850,68	-2,177	
79,02	7,638	678,22	849,93	-2,178	
79,04	7,642	676,84	850,28	-2,179	
79,06	7,646	674,80	851,24	-2,180	
79,08	7,650	675,80	851,33	-2,180	
79,10	7,654	677,13	850,62	-2,181	
79,12	7,658	678,08	849,88	-2,182	
79,14	7,662	675,55	850,39	-2,183	
79,16	7,666	673,44	851,28	-2,184	
79,18	7,670	673,57	851,23	-2,185	
79,20	7,673	674,20	850,46	-2,186	
79,22	7,677	675,12	849,85	-2,187	
79,24	7,682	673,66	850,59	-2,188	
79,26	7,686	672,94	851,40	-2,189	
79,28	7,690	673,50	851,19	-2,189	
79,30	7,694	674,11	850,38	-2,190	
79,32	7,698	674,88	849,86	-2,191	
79,34	7,702	673,99	850,62	-2,192	
79,36	7,706	673,56	851,26	-2,193	
79,38	7,710	673,81	850,93	-2,194	
79,40	7,714	674,86	850,11	-2,195	
79,42	7,718	674,80	850,05	-2,196	
79,44	7,722	671,98	850,97	-2,197	
79,46	7,726	672,24	851,26	-2,198	
79,48	7,730	673,63	850,68	-2,199	
79,50	7,734	674,92	849,90	-2,200	
79,52	7,738	673,30	850,29	-2,201	
79,54	7,742	672,24	851,18	-2,202	
79,56	7,746	673,20	851,18	-2,202	
79,58	7,750	674,12	850,44	-2,203	
79,60	7,754	674,98	849,87	-2,204	
79,62	7,758	672,93	850,59	-2,205	
79,64	7,762	672,15	851,32	-2,206	
79,66	7,766	673,22	851,07	-2,207	
79,68	7,770	674,30	850,24	-2,208	
79,70	7,773	674,50	849,91	-2,209	
79,72	7,778	672,40	850,81	-2,210	
79,74	7,782	672,56	851,34	-2,211	
79,76	7,786	673,56	850,90	-2,212	
79,78	7,790	674,62	850,05	-2,212	
79,80	7,794	674,20	850,08	-2,213	
79,82	7,798	672,22	851,06	-2,214	
79,84	7,802	672,71	851,35	-2,215	
79,86	7,806	673,86	850,75	-2,216	
79,88	7,810	675,06	849,94	-2,217	
79,90	7,814	673,60	850,19	-2,218	
79,92	7,818	672,49	851,00	-2,219	
79,94	7,822	673,31	850,99	-2,220	
79,96	7,826	674,35	850,27	-2,221	
79,98	7,830	674,52	849,89	-2,222	
80,00	7,834	671,30	850,67	-2,223	
80,02	7,838	671,15	851,15	-2,223	
80,04	7,842	673,02	850,70	-2,224	
80,06	7,846	674,72	849,93	-2,225	
80,08	7,850	672,81	850,26	-2,226	
80,10	7,854	670,06	851,17	-2,227	
80,12	7,858	671,08	851,22	-2,228	
80,14	7,862	671,83	850,49	-2,229	
80,16	7,865	672,11	849,85	-2,229	
80,18	7,870	669,75	850,53	-2,230	
80,20	7,874	668,81	851,32	-2,231	
80,22	7,878	669,83	851,12	-2,232	
80,24	7,882	670,84	850,31	-2,233	
80,26	7,886	671,07	849,88	-2,234	
80,28	7,890	669,02	850,62	-2,235	
80,30	7,894	669,21	851,10	-2,236	
80,32	7,898	670,53	850,66	-2,237	
80,34	7,902	673,04	849,91	-2,238	
80,36	7,906	671,95	850,27	-2,239	
80,38	7,910	668,84	851,22	-2,240	
80,40	7,914	669,10	851,29	-2,241	
80,42	7,918	670,32	850,57	-2,241	
80,44	7,922	671,62	849,87	-2,242	
80,46	7,926	669,76	850,47	-2,243	
80,48	7,930	668,77	851,32	-2,244	
80,50	7,934	669,82	851,19	-2,245	
80,52	7,938	670,79	850,40	-2,246	
80,54	7,941	671,50	849,86	-2,247	
80,56	7,945	669,17	850,74	-2,248	
80,58	7,950	667,42	851,56	-2,249	
80,60	7,954	667,23	851,31	-2,249	
80,62	7,958	667,49	850,47	-2,250	
80,64	7,961	668,33	849,84	-2,251	
80,66	7,966	667,48	850,53	-2,252	
80,68	7,970	666,94	851,30	-2,253	
80,70	7,974	667,97	851,09	-2,254	
80,72	7,978	669,95	850,28	-2,255	
80,74	7,982	670,98	849,89	-2,255	
80,76	7,986	668,37	850,78	-2,256	
80,78	7,990	667,64	851,37	-2,257	
80,80	7,994	667,96	850,97	-2,258	
80,82	7,998	668,24	850,12	-2,259	
80,84	8,002	667,90	850,02	-2,260	
80,86	8,006	666,61	850,91	-2,261	
80,88	8,010	668,06	851,22	-2,262	
80,90	8,014	669,98	850,64	-2,263	
80,92	8,018	671,45	849,89	-2,263	
80,94	8,022	668,95	850,34	-2,264	
80,96	8,026	666,32	851,24	-2,265	
80,98	8,030	666,41	851,22	-2,266	
81,00	8,034	667,15	850,48	-2,267	
81,02	8,038	668,19	849,84	-2,268	
81,04	8,042	666,81	850,46	-2,269	
81,06	8,046	666,07	851,17	-2,270	
81,08	8,050	666,70	850,93	-2,271	
81,10	8,053	667,67	850,14	-2,271	
81,12	8,057	667,25	849,99	-2,272	
81,14	8,062	664,66	850,86	-2,273	
81,16	8,066	665,17	851,18	-2,274	
81,18	8,070	666,62	850,62	-2,275	
81,20	8,074	667,96	849,88	-2,276	
81,22	8,078	666,31	850,37	-2,277	
81,24	8,082	665,34	851,28	-2,278	
81,26	8,086	666,33	851,25	-2,278	
81,28	8,090	667,23	850,50	-2,279	
81,30	8,094	668,21	849,86	-2,280	
81,32	8,098	666,88	850,47	-2,281	
81,34	8,102	666,19	851,18	-2,282	
81,36	8,106	666,84	850,95	-2,283	
81,38	8,110	667,77	850,15	-2,283	
81,40	8,114	667,49	849,99	-2,284	
81,42	8,118	664,24	851,07	-2,285	
81,44	8,122	664,27	851,63	-2,286	
81,46	8,126	664,76	851,16	-2,287	
81,48	8,130	664,75	850,26	-2,288	
81,50	8,134	665,17	849,92	-2,289	
81,52	8,138	664,69	850,75	-2,290	
81,54	8,142	664,94	851,21	-2,291	
81,56	8,146	666,36	850,74	-2,291	
81,58	8,149	668,02	849,95	-2,292	
81,60	8,153	666,26	850,21	-2,293	
81,62	8,158	663,94	851,15	-2,294	
81,64	8,162	665,26	851,24	-2,295	
81,66	8,166	666,97	850,54	-2,296	
81,68	8,170	668,30	849,86	-2,296	
81,70	8,174	666,44	850,53	-2,297	
81,72	8,178	665,45	851,42	-2,298	
81,74	8,182	666,22	851,30	-2,299	
81,76	8,186	665,76	850,50	-2,300	
81,78	8,190	665,44	849,89	-2,301	
81,80	8,194	664,18	850,51	-2,302	
81,82	8,198	664,40	851,12	-2,303	
81,84	8,202	666,11	850,81	-2,303	
81,86	8,206	667,81	850,01	-2,304	
81,88	8,210	666,56	850,15	-2,305	
81,90	8,214	662,45	851,32	-2,306	
81,92	8,218	662,18	851,69	-2,307	
81,94	8,222	663,46	851,09	-2,308	
81,96	8,226	664,49	850,18	-2,308	
81,98	8,230	665,17	849,95	-2,309	
82,00	8,234	664,73	850,86	-2,310	
82,02	8,238	664,23	851,31	-2,311	
82,04	8,242	664,02	850,80	-2,312	
82,06	8,245	664,75	849,99	-2,313	
82,08	8,250	663,73	850,21	-2,314	
82,10	8,254	662,17	851,12	-2,315	
82,12	8,258	662,79	851,21	-2,315	
82,14	8,262	663,81	850,50	-2,316	
82,16	8,266	664,86	849,87	-2,317	
82,18	8,270	662,35	850,56	-2,318	
82,20	8,274	661,25	851,36	-2,319	
82,22	8,278	662,68	851,16	-2,320	
82,24	8,282	663,95	850,34	-2,320	
82,26	8,286	664,58	849,87	-2,321	
82,28	8,290	662,19	850,78	-2,322	
82,30	8,294	660,43	851,50	-2,323	
82,32	8,298	660,27	851,19	-2,324	
82,34	8,302	660,75	850,33	-2,324	
82,36	8,306	661,52	849,89	-2,325	
82,38	8,310	660,63	850,73	-2,326	
82,40	8,314	660,23	851,34	-2,327	
82,42	8,318	660,38	850,96	-2,328	
82,44	8,322	661,02	850,11	-2,328	
82,46	8,326	660,78	850,01	-2,329	
82,48	8,330	658,69	851,02	-2,331	
82,50	8,334	659,00	851,43	-2,331	
82,52	8,338	660,08	850,89	-2,332	
82,54	8,341	661,12	850,04	-2,333	
82,56	8,346	660,26	850,14	-2,334	
82,58	8,350	658,62	851,11	-2,335	
82,60	8,354	659,22	851,34	-2,335	
82,62	8,358	660,20	850,70	-2,336	
82,64	8,362	661,39	849,92	-2,337	
82,66	8,366	659,82	850,38	-2,338	
82,68	8,370	658,68	851,34	-2,339	
82,70	8,374	659,55	851,36	-2,340	
82,72	8,378	660,38	850,62	-2,340	
82,74	8,382	661,43	849,86	-2,341	
82,76	8,386	660,25	850,36	-2,342	
82,78	8,390	659,33	851,24	-2,343	
82,80	8,394	659,90	851,19	-2,344	
82,82	8,398	660,55	850,42	-2,345	
82,84	8,402	661,24	849,87	-2,345	
82,86	8,406	658,47	850,73	-2,346	
82,88	8,410	656,48	851,54	-2,347	
82,90	8,414	656,62	851,29	-2,348	
82,92	8,418	657,17	850,45	-2,349	
82,94	8,421	658,07	849,86	-2,349	
82,96	8,425	657,22	850,54	-2,350	
82,98	8,430	656,72	851,18	-2,351	
83,00	8,434	657,75	850,88	-2,352	
83,02	8,437	660,10	850,07	-2,353	
83,04	8,441	660,22	850,05	-2,354	
83,06	8,446	656,67	851,02	-2,355	
83,08	8,450	657,28	851,34	-2,355	
83,10	8,454	659,55	850,76	-2,356	
83,12	8,458	661,08	849,94	-2,357	
83,14	8,462	658,97	850,23	-2,358	
83,16	8,466	656,56	851,26	-2,359	
83,18	8,470	656,51	851,41	-2,359	
83,20	8,474	657,10	850,73	-2,360	
83,22	8,478	658,12	849,92	-2,361	
83,24	8,482	657,19	850,25	-2,362	
83,26	8,486	656,18	851,16	-2,363	
83,28	8,490	656,64	851,20	-2,363	
83,30	8,494	657,24	850,48	-2,364	
83,32	8,498	658,17	849,87	-2,365	
83,34	8,502	656,22	850,62	-2,366	
83,36	8,506	655,26	851,45	-2,367	
83,38	8,510	656,26	851,25	-2,368	
83,40	8,514	657,16	850,44	-2,368	
83,42	8,518	657,88	849,86	-2,369	
83,44	8,522	656,47	850,56	-2,370	
83,46	8,526	656,23	851,24	-2,371	
83,48	8,530	656,88	850,95	-2,371	
83,50	8,533	657,69	850,13	-2,372	
83,52	8,537	657,34	849,98	-2,373	
83,54	8,542	654,13	850,92	-2,374	
83,56	8,546	654,39	851,32	-2,375	
83,58	8,550	656,38	850,79	-2,376	
83,60	8,554	658,00	849,97	-2,376	
83,62	8,558	656,46	850,14	-2,377	
83,64	8,562	654,04	851,07	-2,378	
83,66	8,566	654,89	851,21	-2,379	
83,68	8,570	656,35	850,55	-2,380	
83,70	8,574	656,48	849,86	-2,380	
83,72	8,578	653,39	850,43	-2,381	
83,74	8,582	651,91	851,22	-2,382	
83,76	8,586	652,96	851,08	-2,383	
83,78	8,590	654,26	850,29	-2,383	
83,80	8,594	655,18	849,89	-2,384	
83,82	8,598	652,88	850,79	-2,385	
83,84	8,602	652,54	851,42	-2,386	
83,86	8,606	653,44	851,06	-2,387	
83,88	8,610	654,21	850,20	-2,387	
83,90	8,613	654,48	849,91	-2,388	
83,92	8,617	653,00	850,77	-2,389	
83,94	8,622	652,95	851,23	-2,390	
83,96	8,626	653,61	850,75	-2,391	
83,98	8,629	654,68	849,97	-2,391	
84,00	8,634	652,99	850,27	-2,392	
84,02	8,638	651,13	851,25	-2,393	
84,04	8,642	652,25	851,38	-2,394	
84,06	8,646	653,55	850,69	-2,395	
84,08	8,650	654,73	849,89	-2,395	
84,10	8,654	653,45	850,30	-2,396	
84,12	8,658	651,86	851,30	-2,397	
84,14	8,662	651,84	851,37	-2,398	
84,16	8,666	651,39	850,64	-2,398	
84,18	8,670	651,66	849,89	-2,399	
84,20	8,674	651,13	850,33	-2,400	
84,22	8,678	651,76	851,14	-2,401	
84,24	8,682	653,20	851,05	-2,401	
84,26	8,686	654,17	850,29	-2,402	
84,28	8,690	654,44	849,90	-2,403	
84,30	8,694	651,51	850,83	-2,404	
84,32	8,698	649,98	851,51	-2,405	
84,34	8,702	650,16	851,15	-2,405	
84,36	8,705	650,72	850,28	-2,406	
84,38	8,709	651,39	849,89	-2,407	
84,40	8,713	650,47	850,71	-2,408	
84,42	8,718	650,08	851,23	-2,409	
84,44	8,722	650,33	850,80	-2,409	
84,46	8,725	651,16	850,00	-2,410	
84,48	8,729	650,22	850,18	-2,411	
84,50	8,734	648,66	851,16	-2,412	
84,52	8,738	649,32	851,34	-2,413	
84,54	8,742	650,30	850,67	-2,413	
84,56	8,746	651,35	849,90	-2,414	
84,58	8,750	649,74	850,31	-2,415	
84,60	8,754	648,65	851,15	-2,416	
84,62	8,758	649,53	851,10	-2,416	
84,64	8,762	650,56	850,35	-2,417	
84,66	8,766	651,29	849,89	-2,418	
84,68	8,770	649,24	850,78	-2,418	
84,70	8,774	648,86	851,49	-2,419	
84,72	8,778	649,94	851,17	-2,420	
84,74	8,782	650,10	850,31	-2,421	
84,76	8,786	649,32	849,88	-2,421	
84,78	8,790	647,46	850,72	-2,422	
84,80	8,794	647,29	851,34	-2,423	
84,82	8,798	647,92	850,98	-2,424	
84,84	8,802	649,56	850,13	-2,425	
84,86	8,805	650,42	850,01	-2,425	
84,88	8,810	648,02	851,03	-2,426	
84,90	8,814	646,82	851,49	-2,427	
84,92	8,818	647,01	850,98	-2,428	
84,94	8,821	647,74	850,09	-2,428	
84,96	8,825	648,07	850,03	-2,429	
84,98	8,830	647,05	851,15	-2,430	
85,00	8,834	646,85	851,66	-2,431	
85,02	8,838	647,15	851,16	-2,432	
85,04	8,842	647,58	850,26	-2,432	
85,06	8,846	647,78	849,90	-2,433	
85,08	8,850	647,24	850,72	-2,434	
85,10	8,854	647,08	851,20	-2,435	
85,12	8,858	647,23	850,76	-2,435	
85,14	8,862	648,03	849,96	-2,436	
85,16	8,866	647,02	850,16	-2,437	
85,18	8,870	645,40	851,10	-2,438	
85,20	8,874	646,04	851,24	-2,438	
85,22	8,878	647,03	850,57	-2,439	
85,24	8,882	648,17	849,87	-2,440	
85,26	8,886	646,41	850,50	-2,440	
85,28	8,890	645,35	851,44	-2,441	
85,30	8,894	646,34	851,38	-2,442	
85,32	8,898	646,98	850,60	-2,443	
85,34	8,901	646,70	849,86	-2,443	
85,36	8,905	645,52	850,35	-2,444	
85,38	8,910	645,87	851,17	-2,445	
85,40	8,914	646,89	851,07	-2,446	
85,42	8,917	647,65	850,30	-2,446	
85,44	8,921	647,60	849,94	-2,447	
85,46	8,926	644,40	850,77	-2,448	
85,48	8,930	644,53	851,28	-2,449	
85,50	8,934	646,40	850,84	-2,449	
85,52	8,938	647,95	850,01	-2,450	
85,54	8,942	647,03	850,10	-2,451	
85,56	8,946	644,00	851,09	-2,452	
85,58	8,950	643,24	851,35	-2,452	
85,60	8,954	643,75	850,73	-2,453	
85,62	8,958	644,81	849,93	-2,454	
85,64	8,962	643,34	850,29	-2,454	
85,66	8,966	642,06	851,25	-2,455	
85,68	8,970	642,93	851,32	-2,456	
85,70	8,974	643,80	850,60	-2,457	
85,72	8,978	644,85	849,86	-2,457	
85,74	8,982	643,71	850,40	-2,458	
85,76	8,986	642,80	851,32	-2,459	
85,78	8,990	643,38	851,28	-2,460	
85,80	8,994	643,99	850,52	-2,460	
85,82	8,998	644,71	849,86	-2,461	
85,84	9,002	642,84	850,47	-2,462	
85,86	9,006	642,25	851,21	-2,463	
85,88	9,010	643,25	851,00	-2,463	
85,90	9,013	644,37	850,20	-2,464	
85,92	9,017	644,01	850,00	-2,465	
85,94	9,022	640,12	850,96	-2,465	
85,96	9,026	640,45	851,42	-2,466	
85,98	9,030	642,25	850,93	-2,467	
86,00	9,034	643,00	850,06	-2,467	
86,02	9,038	642,10	850,04	-2,468	
86,04	9,042	640,40	851,05	-2,469	
86,06	9,046	640,14	851,39	-2,470	
86,08	9,050	640,49	850,82	-2,470	
86,10	9,054	641,33	849,98	-2,471	
86,12	9,058	640,60	850,22	-2,472	
86,14	9,062	639,51	851,24	-2,473	
86,16	9,066	639,93	851,41	-2,473	
86,18	9,070	640,54	850,74	-2,474	
86,20	9,074	641,48	849,94	-2,475	
86,22	9,078	640,47	850,28	-2,475	
86,24	9,082	639,46	851,13	-2,476	
86,26	9,085	639,88	851,12	-2,477	
86,28	9,089	640,55	850,38	-2,478	
86,30	9,093	641,31	849,90	-2,478	
86,32	9,097	639,34	850,81	-2,479	
86,34	9,102	638,83	851,59	-2,480	
86,36	9,106	639,80	851,31	-2,480	
86,38	9,110	639,82	850,45	-2,481	
86,40	9,113	639,46	849,83	-2,482	
86,42	9,118	638,30	850,55	-2,482	
86,44	9,122	637,28	851,34	-2,483	
86,46	9,126	637,13	851,13	-2,484	
86,48	9,130	637,51	850,31	-2,484	
86,50	9,134	638,23	849,91	-2,485	
86,52	9,138	636,53	850,73	-2,486	
86,54	9,142	637,48	851,26	-2,487	
86,56	9,146	639,58	850,84	-2,487	
86,58	9,150	641,11	850,02	-2,488	
86,60	9,154	640,20	850,12	-2,489	
86,62	9,158	637,22	851,07	-2,490	
86,64	9,162	636,47	851,28	-2,490	
86,66	9,166	636,95	850,64	-2,491	
86,68	9,170	638,12	849,88	-2,492	
86,70	9,174	636,54	850,36	-2,492	
86,72	9,178	635,36	851,30	-2,493	
86,74	9,181	636,26	851,30	-2,494	
86,76	9,185	637,17	850,55	-2,494	
86,78	9,189	638,19	849,85	-2,495	
86,80	9,193	636,93	850,44	-2,496	
86,82	9,198	636,05	851,25	-2,497	
86,84	9,202	636,62	851,11	-2,497	
86,86	9,206	637,39	850,31	-2,498	
86,88	9,209	637,55	849,92	-2,498	
86,90	9,214	634,23	850,80	-2,499	
86,92	9,218	632,98	851,38	-2,500	
86,94	9,222	633,55	850,97	-2,501	
86,96	9,226	634,46	850,11	-2,501	
86,98	9,230	634,44	850,02	-2,502	
87,00	9,234	632,84	850,99	-2,503	
87,02	9,238	632,82	851,35	-2,504	
87,04	9,242	633,48	850,79	-2,504	
87,06	9,246	634,55	849,96	-2,505	
87,08	9,250	633,81	850,23	-2,505	
87,10	9,254	632,70	851,26	-2,506	
87,12	9,258	633,15	851,43	-2,507	
87,14	9,262	633,81	850,76	-2,508	
87,16	9,266	634,72	849,94	-2,508	
87,18	9,270	633,71	850,26	-2,509	
87,20	9,274	632,65	851,18	-2,510	
87,22	9,278	633,19	851,25	-2,510	
87,24	9,281	633,81	850,53	-2,511	
87,26	9,285	634,80	849,86	-2,511	
87,28	9,289	633,03	850,51	-2,512	
87,30	9,294	631,97	851,35	-2,513	
87,32	9,298	632,92	851,21	-2,514	
87,34	9,302	633,92	850,41	-2,514	
87,36	9,305	634,50	849,88	-2,515	
87,38	9,310	631,87	850,68	-2,516	
87,40	9,314	631,48	851,38	-2,516	
87,42	9,318	632,89	851,08	-2,517	
87,44	9,322	634,01	850,24	-2,518	
87,46	9,326	634,39	849,91	-2,518	
87,48	9,330	631,53	850,91	-2,519	
87,50	9,334	630,04	851,56	-2,520	
87,52	9,338	630,17	851,18	-2,520	
87,54	9,342	630,69	850,30	-2,521	
87,56	9,346	631,41	849,88	-2,521	
87,58	9,350	630,48	850,75	-2,522	
87,60	9,354	630,09	851,38	-2,523	
87,62	9,358	630,25	851,00	-2,524	
87,64	9,362	630,78	850,14	-2,524	
87,66	9,366	631,05	849,97	-2,525	
87,68	9,369	629,56	851,01	-2,526	
87,70	9,373	629,49	851,52	-2,526	
87,72	9,377	630,16	851,05	-2,527	
87,74	9,381	630,77	850,17	-2,527	
87,76	9,385	629,81	850,01	-2,528	
87,78	9,389	628,25	850,94	-2,529	
87,80	9,394	629,07	851,34	-2,530	
87,82	9,398	630,26	850,81	-2,530	
87,84	9,401	631,35	849,98	-2,531	
87,86	9,405	629,93	850,19	-2,531	
87,88	9,410	627,29	851,20	-2,532	
87,90	9,414	626,74	851,39	-2,533	
87,92	9,418	627,11	850,74	-2,533	
87,94	9,422	628,08	849,92	-2,534	
87,96	9,426	627,71	850,24	-2,535	
87,98	9,430	626,88	851,21	-2,535	
88,00	9,434	627,65	851,32	-2,536	
88,02	9,438	629,19	850,62	-2,537	
88,04	9,442	629,76	849,88	-2,537	
88,06	9,446	627,59	850,45	-2,538	
88,08	9,450	626,13	851,44	-2,539	
88,10	9,454	626,57	851,44	-2,539	
88,12	9,458	627,14	850,68	-2,540	
88,14	9,462	628,03	849,90	-2,540	
88,16	9,466	627,50	850,32	-2,541	
88,18	9,470	626,81	851,18	-2,542	
88,20	9,473	626,97	851,14	-2,542	
88,22	9,477	627,27	850,39	-2,543	
88,24	9,481	627,84	849,86	-2,543	
88,26	9,485	625,81	850,67	-2,544	
88,28	9,490	625,30	851,42	-2,545	
88,30	9,494	626,41	851,16	-2,545	
88,32	9,498	627,27	850,32	-2,546	
88,34	9,501	627,10	849,89	-2,547	
88,36	9,506	624,09	850,77	-2,547	
88,38	9,510	623,70	851,40	-2,548	
88,40	9,514	624,94	851,03	-2,549	
88,42	9,518	625,09	850,18	-2,549	
88,44	9,522	624,60	849,98	-2,550	
88,46	9,526	622,81	850,92	-2,550	
88,48	9,530	622,82	851,37	-2,551	
88,50	9,534	623,55	850,87	-2,552	
88,52	9,538	624,50	850,02	-2,552	
88,54	9,542	623,92	850,12	-2,553	
88,56	9,546	622,79	851,09	-2,554	
88,58	9,550	623,11	851,32	-2,554	
88,60	9,554	623,68	850,68	-2,555	
88,62	9,557	624,69	849,91	-2,555	
88,64	9,561	623,17	850,32	-2,556	
88,66	9,565	621,94	851,19	-2,557	
88,68	9,569	622,81	851,16	-2,557	
88,70	9,573	623,78	850,41	-2,558	
88,72	9,577	624,55	849,86	-2,558	
88,74	9,581	622,54	850,61	-2,559	
88,76	9,586	621,96	851,33	-2,560	
88,78	9,590	623,04	851,06	-2,560	
88,80	9,594	623,94	850,23	-2,561	
88,82	9,597	622,86	849,95	-2,562	
88,84	9,602	619,34	850,86	-2,562	
88,86	9,606	618,94	851,35	-2,563	
88,88	9,610	619,99	850,88	-2,563	
88,90	9,614	621,12	850,03	-2,564	
88,92	9,618	620,46	850,09	-2,564	
88,94	9,622	618,60	851,15	-2,565	
88,96	9,626	619,11	851,50	-2,566	
88,98	9,630	620,14	850,91	-2,567	
89,00	9,634	621,07	850,05	-2,567	
89,02	9,638	620,49	850,11	-2,568	
89,04	9,642	619,42	850,98	-2,568	
89,06	9,646	619,79	851,14	-2,569	
89,08	9,650	620,47	850,49	-2,569	
89,10	9,653	621,56	849,85	-2,570	
89,12	9,657	619,24	850,55	-2,571	
89,14	9,661	617,85	851,42	-2,571	
89,16	9,665	619,18	851,28	-2,572	
89,18	9,669	619,74	850,47	-2,572	
89,20	9,673	619,34	849,88	-2,573	
89,22	9,677	617,55	850,68	-2,574	
89,24	9,682	616,71	851,53	-2,574	
89,26	9,686	616,92	851,32	-2,575	
89,28	9,690	617,20	850,49	-2,576	
89,30	9,693	618,00	849,85	-2,576	
89,32	9,698	617,23	850,50	-2,577	
89,34	9,702	616,76	851,24	-2,577	
89,36	9,706	616,99	851,01	-2,578	
89,38	9,710	617,52	850,21	-2,578	
89,40	9,714	617,43	849,95	-2,579	
89,42	9,718	614,65	850,86	-2,580	
89,44	9,722	614,89	851,31	-2,580	
89,46	9,726	616,42	850,83	-2,581	
89,48	9,730	617,80	850,00	-2,581	
89,50	9,734	616,63	850,15	-2,582	
89,52	9,738	613,91	851,20	-2,582	
89,54	9,742	613,28	851,47	-2,583	
89,56	9,746	613,68	850,83	-2,584	
89,58	9,749	614,55	849,98	-2,584	
89,60	9,753	614,34	850,16	-2,585	
89,62	9,757	613,44	851,09	-2,585	
89,64	9,761	613,42	851,23	-2,586	
89,66	9,765	613,72	850,56	-2,587	
89,68	9,769	614,65	849,86	-2,587	
89,70	9,773	612,97	850,48	-2,588	
89,72	9,778	611,78	851,39	-2,588	
89,74	9,782	612,76	851,30	-2,589	
89,76	9,786	613,72	850,52	-2,589	
89,78	9,789	614,55	849,86	-2,590	
89,80	9,794	613,07	850,51	-2,590	
89,82	9,798	612,62	851,31	-2,591	
89,84	9,802	613,25	851,13	-2,592	
89,86	9,806	613,92	850,32	-2,592	
89,88	9,810	614,07	849,92	-2,593	
89,90	9,814	610,90	850,77	-2,593	
89,92	9,818	610,86	851,34	-2,594	
89,94	9,822	612,73	850,94	-2,594	
89,96	9,826	614,04	850,09	-2,595	
89,98	9,830	612,91	850,02	-2,596	
90,00	9,834	609,97	851,06	-2,596	
90,02	9,838	609,40	851,47	-2,597	
90,04	9,842	609,99	850,93	-2,597	
90,06	9,845	610,86	850,05	-2,598	
90,08	9,849	610,96	850,02	-2,598	
90,10	9,853	610,05	851,00	-2,599	
90,12	9,857	609,96	851,35	-2,600	
90,14	9,861	610,22	850,77	-2,600	
90,16	9,865	611,09	849,97	-2,600	
90,18	9,869	609,77	850,26	-2,601	
90,20	9,874	608,44	851,18	-2,602	
90,22	9,878	609,23	851,26	-2,602	
90,24	9,882	610,13	850,54	-2,603	
90,26	9,885	611,10	849,87	-2,603	
90,28	9,890	608,67	850,57	-2,604	
90,30	9,894	606,42	851,51	-2,605	
90,32	9,898	606,39	851,41	-2,605	
90,34	9,902	606,90	850,61	-2,605	
90,36	9,906	607,89	849,88	-2,606	
90,38	9,910	607,26	850,42	-2,606	
90,40	9,914	606,58	851,24	-2,607	
90,42	9,918	606,69	851,12	-2,608	
90,44	9,922	607,06	850,34	-2,608	
90,46	9,926	607,71	849,85	-2,609	
90,48	9,930	606,23	850,74	-2,609	
90,50	9,934	605,94	851,52	-2,610	
90,52	9,938	606,58	851,25	-2,610	
90,54	9,942	607,19	850,40	-2,611	
90,56	9,945	607,75	849,90	-2,611	
90,58	9,949	606,23	850,67	-2,612	
90,60	9,953	606,02	851,30	-2,613	
90,62	9,957	606,68	850,95	-2,613	
90,64	9,961	607,49	850,12	-2,613	
90,66	9,965	607,47	849,98	-2,614	
90,68	9,970	605,32	850,97	-2,615	
90,70	9,974	605,47	851,40	-2,615	
90,72	9,978	606,39	850,87	-2,615	
90,74	9,981	606,07	850,02	-2,615	
90,76	9,985	602,14	850,10	-2,615	
90,78	9,989	594,78	851,08	-2,615	
90,80	9,990	586,28	851,33	-2,615	
90,82	9,991	575,76	850,71	-2,615	
90,84	9,991	565,06	849,91	-2,614	
90,86	9,991	552,37	850,27	-2,614	
90,88	9,991	541,00	851,23	-2,614	
90,90	9,991	532,67	851,30	-2,614	
90,92	9,991	524,53	850,58	-2,614	
90,94	9,991	517,34	849,86	-2,613	
90,96	9,991	509,04	850,42	-2,613	
90,98	9,991	501,36	851,28	-2,613	
91,00	9,991	495,20	851,18	-2,613	
91,02	9,991	489,75	850,40	-2,613	
91,04	9,991	485,19	849,85	-2,613	
91,06	9,991	477,91	850,63	-2,613	
91,08	9,991	471,79	851,35	-2,613	
91,10	9,991	467,44	851,08	-2,613	
91,12	9,991	463,71	850,24	-2,613	
91,14	9,991	459,44	849,96	-2,612	
91,16	9,991	452,76	850,86	-2,612	
91,18	9,991	448,51	851,35	-2,612	
91,20	9,991	445,83	850,88	-2,612	
91,22	9,991	443,47	850,03	-2,612	
91,24	9,991	439,57	850,10	-2,612	
91,26	9,991	434,40	851,22	-2,612	
91,28	9,991	432,20	851,62	-2,612	
91,30	9,991	432,07	851,05	-2,612	
91,32	9,991	432,73	850,14	-2,612	
91,34	9,991	433,05	850,02	-2,612	
91,36	9,991	431,97	851,07	-2,612	
91,38	9,991	431,71	851,55	-2,612	
91,40	9,991	432,00	851,05	-2,612	
91,42	9,991	432,54	850,16	-2,612	
91,44	9,991	432,96	849,94	-2,611	
91,46	9,991	431,99	850,95	-2,612	
91,48	9,992	431,72	851,47	-2,612	
91,50	9,991	432,01	851,01	-2,611	
91,52	9,991	432,67	850,14	-2,611	
91,54	9,991	432,88	850,00	-2,611	
91,56	9,991	431,92	850,91	-2,611	
91,58	9,991	431,76	851,26	-2,611	
91,60	9,991	432,08	850,71	-2,611	
91,62	9,991	432,99	849,92	-2,611	
91,64	9,991	432,59	850,31	-2,611	
91,66	9,991	431,69	851,35	-2,611	
91,68	9,991	431,77	851,48	-2,611	
91,70	9,991	432,14	850,77	-2,611	
91,72	9,991	432,97	849,94	-2,611	
91,74	9,991	418,95	850,30	-2,611	
91,76	9,991	386,15	851,26	-2,611	
91,78	9,991	364,64	851,32	-2,611	
91,80	9,991	357,87	850,59	-2,610	
91,82	9,991	356,73	849,86	-2,610	
91,84	9,991	353,64	850,46	-2,610	
91,86	9,991	350,36	851,38	-2,610	
91,88	9,991	348,65	851,32	-2,610	
91,90	9,991	347,04	850,54	-2,610	
91,92	9,991	346,34	849,86	-2,610	
91,94	9,991	343,90	850,51	-2,610	
91,96	9,992	341,23	851,37	-2,610	
91,98	9,991	339,29	851,23	-2,610	
92,00	9,991	337,90	850,43	-2,610	
92,02	9,991	336,82	849,85	-2,610	
92,04	9,991	333,74	850,63	-2,610	
92,06	9,991	331,47	851,43	-2,610	
92,08	9,991	329,90	851,20	-2,610	
92,10	9,991	328,76	850,37	-2,610	
92,12	9,991	327,56	849,87	-2,610	
92,14	9,991	324,44	850,68	-2,610	
92,16	9,992	322,39	851,36	-2,610	
92,18	9,991	321,62	851,04	-2,610	
92,20	9,991	321,19	850,20	-2,609	
92,22	9,991	319,84	849,96	-2,609	
92,24	9,991	316,01	850,98	-2,610	
92,26	9,991	314,08	851,56	-2,609	
92,28	9,991	312,95	851,11	-2,609	
92,30	9,991	312,03	850,22	-2,609	
92,32	9,991	310,90	849,90	-2,609	
92,34	9,991	308,32	850,92	-2,609	
92,36	9,991	306,20	851,58	-2,609	
92,38	9,991	305,05	851,19	-2,609	
92,40	9,991	304,19	850,32	-2,609	
92,42	9,991	303,20	849,88	-2,609	
92,44	9,991	301,38	850,69	-2,609	
92,46	9,991	300,86	851,27	-2,609	
92,48	9,991	300,50	850,88	-2,609	
92,50	9,991	299,73	850,05	-2,609	
92,52	9,991	297,97	850,06	-2,609	
92,54	9,991	294,64	851,07	-2,609	
92,56	9,991	293,71	851,40	-2,609	
92,58	9,991	294,05	850,81	-2,609	
92,60	9,991	293,15	849,89	-2,609	
92,62	9,991	292,91	848,93	-2,609	
92,64	9,991	298,30	848,00	-2,609	
92,66	9,991	306,24	847,08	-2,609	
92,68	9,991	312,62	846,16	-2,608	
92,70	9,991	318,65	845,23	-2,608	
92,72	9,991	325,20	844,32	-2,608	
92,74	9,991	331,94	843,42	-2,608	
92,76	9,991	338,60	842,52	-2,608	
92,78	9,991	345,26	841,62	-2,608	
92,80	9,991	351,95	840,72	-2,607	
92,82	9,991	358,63	839,82	-2,605	
92,84	9,991	364,71	838,90	-2,604	
92,86	9,991	369,90	837,98	-2,603	
92,88	9,991	375,61	837,09	-2,603	
92,90	9,991	382,09	836,20	-2,603	
92,92	9,991	388,64	835,31	-2,603	
92,94	9,991	394,06	834,43	-2,602	
92,96	9,991	399,41	833,55	-2,602	
92,98	9,991	404,96	832,68	-2,602	
93,00	9,991	410,09	831,81	-2,602	
93,02	9,991	415,25	830,94	-2,602	
93,04	9,991	420,21	830,07	-2,603	
93,06	9,991	425,34	829,20	-2,605	
93,08	9,991	430,20	828,32	-2,606	
93,10	9,991	434,73	827,45	-2,606	
93,12	9,991	439,16	826,59	-2,606	
93,14	9,991	443,63	825,75	-2,606	
93,16	9,991	447,93	824,90	-2,606	
93,18	9,991	451,83	824,03	-2,605	
93,20	9,991	455,99	823,18	-2,605	
93,22	9,991	460,46	822,33	-2,605	
93,24	9,991	464,79	821,49	-2,605	
93,26	9,991	468,53	820,65	-2,605	
93,28	9,991	472,06	819,80	-2,605	
93,30	9,991	476,17	818,94	-2,605	
93,32	9,991	480,13	818,09	-2,604	
93,34	9,991	483,71	817,24	-2,604	
93,36	9,991	487,13	816,40	-2,604	
93,38	9,991	490,51	815,57	-2,604	
93,40	9,991	493,82	814,75	-2,604	
93,42	9,991	497,09	813,94	-2,604	
93,44	9,991	500,48	813,12	-2,604	
93,46	9,991	503,91	812,31	-2,603	
93,48	9,991	507,26	811,50	-2,603	
93,50	9,991	510,65	810,69	-2,603	
93,52	9,991	514,06	809,88	-2,603	
93,54	9,991	517,23	809,08	-2,603	
93,56	9,991	519,77	808,26	-2,603	
93,58	9,991	522,50	807,45	-2,602	
93,60	9,991	525,19	806,64	-2,602	
93,62	9,991	527,66	805,83	-2,602	
93,64	9,991	529,95	805,03	-2,602	
93,66	9,991	532,20	804,22	-2,602	
93,68	9,991	534,49	803,41	-2,602	
93,70	9,991	536,68	802,60	-2,602	
93,72	9,991	538,86	801,78	-2,601	
93,74	9,991	541,10	800,98	-2,601	
93,76	9,991	543,28	800,19	-2,601	
93,78	9,991	545,50	799,39	-2,601	
93,80	9,991	547,78	798,59	-2,601	
93,82	9,991	549,55	797,80	-2,601	
93,84	9,991	551,38	797,02	-2,601	
93,86	9,991	553,02	796,23	-2,600	
93,88	9,991	554,77	795,45	-2,600	
93,90	9,991	556,32	794,67	-2,600	
93,92	9,991	558,12	793,90	-2,600	
93,94	9,991	559,55	793,14	-2,600	
93,96	9,991	560,73	792,37	-2,600	
93,98	9,991	562,35	791,60	-2,599	
94,00	9,991	563,41	790,83	-2,599	
94,02	9,991	564,85	790,07	-2,599	
94,04	9,991	566,26	789,30	-2,599	
94,06	9,991	566,99	788,55	-2,599	
94,08	9,991	568,34	787,81	-2,599	
94,10	9,991	569,74	787,07	-2,599	
94,12	9,991	570,24	786,33	-2,599	
94,14	9,991	570,34	785,58	-2,598	
94,16	9,991	571,49	784,82	-2,598	
94,18	9,991	572,89	784,07	-2,598	
94,20	9,991	573,47	783,33	-2,598	
94,22	9,991	573,49	782,60	-2,598	
94,24	9,991	573,65	781,87	-2,598	
94,26	9,991	574,88	781,15	-2,598	
94,28	9,991	576,21	780,43	-2,598	
94,30	9,991	576,78	779,70	-2,598	
94,32	9,991	576,87	778,97	-2,597	
94,34	9,991	576,89	778,24	-2,597	
94,36	9,991	576,89	777,51	-2,597	
94,38	9,991	576,85	776,80	-2,597	
94,40	9,991	576,80	776,08	-2,597	
94,42	9,991	576,76	775,37	-2,597	
94,44	9,991	576,78	774,67	-2,597	
94,46	9,991	576,85	773,96	-2,597	
94,48	9,991	576,87	773,24	-2,597	
94,50	9,991	576,85	772,53	-2,597	
94,52	9,991	576,81	771,84	-2,597	
94,54	9,991	576,67	771,15	-2,597	
94,56	9,991	575,49	770,44	-2,597	
94,58	9,991	574,16	769,74	-2,597	
94,60	9,991	573,60	769,05	-2,597	
94,62	9,991	573,52	768,37	-2,596	
94,64	9,991	573,49	767,69	-2,596	
94,66	9,991	573,32	767,01	-2,596	
94,68	9,991	572,11	766,32	-2,596	
94,70	9,991	570,80	765,62	-2,596	
94,72	9,991	570,22	764,94	-2,596	
94,74	9,991	569,45	764,26	-2,596	
94,76	9,991	567,95	763,58	-2,596	
94,78	9,991	567,00	762,89	-2,596	
94,80	9,991	566,67	762,21	-2,596	
94,82	9,991	565,49	761,55	-2,596	
94,84	9,991	564,08	760,89	-2,596	
94,86	9,991	563,35	760,24	-2,596	
94,88	9,991	562,06	759,57	-2,596	
94,90	9,991	560,69	758,91	-2,596	
94,92	9,991	559,56	758,24	-2,596	
94,94	9,991	557,96	757,58	-2,596	
94,96	9,991	556,78	756,93	-2,596	
94,98	9,991	555,27	756,29	-2,596	
95,00	9,991	553,90	755,67	-2,596	
95,02	9,991	552,77	755,05	-2,596	
95,04	9,991	551,22	754,43	-2,596	
95,06	9,991	550,15	753,81	-2,596	
95,08	9,991	548,71	753,20	-2,596	
95,10	9,991	547,14	752,58	-2,596	
95,12	9,991	545,31	751,95	-2,596	
95,14	9,991	543,68	751,33	-2,596	
95,16	9,991	541,93	750,71	-2,596	
95,18	9,991	540,55	750,09	-2,596	
95,20	9,991	539,39	749,50	-2,596	
95,22	9,991	537,82	748,90	-2,596	
95,24	9,991	536,27	748,31	-2,596	
95,26	9,991	534,47	747,73	-2,596	
95,28	9,991	532,88	747,16	-2,597	
95,30	9,991	531,17	746,59	-2,597	
95,32	9,991	529,54	746,01	-2,597	
95,34	9,991	527,63	745,44	-2,597	
95,36	9,991	525,41	744,90	-2,597	
95,38	9,991	523,61	744,35	-2,597	
95,40	9,991	521,80	743,80	-2,597	
95,42	9,991	520,17	743,24	-2,597	
95,44	9,991	518,32	742,70	-2,597	
95,46	9,991	516,25	742,16	-2,597	
95,48	9,991	514,17	741,63	-2,597	
95,50	9,991	512,04	741,11	-2,597	
95,52	9,991	510,33	740,60	-2,597	
95,54	9,991	508,46	740,09	-2,597	
95,56	9,991	505,81	739,60	-2,598	
95,58	9,991	503,62	739,12	-2,598	
95,60	9,991	501,52	738,63	-2,598	
95,62	9,991	498,85	738,15	-2,598	
95,64	9,991	496,31	737,67	-2,598	
95,66	9,991	494,00	737,18	-2,598	
95,68	9,991	491,76	736,69	-2,598	
95,70	9,991	489,54	736,20	-2,598	
95,72	9,991	486,86	735,73	-2,599	
95,74	9,991	484,12	735,27	-2,599	
95,76	9,991	481,52	734,82	-2,599	
95,78	9,991	478,68	734,38	-2,599	
95,80	9,991	476,07	733,95	-2,599	
95,82	9,991	473,28	733,53	-2,599	
95,84	9,991	470,15	733,11	-2,600	
95,86	9,991	466,84	732,70	-2,600	
95,88	9,991	463,96	732,31	-2,600	
95,90	9,991	461,34	731,92	-2,600	
95,92	9,991	458,32	731,53	-2,601	
95,94	9,991	454,98	731,16	-2,601	
95,96	9,991	451,67	730,79	-2,601	
95,98	9,991	448,41	730,45	-2,601	
96,00	9,991	445,03	730,11	-2,601	
96,02	9,991	441,61	729,78	-2,602	
96,04	9,991	438,25	729,45	-2,602	
96,06	9,991	434,47	729,14	-2,602	
96,08	9,991	430,31	728,85	-2,603	
96,10	9,991	426,37	728,57	-2,603	
96,12	9,991	422,24	728,30	-2,603	
96,14	9,991	418,30	728,04	-2,604	
96,16	9,991	414,34	727,78	-2,604	
96,18	9,991	410,09	727,53	-2,604	
96,20	9,991	405,63	727,29	-2,605	
96,22	9,991	401,15	727,07	-2,605	
96,24	9,991	396,67	726,85	-2,605	
96,26	9,991	391,74	726,65	-2,606	
96,28	9,991	386,85	726,45	-2,606	
96,30	9,991	382,18	726,27	-2,607	
96,32	9,991	377,44	726,09	-2,607	
96,34	9,991	371,86	725,91	-2,608	
96,36	9,991	366,59	725,75	-2,608	
96,38	9,991	361,32	725,60	-2,608	
96,40	9,991	355,77	725,46	-2,609	
96,42	9,991	350,63	725,31	-2,609	
96,44	9,991	344,91	725,18	-2,609	
96,46	9,991	338,45	725,07	-2,610	
96,48	9,991	331,87	724,95	-2,610	
96,50	9,991	326,33	724,82	-2,611	
96,52	9,991	321,00	724,71	-2,611	
96,54	9,991	314,83	724,61	-2,612	
96,56	9,991	308,74	724,52	-2,612	
96,58	9,991	303,54	724,43	-2,612	
96,60	9,991	297,87	724,34	-2,613	
96,62	9,991	291,50	724,26	-2,613	
96,64	9,991	284,72	724,18	-2,614	
96,66	9,991	277,39	724,09	-2,614	
96,68	9,991	270,19	724,01	-2,615	
96,70	9,991	262,36	723,93	-2,615	
96,72	9,991	254,77	723,88	-2,615	
96,74	9,991	247,76	723,82	-2,616	
96,76	9,991	240,96	723,74	-2,616	
96,78	9,991	234,20	723,65	-2,617	
96,80	9,991	227,52	723,58	-2,617	
96,82	9,991	220,82	723,51	-2,617	
96,84	9,991	214,10	723,45	-2,618	
96,86	9,991	207,42	723,38	-2,618	
96,88	9,991	200,82	723,30	-2,618	
96,90	9,991	194,14	723,22	-2,619	
96,92	9,991	187,41	723,15	-2,619	
96,94	9,991	180,67	723,08	-2,619	
96,96	9,991	173,94	723,00	-2,620	
96,98	9,991	167,24	722,92	-2,620	
97,00	9,991	160,53	722,85	-2,620	
97,02	9,991	153,90	722,76	-2,620	
97,04	9,991	147,77	722,66	-2,621	
97,06	9,991	142,54	722,56	-2,621	
97,08	9,991	136,87	722,48	-2,621	
97,10	9,991	130,45	722,39	-2,621	
97,12	9,991	123,70	722,30	-2,621	
97,14	9,991	117,07	722,20	-2,622	
97,16	9,991	111,57	722,08	-2,622	
97,18	9,991	106,26	721,96	-2,622	
97,20	9,991	100,06	721,84	-2,622	
97,22	9,991	93,96	721,72	-2,622	
97,24	9,991	88,69	721,58	-2,622	
97,26	9,991	83,54	721,43	-2,622	
97,28	9,991	78,62	721,30	-2,622	
97,30	9,991	73,48	721,18	-2,622	
97,32	9,991	68,68	721,03	-2,622	
97,34	9,991	64,18	720,88	-2,623	
97,36	9,991	59,26	720,73	-2,623	
97,38	9,991	54,45	720,58	-2,623	
97,40	9,991	50,37	720,43	-2,623	
97,42	9,991	46,15	720,26	-2,623	
97,44	9,991	42,15	720,10	-2,623	
97,46	9,991	38,22	719,92	-2,623	
97,48	9,991	34,12	719,73	-2,623	
97,50	9,991	30,36	719,55	-2,623	
97,52	9,991	26,94	719,37	-2,623	
97,54	9,991	23,64	719,19	-2,623	
97,56	9,991	20,78	719,00	-2,623	
97,58	9,991	18,23	718,80	-2,623	
97,60	9,991	15,19	718,59	-2,623	
97,62	9,991	11,97	718,39	-2,623	
97,64	9,991	9,444	718,19	-2,623	
97,66	9,991	6,802	717,99	-2,623	
97,68	9,991	4,059	717,78	-2,623	
97,70	9,991	1,446	717,59	-2,623	
97,72	9,991	-0,8182	717,37	-2,623	
97,74	9,991	-2,994	717,14	-2,623	
97,76	9,991	-5,238	716,91	-2,623	
97,78	9,991	-6,994	716,70	-2,623	
97,80	9,991	-8,768	716,49	-2,623	
97,82	9,991	-10,24	716,27	-2,623	
97,84	9,991	-11,44	716,04	-2,623	
97,86	9,991	-13,09	715,79	-2,623	
97,88	9,991	-14,66	715,55	-2,623	
97,90	9,991	-16,42	715,31	-2,623	
97,92	9,991	-17,46	715,07	-2,623	
97,94	9,991	-18,28	714,83	-2,623	
97,96	9,991	-19,79	714,58	-2,623	
97,98	9,991	-20,85	714,33	-2,623	
98,00	9,991	-21,27	714,09	-2,623	
98,02	9,991	-22,41	713,84	-2,623	
98,04	9,991	-23,78	713,59	-2,623	
98,06	9,991	-24,39	713,35	-2,623	
98,08	9,991	-24,46	713,11	-2,623	
98,10	9,991	-24,50	712,86	-2,623	
98,12	9,991	-25,06	712,60	-2,623	
98,14	9,991	-26,57	712,34	-2,623	
98,16	9,991	-27,64	712,06	-2,623	
98,18	9,991	-27,89	711,77	-2,623	
98,20	9,991	-27,86	711,50	-2,623	
98,22	9,991	-27,89	711,23	-2,623	
98,24	9,991	-27,92	710,96	-2,623	
98,26	9,991	-27,86	710,68	-2,623	
98,28	9,991	-27,82	710,40	-2,623	
98,30	9,991	-27,82	710,11	-2,623	
98,32	9,991	-27,82	709,83	-2,623	
98,34	9,991	-27,81	709,56	-2,623	
98,36	9,991	-27,80	709,28	-2,624	
98,38	9,991	-27,75	708,98	-2,624	
98,40	9,991	-27,77	708,69	-2,624	
98,42	9,991	-27,27	708,42	-2,624	
98,44	9,991	-25,79	708,14	-2,624	
98,46	9,991	-24,77	707,83	-2,624	
98,48	9,991	-24,49	707,54	-2,624	
98,50	9,991	-24,49	707,24	-2,624	
98,52	9,991	-24,51	706,96	-2,625	
98,54	9,991	-24,51	706,68	-2,625	
98,56	9,991	-24,37	706,38	-2,625	
98,58	9,991	-23,18	706,08	-2,625	
98,60	9,991	-21,77	705,78	-2,625	
98,62	9,991	-21,21	705,48	-2,625	
98,64	9,991	-21,19	705,19	-2,625	
98,66	9,991	-20,75	704,88	-2,625	
98,68	9,991	-19,21	704,57	-2,626	
98,70	9,991	-18,08	704,25	-2,626	
98,72	9,991	-17,76	703,94	-2,626	
98,74	9,991	-17,68	703,64	-2,626	
98,76	9,991	-16,51	703,34	-2,626	
98,78	9,991	-15,10	703,02	-2,626	
98,80	9,991	-14,44	702,70	-2,626	
98,82	9,991	-14,34	702,39	-2,626	
98,84	9,991	-13,83	702,08	-2,627	
98,86	9,991	-12,31	701,77	-2,627	
98,88	9,991	-11,29	701,46	-2,627	
98,90	9,991	-10,98	701,14	-2,627	
98,92	9,991	-9,848	700,82	-2,627	
98,94	9,991	-8,488	700,51	-2,627	
98,96	9,991	-7,804	700,19	-2,627	
98,98	9,991	-6,479	699,88	-2,628	
99,00	9,991	-5,032	699,57	-2,628	
99,02	9,991	-4,400	699,26	-2,628	
99,04	9,991	-3,861	698,96	-2,628	
99,06	9,991	-2,351	698,65	-2,628	
99,08	9,991	-1,165	698,32	-2,628	
99,10	9,991	0,2944	698,00	-2,628	
99,12	9,991	1,515	697,68	-2,629	
99,14	9,991	2,690	697,37	-2,629	
99,16	9,991	4,546	697,06	-2,629	
99,18	9,991	5,758	696,74	-2,629	
99,20	9,991	6,208	696,41	-2,629	
99,22	9,991	7,362	696,10	-2,629	
99,24	9,991	8,746	695,79	-2,629	
99,26	9,991	10,20	695,48	-2,630	
99,28	9,991	11,65	695,16	-2,630	
99,30	9,991	12,39	694,83	-2,630	
99,32	9,991	13,65	694,52	-2,630	
99,34	9,991	15,02	694,20	-2,630	
99,36	9,991	16,13	693,89	-2,631	
99,38	9,991	17,67	693,58	-2,631	
99,40	9,991	18,89	693,26	-2,631	
99,42	9,991	20,40	692,93	-2,631	
99,44	9,991	21,79	692,60	-2,631	
99,46	9,991	22,91	692,27	-2,631	
99,48	9,991	24,50	691,95	-2,631	
99,50	9,991	25,66	691,64	-2,632	
99,52	9,991	27,15	691,31	-2,632	
99,54	9,991	28,60	690,99	-2,632	
99,56	9,991	29,70	690,68	-2,632	
99,58	9,991	31,30	690,35	-2,632	
99,60	9,991	32,89	690,02	-2,632	
99,62	9,991	34,67	689,70	-2,633	
99,64	9,991	35,82	689,38	-2,633	
99,66	9,991	37,23	689,07	-2,633	
99,68	9,991	38,63	688,75	-2,633	
99,70	9,991	39,73	688,42	-2,633	
99,72	9,991	41,31	688,09	-2,633	
99,74	9,991	42,84	687,77	-2,634	
99,76	9,991	44,59	687,44	-2,634	
99,78	9,991	45,82	687,11	-2,634	
99,80	9,991	47,32	686,77	-2,634	
99,82	9,991	49,31	686,43	-2,634	
99,84	9,991	51,41	686,11	-2,635	
99,86	9,991	52,60	685,79	-2,635	
99,88	9,991	53,99	685,47	-2,635	
99,90	9,991	55,52	685,15	-2,635	