Zeit  1 - Standardmessrate [s]	ZwickWeg [mm]	ZwickKraft [N]	Pyrometer [°C]	Maytec [mm]
0	-0,1047	159,98	150,03	-0,03169	
0,02000	-0,1047	160,03	150,03	-0,03177	
0,04000	-0,1046	160,09	150,02	-0,03171	
0,06000	-0,1046	160,10	150,02	-0,03160	
0,08000	-0,1046	160,08	150,02	-0,03147	
0,1000	-0,1046	160,09	150,02	-0,03144	
0,1200	-0,1046	160,12	150,03	-0,03152	
0,1400	-0,1046	160,08	150,03	-0,03169	
0,1600	-0,1046	160,04	150,03	-0,03176	
0,1800	-0,1046	160,01	150,03	-0,03170	
0,2000	-0,1046	160,00	150,03	-0,03160	
0,2200	-0,1047	160,04	150,03	-0,03147	
0,2400	-0,1047	160,10	150,03	-0,03141	
0,2600	-0,1046	160,16	150,03	-0,03141	
0,2800	-0,1046	160,19	150,02	-0,03148	
0,3000	-0,1046	160,15	150,02	-0,03164	
0,3200	-0,1046	160,13	150,02	-0,03175	
0,3400	-0,1046	160,16	150,02	-0,03170	
0,3600	-0,1046	160,19	150,03	-0,03164	
0,3800	-0,1046	160,16	150,03	-0,03155	
0,4000	-0,1046	160,11	150,03	-0,03148	
0,4200	-0,1046	160,09	150,03	-0,03149	
0,4400	-0,1047	160,13	150,03	-0,03153	
0,4600	-0,1047	160,18	150,04	-0,03160	
0,4800	-0,1046	160,12	150,03	-0,03160	
0,5000	-0,1046	160,05	150,03	-0,03161	
0,5200	-0,1046	160,02	150,03	-0,03154	
0,5400	-0,1046	160,05	150,02	-0,03147	
0,5600	-0,1046	160,08	150,02	-0,03146	
0,5800	-0,1046	160,08	150,02	-0,03148	
0,6000	-0,1046	160,09	150,02	-0,03156	
0,6200	-0,1046	160,09	150,03	-0,03167	
0,6400	-0,1046	160,05	150,03	-0,03173	
0,6600	-0,1046	160,08	150,03	-0,03170	
0,6800	-0,1046	160,16	150,03	-0,03161	
0,7000	-0,1046	160,17	150,03	-0,03150	
0,7200	-0,1046	160,12	150,03	-0,03149	
0,7400	-0,1046	160,06	150,03	-0,03152	
0,7600	-0,1046	160,01	150,02	-0,03160	
0,7800	-0,1046	160,02	150,02	-0,03172	
0,8000	-0,1046	159,99	150,02	-0,03174	
0,8200	-0,1046	160,00	150,02	-0,03164	
0,8400	-0,1047	160,05	150,03	-0,03153	
0,8600	-0,1047	160,11	150,03	-0,03142	
0,8800	-0,1047	160,09	150,03	-0,03138	
0,9000	-0,1047	160,05	150,03	-0,03149	
0,9200	-0,1047	160,02	150,03	-0,03164	
0,9400	-0,1047	159,98	150,03	-0,03167	
0,9600	-0,1047	159,98	150,03	-0,03162	
0,9800	-0,1047	160,06	150,03	-0,03154	
1,000	-0,1046	160,16	150,02	-0,03150	
1,020	-0,1046	160,23	150,02	-0,03143	
1,040	-0,1046	160,19	150,02	-0,03144	
1,060	-0,1047	160,09	150,02	-0,03150	
1,080	-0,1047	160,07	150,02	-0,03162	
1,100	-0,1047	160,16	150,03	-0,03171	
1,120	-0,1047	160,19	150,03	-0,03166	
1,140	-0,1046	160,11	150,03	-0,03153	
1,160	-0,1046	160,04	150,03	-0,03147	
1,180	-0,1046	160,04	150,03	-0,03145	
1,200	-0,1046	160,12	150,02	-0,03144	
1,220	-0,1047	160,19	150,02	-0,03156	
1,240	-0,1047	160,19	150,02	-0,03170	
1,260	-0,1047	160,16	150,02	-0,03175	
1,280	-0,1047	160,13	150,03	-0,03168	
1,300	-0,1047	160,09	150,03	-0,03153	
1,320	-0,1047	160,12	150,03	-0,03147	
1,340	-0,1047	160,16	150,03	-0,03147	
1,360	-0,1047	160,12	150,03	-0,03153	
1,380	-0,1046	160,07	150,03	-0,03157	
1,400	-0,1046	160,06	150,03	-0,03163	
1,420	-0,1046	160,04	150,04	-0,03168	
1,440	-0,1046	160,04	150,03	-0,03163	
1,460	-0,1046	160,08	150,03	-0,03155	
1,480	-0,1046	160,15	150,03	-0,03152	
1,500	-0,1046	160,19	150,02	-0,03148	
1,520	-0,1047	160,21	150,02	-0,03155	
1,540	-0,1046	160,18	150,02	-0,03167	
1,560	-0,1046	160,13	150,03	-0,03177	
1,580	-0,1046	160,13	150,03	-0,03176	
1,600	-0,1046	160,14	150,03	-0,03164	
1,620	-0,1046	160,11	150,04	-0,03149	
1,640	-0,1046	160,06	150,03	-0,03143	
1,660	-0,1046	160,05	150,03	-0,03152	
1,680	-0,1046	160,10	150,04	-0,03164	
1,700	-0,1046	160,09	150,04	-0,03167	
1,720	-0,1046	160,09	150,04	-0,03162	
1,740	-0,1046	160,06	150,03	-0,03155	
1,760	-0,1046	160,08	150,03	-0,03146	
1,780	-0,1046	160,09	150,03	-0,03146	
1,800	-0,1046	160,09	150,02	-0,03152	
1,820	-0,1046	160,10	150,02	-0,03162	
1,840	-0,1046	160,13	150,02	-0,03169	
1,860	-0,1047	160,15	150,02	-0,03175	
1,880	-0,1046	160,11	150,03	-0,03169	
1,900	-0,1046	160,09	150,03	-0,03158	
1,920	-0,1046	160,06	150,03	-0,03153	
1,940	-0,1047	160,08	150,03	-0,03145	
1,960	-0,1047	160,08	150,03	-0,03148	
1,980	-0,1046	160,04	150,03	-0,03160	
2,000	-0,1046	159,95	150,03	-0,03173	
2,020	-0,1046	159,94	150,02	-0,03175	
2,040	-0,1046	159,93	150,02	-0,03169	
2,060	-0,1046	159,97	150,02	-0,03160	
2,080	-0,1046	160,02	150,02	-0,03152	
2,100	-0,1046	160,09	150,03	-0,03153	
2,120	-0,1046	160,09	150,03	-0,03162	
2,140	-0,1046	160,05	150,03	-0,03168	
2,160	-0,1046	160,00	150,03	-0,03173	
2,180	-0,1046	160,07	150,03	-0,03170	
2,200	-0,1047	160,14	150,03	-0,03162	
2,220	-0,1047	160,08	150,03	-0,03157	
2,240	-0,1047	160,03	150,03	-0,03156	
2,260	-0,1047	160,04	150,03	-0,03161	
2,280	-0,1047	160,08	150,02	-0,03172	
2,300	-0,1047	160,10	150,02	-0,03177	
2,320	-0,1047	160,10	150,02	-0,03168	
2,340	-0,1047	160,07	150,03	-0,03162	
2,360	-0,1046	160,00	150,03	-0,03155	
2,380	-0,1047	159,99	150,03	-0,03142	
2,400	-0,1047	159,99	150,03	-0,03137	
2,420	-0,1046	159,96	150,03	-0,03151	
2,440	-0,1046	159,92	150,03	-0,03170	
2,460	-0,1052	162,76	150,20	-0,03209	
2,480	-0,1046	145,36	150,03	-0,03305	
2,500	-0,1043	101,01	149,92	-0,03314	
2,520	-0,1044	56,45	149,98	-0,03261	
2,540	-0,1043	22,44	150,02	-0,03230	
2,560	-0,1017	0,1001	150,02	-0,03223	
2,580	-0,09576	1,122	150,02	-0,03227	
2,600	-0,08919	38,42	150,03	-0,03233	
2,620	-0,08407	84,01	150,03	-0,03237	
2,640	-0,08074	121,41	150,03	-0,03226	
2,660	-0,07896	147,08	150,03	-0,03214	
2,680	-0,07819	162,27	150,03	-0,03209	
2,700	-0,07818	169,76	150,03	-0,03204	
2,720	-0,07843	172,37	150,03	-0,03217	
2,740	-0,07881	171,72	150,03	-0,03231	
2,760	-0,07913	170,63	150,03	-0,03232	
2,780	-0,07949	169,78	150,02	-0,03230	
2,800	-0,07972	168,27	150,02	-0,03216	
2,820	-0,07998	166,78	150,02	-0,03204	
2,840	-0,08027	165,10	150,03	-0,03205	
2,860	-0,08041	163,95	150,03	-0,03211	
2,880	-0,08045	163,44	150,03	-0,03218	
2,900	-0,08066	162,35	150,03	-0,03225	
2,920	-0,08095	160,94	150,03	-0,03225	
2,940	-0,08110	160,21	150,03	-0,03219	
2,960	-0,08113	160,07	150,03	-0,03207	
2,980	-0,08113	160,09	150,03	-0,03197	
3,000	-0,08112	160,06	150,03	-0,03196	
3,020	-0,08111	160,12	150,02	-0,03204	
3,040	-0,08110	160,22	150,02	-0,03214	
3,060	-0,08109	160,23	150,02	-0,03216	
3,080	-0,08109	160,15	150,02	-0,03215	
3,100	-0,08110	160,11	150,03	-0,03215	
3,120	-0,08109	160,12	150,03	-0,03206	
3,140	-0,08110	160,12	150,03	-0,03194	
3,160	-0,08112	160,11	150,03	-0,03199	
3,180	-0,08112	160,12	150,03	-0,03212	
3,200	-0,08112	160,17	150,03	-0,03219	
3,220	-0,08112	160,27	150,03	-0,03224	
3,240	-0,08111	160,28	150,02	-0,03220	
3,260	-0,08110	160,16	150,02	-0,03210	
3,280	-0,08111	160,10	150,02	-0,03196	
3,300	-0,08111	160,09	150,02	-0,03187	
3,320	-0,08110	160,11	150,02	-0,03193	
3,340	-0,08119	160,12	150,03	-0,03205	
3,360	-0,08150	160,10	150,03	-0,03202	
3,380	-0,08173	160,09	150,03	-0,03195	
3,400	-0,08180	160,14	150,03	-0,03194	
3,420	-0,08179	160,18	150,02	-0,03194	
3,440	-0,08179	160,08	150,02	-0,03195	
3,460	-0,08178	160,11	150,02	-0,03192	
3,480	-0,08180	160,18	150,02	-0,03201	
3,500	-0,08180	160,13	150,03	-0,03217	
3,520	-0,08180	160,09	150,03	-0,03218	
3,540	-0,08179	160,11	150,03	-0,03210	
3,560	-0,08178	160,13	150,03	-0,03199	
3,580	-0,08177	160,11	150,03	-0,03187	
3,600	-0,08178	160,15	150,03	-0,03191	
3,620	-0,08178	160,13	150,03	-0,03196	
3,640	-0,08177	160,09	150,03	-0,03207	
3,660	-0,08178	160,13	150,02	-0,03217	
3,680	-0,08178	160,18	150,02	-0,03216	
3,700	-0,08178	160,13	150,02	-0,03203	
3,720	-0,08181	160,07	150,02	-0,03187	
3,740	-0,08181	160,01	150,03	-0,03181	
3,760	-0,08179	159,97	150,03	-0,03184	
3,780	-0,08180	160,05	150,03	-0,03197	
3,800	-0,08180	160,14	150,03	-0,03208	
3,820	-0,08179	160,10	150,03	-0,03215	
3,840	-0,08179	160,08	150,03	-0,03215	
3,860	-0,08179	160,14	150,03	-0,03207	
3,880	-0,08180	160,16	150,03	-0,03204	
3,900	-0,08179	160,19	150,02	-0,03201	
3,920	-0,08179	160,20	150,02	-0,03198	
3,940	-0,08187	160,11	150,02	-0,03206	
3,960	-0,08216	160,07	150,03	-0,03221	
3,980	-0,08240	160,16	150,03	-0,03226	
4,000	-0,08247	160,18	150,03	-0,03216	
4,020	-0,08247	160,06	150,03	-0,03205	
4,040	-0,08247	160,06	150,03	-0,03197	
4,060	-0,08246	160,13	150,03	-0,03189	
4,080	-0,08246	160,15	150,03	-0,03192	
4,100	-0,08247	160,16	150,03	-0,03204	
4,120	-0,08247	160,10	150,02	-0,03212	
4,140	-0,08245	159,99	150,02	-0,03212	
4,160	-0,08246	159,99	150,02	-0,03203	
4,180	-0,08246	160,03	150,03	-0,03191	
4,200	-0,08245	160,01	150,03	-0,03180	
4,220	-0,08244	160,07	150,03	-0,03181	
4,240	-0,08245	160,13	150,03	-0,03197	
4,260	-0,08245	160,08	150,03	-0,03214	
4,280	-0,08245	160,03	150,03	-0,03220	
4,300	-0,08246	160,05	150,03	-0,03223	
4,320	-0,08246	160,06	150,02	-0,03214	
4,340	-0,08246	160,14	150,02	-0,03200	
4,360	-0,08254	160,67	150,05	-0,03190	
4,380	-0,08263	159,61	150,08	-0,03201	
4,400	-0,08257	151,46	150,05	-0,03224	
4,420	-0,08249	139,06	150,03	-0,03242	
4,440	-0,08247	126,66	150,03	-0,03256	
4,460	-0,08238	114,87	150,02	-0,03264	
4,480	-0,08161	103,80	150,02	-0,03264	
4,500	-0,08021	98,03	150,02	-0,03253	
4,520	-0,07873	96,73	150,02	-0,03243	
4,540	-0,07727	97,91	150,02	-0,03235	
4,560	-0,07565	99,49	150,03	-0,03230	
4,580	-0,07408	101,81	150,03	-0,03239	
4,600	-0,07266	104,57	150,03	-0,03252	
4,620	-0,07133	107,10	150,03	-0,03251	
4,640	-0,07001	108,89	150,03	-0,03249	
4,660	-0,06867	108,60	150,03	-0,03236	
4,680	-0,06733	107,16	150,03	-0,03225	
4,700	-0,06600	106,32	150,02	-0,03224	
4,720	-0,06486	105,21	150,02	-0,03231	
4,740	-0,06382	103,77	150,02	-0,03242	
4,760	-0,06263	103,05	150,02	-0,03250	
4,780	-0,06124	102,92	150,03	-0,03250	
4,800	-0,05959	102,96	150,03	-0,03240	
4,820	-0,05800	102,95	150,03	-0,03232	
4,840	-0,05658	102,91	150,03	-0,03226	
4,860	-0,05524	102,93	150,03	-0,03221	
4,880	-0,05391	102,99	150,03	-0,03234	
4,900	-0,05257	103,01	150,02	-0,03251	
4,920	-0,05122	102,99	150,02	-0,03257	
4,940	-0,04987	102,92	150,02	-0,03247	
4,960	-0,04852	102,90	150,02	-0,03231	
4,980	-0,04716	102,90	150,03	-0,03225	
5,000	-0,04583	102,93	150,03	-0,03221	
5,020	-0,04450	102,95	150,03	-0,03220	
5,040	-0,04309	102,88	150,03	-0,03232	
5,060	-0,04145	102,85	150,03	-0,03236	
5,080	-0,03987	102,88	150,03	-0,03237	
5,100	-0,03845	102,96	150,02	-0,03232	
5,120	-0,03710	103,04	150,02	-0,03223	
5,140	-0,03576	103,05	150,02	-0,03219	
5,160	-0,03441	103,05	150,02	-0,03222	
5,180	-0,03307	103,01	150,03	-0,03226	
5,200	-0,03174	102,95	150,03	-0,03236	
5,220	-0,03032	102,87	150,03	-0,03239	
5,240	-0,02867	101,92	150,03	-0,03238	
5,260	-0,02706	100,43	150,03	-0,03238	
5,280	-0,02564	99,67	150,03	-0,03234	
5,300	-0,02430	99,54	150,02	-0,03230	
5,320	-0,02296	99,56	150,02	-0,03236	
5,340	-0,02162	99,56	150,02	-0,03242	
5,360	-0,02020	99,50	150,02	-0,03244	
5,380	-0,01857	99,45	150,03	-0,03240	
5,400	-0,01698	99,48	150,03	-0,03232	
5,420	-0,01556	99,55	150,03	-0,03227	
5,440	-0,01422	99,58	150,03	-0,03224	
5,460	-0,01288	99,54	150,03	-0,03216	
5,480	-0,01135	99,57	150,03	-0,03218	
5,500	-0,00971	99,62	150,02	-0,03229	
5,520	-0,00822	99,61	150,02	-0,03239	
5,540	-0,00683	99,54	150,02	-0,03241	
5,560	-0,00528	99,46	150,02	-0,03239	
5,580	-0,00364	99,48	150,03	-0,03229	
5,600	-0,00215	99,46	150,03	-0,03218	
5,620	-0,00076	98,80	150,03	-0,03220	
5,640	0,00077	97,80	150,03	-0,03227	
5,660	0,00241	96,80	150,03	-0,03239	
5,680	0,00390	96,25	150,02	-0,03248	
5,700	0,00529	96,09	150,02	-0,03246	
5,720	0,00684	96,10	150,02	-0,03235	
5,740	0,00847	96,16	150,02	-0,03226	
5,760	0,00996	96,18	150,03	-0,03222	
5,780	0,01133	96,18	150,02	-0,03226	
5,800	0,01285	96,17	150,03	-0,03231	
5,820	0,01448	96,15	150,02	-0,03246	
5,840	0,01598	96,14	150,02	-0,03259	
5,860	0,01754	96,10	150,02	-0,03259	
5,880	0,01917	96,11	150,02	-0,03246	
5,900	0,02067	96,16	150,02	-0,03234	
5,920	0,02224	96,16	150,02	-0,03231	
5,940	0,02388	96,12	150,02	-0,03225	
5,960	0,02538	96,11	150,02	-0,03230	
5,980	0,02695	96,15	150,02	-0,03241	
6,000	0,02857	96,13	150,01	-0,03248	
6,020	0,03013	96,04	150,02	-0,03246	
6,040	0,03180	96,02	150,02	-0,03238	
6,060	0,03337	96,06	150,03	-0,03230	
6,080	0,03487	96,04	150,03	-0,03226	
6,100	0,03652	95,97	150,03	-0,03226	
6,120	0,03808	95,95	150,02	-0,03237	
6,140	0,03956	95,59	150,02	-0,03250	
6,160	0,04119	94,17	150,02	-0,03251	
6,180	0,04278	93,03	150,02	-0,03241	
6,200	0,04440	92,65	150,03	-0,03228	
6,220	0,04606	92,66	150,06	-0,03220	
6,240	0,04763	92,71	150,45	-0,03218	
6,260	0,04927	92,74	151,20	-0,03225	
6,280	0,05085	92,70	152,27	-0,03235	
6,300	0,05245	92,74	153,60	-0,03243	
6,320	0,05409	92,83	155,13	-0,03247	
6,340	0,05578	92,79	157,36	-0,03237	
6,360	0,05746	92,78	159,74	-0,03228	
6,380	0,05901	92,83	161,54	-0,03225	
6,400	0,06069	92,82	162,76	-0,03222	
6,420	0,06246	92,80	164,30	-0,03224	
6,440	0,06416	92,83	166,03	-0,03232	
6,460	0,06585	92,84	167,38	-0,03242	
6,480	0,06754	92,82	168,68	-0,03243	
6,500	0,06922	92,84	170,13	-0,03234	
6,520	0,07088	92,53	171,48	-0,03222	
6,540	0,07245	91,07	172,75	-0,03214	
6,560	0,07411	89,83	174,17	-0,03219	
6,580	0,07576	89,43	175,77	-0,03228	
6,600	0,07748	89,48	177,29	-0,03234	
6,620	0,07914	89,55	178,61	-0,03235	
6,640	0,08086	89,52	179,99	-0,03230	
6,660	0,08262	89,49	181,42	-0,03221	
6,680	0,08434	89,48	182,76	-0,03219	
6,700	0,08603	89,50	184,01	-0,03221	
6,720	0,08777	89,44	185,32	-0,03226	
6,740	0,08955	89,43	186,73	-0,03238	
6,760	0,09123	89,39	188,34	-0,03245	
6,780	0,09294	89,34	190,02	-0,03243	
6,800	0,09471	89,32	191,63	-0,03228	
6,820	0,09649	89,33	193,22	-0,03217	
6,840	0,09829	89,38	194,76	-0,03217	
6,860	0,1001	89,41	196,24	-0,03223	
6,880	0,1018	89,37	197,58	-0,03232	
6,900	0,1035	88,38	198,88	-0,03241	
6,920	0,1052	86,84	200,30	-0,03243	
6,940	0,1070	86,08	201,91	-0,03234	
6,960	0,1088	85,94	203,50	-0,03221	
6,980	0,1106	86,03	204,93	-0,03217	
7,000	0,1124	86,14	206,37	-0,03217	
7,020	0,1142	86,14	207,80	-0,03226	
7,040	0,1160	86,13	209,15	-0,03238	
7,060	0,1177	86,10	210,48	-0,03243	
7,080	0,1195	85,72	211,84	-0,03238	
7,100	0,1213	84,33	213,24	-0,03223	
7,120	0,1232	83,17	214,75	-0,03209	
7,140	0,1251	82,74	216,33	-0,03210	
7,160	0,1269	82,75	217,89	-0,03219	
7,180	0,1288	82,81	219,40	-0,03231	
7,200	0,1307	83,66	220,84	-0,03240	
7,220	0,1325	84,13	222,24	-0,03241	
7,240	0,1343	83,37	223,70	-0,03234	
7,260	0,1362	82,76	225,19	-0,03219	
7,280	0,1381	82,62	226,60	-0,03210	
7,300	0,1399	82,65	227,99	-0,03211	
7,320	0,1417	82,62	229,43	-0,03221	
7,340	0,1436	82,63	230,92	-0,03233	
7,360	0,1455	82,69	232,42	-0,03232	
7,380	0,1474	82,75	233,88	-0,03234	
7,400	0,1492	82,75	235,35	-0,03226	
7,420	0,1511	82,67	236,83	-0,03209	
7,440	0,1530	82,62	238,30	-0,03200	
7,460	0,1549	82,66	239,76	-0,03201	
7,480	0,1568	82,70	241,22	-0,03208	
7,500	0,1587	82,72	242,66	-0,03215	
7,520	0,1607	82,74	244,05	-0,03217	
7,540	0,1627	82,73	245,41	-0,03218	
7,560	0,1645	82,75	246,79	-0,03211	
7,580	0,1665	83,69	248,20	-0,03204	
7,600	0,1684	85,20	249,60	-0,03202	
7,620	0,1703	85,96	250,99	-0,03199	
7,640	0,1721	86,06	252,34	-0,03204	
7,660	0,1739	86,06	253,66	-0,03209	
7,680	0,1757	86,11	255,01	-0,03216	
7,700	0,1775	86,08	256,40	-0,03215	
7,720	0,1793	85,65	257,90	-0,03208	
7,740	0,1811	84,19	260,21	-0,03198	
7,760	0,1829	83,04	263,33	-0,03188	
7,780	0,1847	82,38	266,89	-0,03199	
7,800	0,1867	82,43	269,50	-0,03217	
7,820	0,1886	88,16	270,54	-0,03221	
7,840	0,1904	99,68	270,58	-0,03207	
7,860	0,1922	113,51	270,26	-0,03188	
7,880	0,1937	127,08	270,03	-0,03190	
7,900	0,1950	135,54	270,39	-0,03197	
7,920	0,1955	136,66	270,86	-0,03206	
7,940	0,1958	134,63	271,16	-0,03215	
7,960	0,1961	130,70	271,71	-0,03221	
7,980	0,1968	125,81	272,74	-0,03225	
8,000	0,1980	122,44	274,01	-0,03223	
8,020	0,1989	121,93	274,93	-0,03215	
8,040	0,1994	122,85	275,30	-0,03207	
8,060	0,2001	124,55	275,45	-0,03206	
8,080	0,2012	125,06	275,98	-0,03212	
8,100	0,2022	122,90	277,04	-0,03215	
8,120	0,2030	118,85	278,17	-0,03218	
8,140	0,2035	115,22	278,88	-0,03224	
8,160	0,2040	112,89	279,12	-0,03223	
8,180	0,2048	112,13	279,54	-0,03218	
8,200	0,2060	112,16	280,43	-0,03207	
8,220	0,2070	110,93	281,38	-0,03201	
8,240	0,2078	109,72	282,03	-0,03202	
8,260	0,2084	108,09	282,43	-0,03211	
8,280	0,2092	105,27	283,09	-0,03219	
8,300	0,2102	103,16	284,00	-0,03225	
8,320	0,2111	103,71	284,75	-0,03220	
8,340	0,2118	105,22	285,31	-0,03207	
8,360	0,2126	103,82	285,78	-0,03203	
8,380	0,2136	100,79	286,56	-0,03203	
8,400	0,2147	99,27	287,57	-0,03204	
8,420	0,2154	101,31	288,16	-0,03212	
8,440	0,2160	103,97	288,47	-0,03226	
8,460	0,2169	102,62	288,99	-0,03229	
8,480	0,2179	99,27	290,02	-0,03217	
8,500	0,2189	96,03	291,17	-0,03210	
8,520	0,2195	92,97	291,91	-0,03205	
8,540	0,2201	90,12	292,32	-0,03204	
8,560	0,2209	89,25	292,69	-0,03213	
8,580	0,2219	89,39	293,31	-0,03226	
8,600	0,2228	88,19	294,27	-0,03231	
8,620	0,2236	85,63	295,11	-0,03219	
8,640	0,2241	84,52	295,59	-0,03214	
8,660	0,2249	83,20	296,09	-0,03212	
8,680	0,2258	81,36	296,84	-0,03209	
8,700	0,2267	80,81	297,63	-0,03209	
8,720	0,2275	81,51	298,30	-0,03213	
8,740	0,2282	79,30	298,95	-0,03217	
8,760	0,2290	77,36	299,59	-0,03215	
8,780	0,2298	76,93	300,28	-0,03213	
8,800	0,2308	76,84	300,98	-0,03207	
8,820	0,2315	76,52	301,60	-0,03199	
8,840	0,2323	76,22	302,27	-0,03195	
8,860	0,2332	74,35	303,08	-0,03199	
8,880	0,2340	73,27	303,78	-0,03206	
8,900	0,2347	74,24	304,32	-0,03215	
8,920	0,2355	74,54	304,99	-0,03219	
8,940	0,2364	73,05	305,83	-0,03225	
8,960	0,2373	71,76	306,62	-0,03215	
8,980	0,2381	72,36	307,24	-0,03197	
9,000	0,2389	73,35	307,73	-0,03194	
9,020	0,2398	72,72	308,36	-0,03195	
9,040	0,2408	72,15	309,28	-0,03207	
9,060	0,2417	72,17	310,10	-0,03222	
9,080	0,2423	73,25	310,67	-0,03230	
9,100	0,2430	73,96	311,17	-0,03221	
9,120	0,2439	73,95	311,85	-0,03205	
9,140	0,2448	74,19	312,60	-0,03197	
9,160	0,2456	74,18	313,32	-0,03191	
9,180	0,2463	72,59	313,93	-0,03193	
9,200	0,2470	70,26	314,61	-0,03211	
9,220	0,2478	67,78	315,48	-0,03221	
9,240	0,2486	67,23	316,25	-0,03213	
9,260	0,2493	69,17	316,75	-0,03200	
9,280	0,2499	69,88	317,32	-0,03192	
9,300	0,2508	67,37	318,08	-0,03193	
9,320	0,2516	66,41	318,75	-0,03199	
9,340	0,2523	66,15	319,40	-0,03206	
9,360	0,2531	63,48	320,14	-0,03213	
9,380	0,2539	61,68	320,76	-0,03213	
9,400	0,2546	62,83	321,34	-0,03208	
9,420	0,2555	62,22	322,24	-0,03202	
9,440	0,2564	60,52	323,16	-0,03197	
9,460	0,2570	62,90	323,74	-0,03194	
9,480	0,2577	65,03	324,23	-0,03202	
9,500	0,2585	64,59	324,86	-0,03212	
9,520	0,2594	64,27	325,56	-0,03219	
9,540	0,2601	65,04	326,28	-0,03217	
9,560	0,2609	64,18	326,98	-0,03210	
9,580	0,2616	63,89	327,60	-0,03199	
9,600	0,2625	64,87	328,32	-0,03194	
9,620	0,2634	64,82	329,10	-0,03190	
9,640	0,2641	66,11	329,72	-0,03195	
9,660	0,2647	69,33	330,25	-0,03211	
9,680	0,2655	69,88	331,04	-0,03221	
9,700	0,2664	68,46	331,86	-0,03221	
9,720	0,2671	70,61	332,49	-0,03210	
9,740	0,2678	72,46	333,10	-0,03196	
9,760	0,2685	70,68	333,82	-0,03192	
9,780	0,2693	69,66	334,52	-0,03197	
9,800	0,2701	71,74	335,06	-0,03207	
9,820	0,2708	72,42	335,73	-0,03225	
9,840	0,2716	69,03	336,66	-0,03231	
9,860	0,2722	67,26	337,44	-0,03226	
9,880	0,2728	68,78	337,98	-0,03219	
9,900	0,2735	69,47	338,54	-0,03213	
9,920	0,2744	68,34	339,24	-0,03202	
9,940	0,2752	68,15	340,02	-0,03200	
9,960	0,2759	69,04	340,74	-0,03211	
9,980	0,2765	69,32	341,31	-0,03219	
10,00	0,2773	68,85	341,91	-0,03219	
10,02	0,2782	68,14	342,73	-0,03210	
10,04	0,2789	69,04	343,49	-0,03198	
10,06	0,2796	70,66	344,10	-0,03194	
10,08	0,2804	70,57	344,75	-0,03194	
10,10	0,2812	69,20	345,49	-0,03200	
10,12	0,2819	71,24	346,08	-0,03212	
10,14	0,2825	74,32	346,71	-0,03225	
10,16	0,2834	72,97	347,60	-0,03224	
10,18	0,2842	71,26	348,39	-0,03215	
10,20	0,2849	72,99	348,95	-0,03209	
10,22	0,2855	74,56	349,52	-0,03206	
10,24	0,2863	73,07	350,23	-0,03205	
10,26	0,2871	73,42	350,95	-0,03212	
10,28	0,2877	75,18	351,60	-0,03227	
10,30	0,2883	74,09	352,29	-0,03227	
10,32	0,2891	72,21	352,96	-0,03216	
10,34	0,2899	72,60	353,59	-0,03202	
10,36	0,2905	72,99	354,33	-0,03193	
10,38	0,2911	71,26	355,08	-0,03194	
10,40	0,2918	70,22	355,72	-0,03200	
10,42	0,2924	70,53	356,37	-0,03214	
10,44	0,2932	69,39	357,13	-0,03223	
10,46	0,2940	68,70	357,81	-0,03221	
10,48	0,2946	69,88	358,39	-0,03213	
10,50	0,2953	68,90	359,18	-0,03202	
10,52	0,2961	66,95	359,99	-0,03196	
10,54	0,2966	69,29	360,57	-0,03196	
10,56	0,2973	71,20	361,13	-0,03200	
10,58	0,2980	68,58	361,92	-0,03205	
10,60	0,2987	67,08	362,67	-0,03209	
10,62	0,2993	70,14	363,22	-0,03203	
10,64	0,2999	71,15	363,85	-0,03195	
10,66	0,3007	69,00	364,64	-0,03194	
10,68	0,3014	69,66	365,40	-0,03196	
10,70	0,3020	72,26	365,98	-0,03202	
10,72	0,3026	72,65	366,59	-0,03213	
10,74	0,3034	70,47	367,37	-0,03223	
10,76	0,3041	71,00	368,11	-0,03226	
10,78	0,3047	73,64	368,73	-0,03217	
10,80	0,3054	73,90	369,38	-0,03207	
10,82	0,3061	72,71	370,07	-0,03203	
10,84	0,3067	73,58	370,73	-0,03204	
10,86	0,3074	75,24	371,41	-0,03218	
10,88	0,3081	75,40	372,10	-0,03226	
10,90	0,3088	74,98	372,81	-0,03228	
10,92	0,3095	74,86	373,51	-0,03224	
10,94	0,3101	75,98	374,14	-0,03216	
10,96	0,3107	76,57	374,85	-0,03207	
10,98	0,3112	75,64	375,60	-0,03208	
11,00	0,3118	76,11	376,24	-0,03216	
11,02	0,3124	76,80	376,92	-0,03224	
11,04	0,3132	75,97	377,67	-0,03225	
11,06	0,3138	76,55	378,32	-0,03224	
11,08	0,3144	77,95	378,95	-0,03224	
11,10	0,3151	76,71	379,67	-0,03219	
11,12	0,3158	76,53	380,38	-0,03211	
11,14	0,3163	78,11	381,04	-0,03206	
11,16	0,3169	78,35	381,72	-0,03214	
11,18	0,3175	77,77	382,41	-0,03229	
11,20	0,3181	78,74	383,07	-0,03234	
11,22	0,3187	79,72	383,74	-0,03228	
11,24	0,3193	79,81	384,43	-0,03226	
11,26	0,3198	80,11	385,14	-0,03222	
11,28	0,3205	80,39	385,83	-0,03209	
11,30	0,3211	80,47	386,51	-0,03207	
11,32	0,3217	80,80	387,18	-0,03217	
11,34	0,3222	82,18	387,85	-0,03227	
11,36	0,3229	83,37	388,56	-0,03231	
11,38	0,3235	83,85	389,27	-0,03222	
11,40	0,3240	83,84	389,96	-0,03217	
11,42	0,3245	83,88	390,63	-0,03209	
11,44	0,3252	83,84	391,33	-0,03200	
11,46	0,3258	84,00	392,04	-0,03206	
11,48	0,3263	85,59	392,67	-0,03222	
11,50	0,3268	87,52	393,29	-0,03229	
11,52	0,3275	87,23	394,03	-0,03231	
11,54	0,3280	86,68	394,77	-0,03223	
11,56	0,3286	88,51	395,43	-0,03210	
11,58	0,3291	89,91	396,07	-0,03205	
11,60	0,3296	89,15	396,82	-0,03208	
11,62	0,3302	89,10	397,57	-0,03219	
11,64	0,3307	90,91	398,20	-0,03230	
11,66	0,3311	92,47	398,79	-0,03236	
11,68	0,3316	91,96	399,49	-0,03233	
11,70	0,3322	91,06	400,26	-0,03220	
11,72	0,3327	92,14	400,91	-0,03206	
11,74	0,3331	93,46	401,51	-0,03200	
11,76	0,3336	92,94	402,25	-0,03206	
11,78	0,3342	92,82	403,00	-0,03217	
11,80	0,3347	95,00	403,64	-0,03223	
11,82	0,3351	96,62	404,26	-0,03224	
11,84	0,3357	95,79	405,02	-0,03221	
11,86	0,3363	95,71	405,77	-0,03215	
11,88	0,3367	97,41	406,39	-0,03206	
11,90	0,3372	97,46	407,03	-0,03205	
11,92	0,3376	95,98	407,74	-0,03210	
11,94	0,3381	95,98	408,46	-0,03224	
11,96	0,3386	97,27	409,16	-0,03235	
11,98	0,3390	97,61	409,80	-0,03232	
12,00	0,3394	97,75	410,47	-0,03224	
12,02	0,3399	99,04	411,15	-0,03212	
12,04	0,3403	100,12	411,85	-0,03209	
12,06	0,3408	100,50	412,55	-0,03208	
12,08	0,3412	100,66	413,21	-0,03218	
12,10	0,3417	100,58	413,91	-0,03230	
12,12	0,3422	100,41	414,63	-0,03230	
12,14	0,3426	101,42	415,31	-0,03219	
12,16	0,3430	103,00	415,98	-0,03214	
12,18	0,3435	103,54	416,66	-0,03210	
12,20	0,3439	104,11	417,34	-0,03202	
12,22	0,3444	105,27	418,02	-0,03203	
12,24	0,3448	105,58	418,71	-0,03218	
12,26	0,3452	105,68	419,39	-0,03231	
12,28	0,3456	106,19	420,08	-0,03235	
12,30	0,3460	107,04	420,77	-0,03229	
12,32	0,3464	107,48	421,46	-0,03223	
12,34	0,3467	107,93	422,16	-0,03217	
12,36	0,3471	108,33	422,83	-0,03213	
12,38	0,3475	109,10	423,50	-0,03221	
12,40	0,3479	110,04	424,17	-0,03224	
12,42	0,3484	110,50	424,88	-0,03221	
12,44	0,3487	110,65	425,57	-0,03218	
12,46	0,3491	111,71	426,20	-0,03214	
12,48	0,3495	112,21	426,92	-0,03206	
12,50	0,3499	111,31	427,70	-0,03199	
12,52	0,3502	111,79	428,36	-0,03197	
12,54	0,3506	113,23	428,98	-0,03208	
12,56	0,3509	113,79	429,63	-0,03223	
12,58	0,3513	114,24	430,33	-0,03229	
12,60	0,3518	115,26	431,06	-0,03218	
12,62	0,3521	115,54	431,75	-0,03204	
12,64	0,3525	115,43	432,43	-0,03202	
12,66	0,3528	115,50	433,13	-0,03203	
12,68	0,3531	116,81	433,81	-0,03202	
12,70	0,3534	118,67	434,48	-0,03203	
12,72	0,3538	119,43	435,16	-0,03214	
12,74	0,3540	119,58	435,84	-0,03222	
12,76	0,3543	119,74	436,51	-0,03213	
12,78	0,3546	120,35	437,19	-0,03197	
12,80	0,3549	120,75	437,89	-0,03194	
12,82	0,3553	120,85	438,61	-0,03199	
12,84	0,3555	121,11	439,31	-0,03204	
12,86	0,3558	121,92	439,96	-0,03207	
12,88	0,3561	123,15	440,61	-0,03218	
12,90	0,3565	124,55	441,29	-0,03224	
12,92	0,3567	125,18	441,98	-0,03212	
12,94	0,3570	125,85	442,64	-0,03189	
12,96	0,3573	126,24	443,31	-0,03177	
12,98	0,3575	126,31	444,03	-0,03185	
13,00	0,3579	126,62	444,77	-0,03198	
13,02	0,3581	127,72	445,48	-0,03210	
13,04	0,3582	128,49	446,13	-0,03216	
13,06	0,3585	128,69	446,78	-0,03215	
13,08	0,3587	129,36	447,47	-0,03214	
13,10	0,3590	130,24	448,18	-0,03215	
13,12	0,3593	131,30	448,85	-0,03209	
13,14	0,3594	131,69	449,51	-0,03208	
13,16	0,3597	131,17	450,21	-0,03223	
13,18	0,3600	130,84	450,91	-0,03229	
13,20	0,3601	131,57	451,60	-0,03220	
13,22	0,3603	132,61	452,29	-0,03210	
13,24	0,3606	133,12	452,94	-0,03200	
13,26	0,3608	133,60	453,59	-0,03199	
13,28	0,3610	134,08	454,26	-0,03202	
13,30	0,3613	133,58	454,97	-0,03206	
13,32	0,3615	132,62	455,68	-0,03214	
13,34	0,3615	132,14	456,38	-0,03226	
13,36	0,3618	132,06	457,04	-0,03227	
13,38	0,3621	132,21	457,70	-0,03218	
13,40	0,3621	132,22	458,40	-0,03204	
13,42	0,3623	132,05	459,12	-0,03201	
13,44	0,3626	132,02	459,81	-0,03204	
13,46	0,3628	132,19	460,48	-0,03212	
13,48	0,3630	132,20	461,14	-0,03223	
13,50	0,3633	131,55	461,82	-0,03217	
13,52	0,3635	131,04	462,51	-0,03149	
13,54	0,3637	130,80	463,21	-0,03073	
13,56	0,3640	130,87	463,88	-0,03038	
13,58	0,3641	130,74	464,57	-0,03033	
13,60	0,3644	130,12	465,27	-0,03030	
13,62	0,3647	129,82	465,93	-0,03037	
13,64	0,3648	129,97	466,59	-0,03054	
13,66	0,3650	128,99	467,31	-0,03063	
13,68	0,3653	128,23	467,99	-0,03056	
13,70	0,3655	128,24	468,62	-0,03045	
13,72	0,3658	127,21	469,29	-0,03033	
13,74	0,3661	125,84	470,03	-0,03060	
13,76	0,3664	125,32	470,75	-0,03139	
13,78	0,3666	125,51	471,38	-0,03199	
13,80	0,3668	124,63	472,02	-0,03224	
13,82	0,3672	122,95	472,75	-0,03230	
13,84	0,3675	122,09	473,47	-0,03224	
13,86	0,3677	122,00	474,13	-0,03209	
13,88	0,3680	121,15	474,79	-0,03205	
13,90	0,3684	119,55	475,48	-0,03203	
13,92	0,3687	118,97	476,16	-0,03194	
13,94	0,3689	118,82	476,82	-0,03204	
13,96	0,3692	118,04	477,47	-0,03212	
13,98	0,3695	116,02	478,18	-0,03220	
14,00	0,3699	114,59	478,88	-0,03221	
14,02	0,3702	114,06	479,57	-0,03218	
14,04	0,3705	113,21	480,27	-0,03205	
14,06	0,3709	112,37	480,94	-0,03200	
14,08	0,3712	111,86	481,61	-0,03213	
14,10	0,3717	110,32	482,31	-0,03217	
14,12	0,3720	109,01	482,98	-0,03218	
14,14	0,3724	108,69	483,64	-0,03226	
14,16	0,3728	107,73	484,36	-0,03225	
14,18	0,3732	106,58	485,05	-0,03216	
14,20	0,3737	106,40	485,73	-0,03208	
14,22	0,3741	104,88	486,47	-0,03205	
14,24	0,3744	103,28	487,12	-0,03210	
14,26	0,3748	102,94	487,77	-0,03220	
14,28	0,3753	101,15	488,48	-0,03226	
14,30	0,3757	99,16	489,13	-0,03227	
14,32	0,3761	98,43	489,82	-0,03222	
14,34	0,3766	96,85	490,55	-0,03203	
14,36	0,3770	96,09	491,15	-0,03191	
14,38	0,3774	95,71	491,85	-0,03195	
14,40	0,3780	92,86	492,66	-0,03213	
14,42	0,3785	91,35	493,30	-0,03225	
14,44	0,3791	91,24	493,98	-0,03231	
14,46	0,3796	88,53	494,68	-0,03224	
14,48	0,3800	87,49	495,23	-0,03206	
14,50	0,3805	88,03	495,97	-0,03194	
14,52	0,3811	85,95	496,76	-0,03191	
14,54	0,3816	85,20	497,36	-0,03205	
14,56	0,3821	85,33	498,09	-0,03223	
14,58	0,3827	83,16	498,80	-0,03224	
14,60	0,3832	82,87	499,36	-0,03217	
14,62	0,3839	82,40	500,10	-0,03208	
14,64	0,3845	78,61	500,83	-0,03200	
14,66	0,3849	77,86	501,40	-0,03194	
14,68	0,3855	77,66	502,18	-0,03198	
14,70	0,3861	74,10	502,95	-0,03212	
14,72	0,3866	73,37	503,55	-0,03222	
14,74	0,3873	72,68	504,25	-0,03220	
14,76	0,3880	69,59	504,89	-0,03210	
14,78	0,3886	69,00	505,47	-0,03209	
14,80	0,3891	68,48	506,24	-0,03207	
14,82	0,3897	66,84	506,93	-0,03200	
14,84	0,3903	67,79	507,57	-0,03203	
14,86	0,3910	66,78	508,37	-0,03218	
14,88	0,3917	64,10	509,03	-0,03230	
14,90	0,3923	64,55	509,63	-0,03230	
14,92	0,3930	63,14	510,43	-0,03223	
14,94	0,3937	60,26	511,12	-0,03209	
14,96	0,3945	61,46	511,71	-0,03199	
14,98	0,3952	60,83	512,43	-0,03196	
15,00	0,3959	57,50	513,10	-0,03217	
15,02	0,3966	57,19	513,72	-0,03235	
15,04	0,3974	56,94	514,46	-0,03233	
15,06	0,3981	54,89	515,17	-0,03218	
15,08	0,3987	55,17	515,81	-0,03211	
15,10	0,3995	55,13	516,51	-0,03210	
15,12	0,4003	53,78	517,17	-0,03202	
15,14	0,4011	53,25	517,84	-0,03202	
15,16	0,4018	52,25	518,55	-0,03216	
15,18	0,4024	51,30	519,16	-0,03221	
15,20	0,4033	50,81	519,87	-0,03228	
15,22	0,4041	49,44	520,65	-0,03231	
15,24	0,4049	49,07	521,25	-0,03217	
15,26	0,4057	48,81	521,95	-0,03209	
15,28	0,4065	45,89	522,73	-0,03205	
15,30	0,4072	44,33	523,32	-0,03203	
15,32	0,4080	44,57	524,02	-0,03218	
15,34	0,4088	41,75	524,83	-0,03229	
15,36	0,4096	39,90	525,43	-0,03231	
15,38	0,4104	40,05	526,08	-0,03226	
15,40	0,4114	37,83	526,83	-0,03213	
15,42	0,4123	36,37	527,46	-0,03203	
15,44	0,4131	36,78	528,10	-0,03204	
15,46	0,4139	34,98	528,81	-0,03213	
15,48	0,4147	34,49	529,45	-0,03220	
15,50	0,4156	34,57	530,17	-0,03222	
15,52	0,4165	32,88	530,87	-0,03222	
15,54	0,4174	32,53	531,49	-0,03223	
15,56	0,4183	31,10	532,28	-0,03215	
15,58	0,4193	29,28	533,00	-0,03204	
15,60	0,4202	30,72	533,57	-0,03202	
15,62	0,4212	30,44	534,37	-0,03210	
15,64	0,4222	27,73	535,12	-0,03219	
15,66	0,4230	28,00	535,71	-0,03220	
15,68	0,4239	27,93	536,39	-0,03216	
15,70	0,4249	25,38	536,99	-0,03209	
15,72	0,4258	25,71	537,58	-0,03210	
15,74	0,4268	24,94	538,48	-0,03217	
15,76	0,4278	22,40	539,31	-0,03222	
15,78	0,4287	22,90	539,84	-0,03236	
15,80	0,4297	22,74	540,44	-0,03243	
15,82	0,4307	19,75	541,19	-0,03235	
15,84	0,4316	20,04	541,74	-0,03225	
15,86	0,4325	22,04	542,29	-0,03219	
15,88	0,4337	19,44	543,24	-0,03220	
15,90	0,4349	16,75	544,19	-0,03219	
15,92	0,4357	19,39	544,72	-0,03216	
15,94	0,4366	19,97	545,26	-0,03218	
15,96	0,4377	16,90	545,97	-0,03229	
15,98	0,4388	16,20	546,58	-0,03234	
16,00	0,4398	16,74	547,20	-0,03221	
16,02	0,4407	13,41	547,96	-0,03207	
16,04	0,4417	11,24	548,60	-0,03207	
16,06	0,4426	12,41	549,17	-0,03215	
16,08	0,4437	11,30	550,00	-0,03219	
16,10	0,4448	7,575	550,88	-0,03219	
16,12	0,4457	7,619	551,43	-0,03220	
16,14	0,4467	7,402	552,08	-0,03217	
16,16	0,4479	3,403	552,96	-0,03213	
16,18	0,4489	1,890	553,56	-0,03212	
16,20	0,4498	2,856	554,03	-0,03214	
16,22	0,4507	-0,3703	554,78	-0,03214	
16,24	0,4519	-4,777	555,56	-0,03218	
16,26	0,4530	-4,338	555,95	-0,03229	
16,28	0,4540	-3,871	556,45	-0,03234	
16,30	0,4552	-7,936	557,53	-0,03223	
16,32	0,4565	-12,56	558,63	-0,03220	
16,34	0,4575	-12,63	559,00	-0,03215	
16,36	0,4584	-10,87	559,09	-0,03208	
16,38	0,4597	-13,51	559,81	-0,03213	
16,40	0,4609	-17,85	561,17	-0,03224	
16,42	0,4621	-21,92	562,40	-0,03229	
16,44	0,4631	-24,14	562,91	-0,03222	
16,46	0,4644	-27,97	563,19	-0,03216	
16,48	0,4658	-31,25	563,76	-0,03206	
16,50	0,4671	-30,90	564,38	-0,03201	
16,52	0,4682	-29,13	564,89	-0,03207	
16,54	0,4692	-31,30	565,59	-0,03220	
16,56	0,4706	-36,90	566,58	-0,03231	
16,58	0,4718	-38,82	567,35	-0,03229	
16,60	0,4728	-37,30	567,86	-0,03228	
16,62	0,4740	-39,96	568,56	-0,03222	
16,64	0,4752	-43,71	569,27	-0,03218	
16,66	0,4765	-43,55	569,83	-0,03217	
16,68	0,4778	-43,63	570,53	-0,03218	
16,70	0,4789	-46,21	571,27	-0,03224	
16,72	0,4801	-46,13	571,78	-0,03237	
16,74	0,4813	-44,94	572,42	-0,03241	
16,76	0,4827	-47,63	573,40	-0,03236	
16,78	0,4840	-48,59	574,18	-0,03216	
16,80	0,4852	-45,73	574,71	-0,03201	
16,82	0,4866	-45,23	575,38	-0,03200	
16,84	0,4879	-45,33	576,04	-0,03219	
16,86	0,4892	-42,13	576,67	-0,03236	
16,88	0,4903	-39,97	577,43	-0,03242	
16,90	0,4914	-39,94	578,11	-0,03233	
16,92	0,4926	-37,47	578,75	-0,03222	
16,94	0,4940	-35,14	579,49	-0,03216	
16,96	0,4953	-32,50	580,09	-0,03213	
16,98	0,4965	-28,15	580,78	-0,03215	
17,00	0,4976	-25,83	581,60	-0,03218	
17,02	0,4987	-22,66	582,22	-0,03220	
17,04	0,5000	-17,73	582,89	-0,03223	
17,06	0,5011	-15,38	583,64	-0,03217	
17,08	0,5021	-11,42	584,21	-0,03209	
17,10	0,5032	-5,954	584,92	-0,03208	
17,12	0,5043	-4,343	585,72	-0,03204	
17,14	0,5053	-1,252	586,34	-0,03209	
17,16	0,5064	3,604	587,01	-0,03218	
17,18	0,5074	5,760	587,66	-0,03219	
17,20	0,5082	8,610	588,22	-0,03216	
17,22	0,5091	11,74	589,04	-0,03215	
17,24	0,5101	12,65	589,88	-0,03208	
17,26	0,5109	16,35	590,51	-0,03201	
17,28	0,5118	19,88	591,20	-0,03209	
17,30	0,5127	20,87	591,83	-0,03228	
17,32	0,5136	23,77	592,41	-0,03238	
17,34	0,5145	26,45	593,16	-0,03236	
17,36	0,5153	26,17	593,85	-0,03215	
17,38	0,5160	28,44	594,46	-0,03202	
17,40	0,5169	30,71	595,22	-0,03202	
17,42	0,5177	31,36	595,89	-0,03204	
17,44	0,5184	34,42	596,50	-0,03209	
17,46	0,5193	36,23	597,28	-0,03224	
17,48	0,5200	36,16	597,98	-0,03230	
17,50	0,5208	38,31	598,61	-0,03230	
17,52	0,5216	39,53	599,34	-0,03225	
17,54	0,5223	39,57	599,97	-0,03215	
17,56	0,5229	41,68	600,59	-0,03206	
17,58	0,5236	42,59	601,35	-0,03199	
17,60	0,5243	41,78	602,05	-0,03204	
17,62	0,5249	42,74	602,70	-0,03224	
17,64	0,5257	42,84	603,43	-0,03232	
17,66	0,5264	42,67	604,06	-0,03221	
17,68	0,5272	44,23	604,75	-0,03216	
17,70	0,5280	44,46	605,50	-0,03215	
17,72	0,5286	45,25	606,07	-0,03213	
17,74	0,5293	46,85	606,78	-0,03206	
17,76	0,5301	46,14	607,58	-0,03207	
17,78	0,5306	47,24	608,18	-0,03222	
17,80	0,5313	49,18	608,89	-0,03229	
17,82	0,5321	47,35	609,68	-0,03223	
17,84	0,5327	47,54	610,29	-0,03209	
17,86	0,5333	49,73	610,96	-0,03209	
17,88	0,5341	48,25	611,68	-0,03210	
17,90	0,5347	47,97	612,26	-0,03207	
17,92	0,5354	49,90	613,00	-0,03216	
17,94	0,5361	49,16	613,77	-0,03228	
17,96	0,5367	49,63	614,38	-0,03226	
17,98	0,5374	50,85	615,12	-0,03218	
18,00	0,5381	51,06	615,80	-0,03206	
18,02	0,5388	53,24	616,37	-0,03201	
18,04	0,5395	54,42	617,13	-0,03205	
18,06	0,5402	53,17	617,84	-0,03212	
18,08	0,5407	54,96	618,43	-0,03214	
18,10	0,5414	56,33	619,20	-0,03226	
18,12	0,5421	55,93	619,91	-0,03226	
18,14	0,5427	58,30	620,48	-0,03213	
18,16	0,5433	59,19	621,20	-0,03202	
18,18	0,5439	57,45	621,90	-0,03197	
18,20	0,5444	59,19	622,54	-0,03203	
18,22	0,5451	60,39	623,27	-0,03218	
18,24	0,5458	59,86	623,91	-0,03229	
18,26	0,5464	61,70	624,55	-0,03231	
18,28	0,5471	62,64	625,32	-0,03221	
18,30	0,5476	62,04	625,99	-0,03209	
18,32	0,5481	63,63	626,62	-0,03200	
18,34	0,5488	64,42	627,34	-0,03199	
18,36	0,5495	64,38	628,02	-0,03206	
18,38	0,5500	65,38	628,69	-0,03222	
18,40	0,5506	65,58	629,42	-0,03233	
18,42	0,5512	65,54	630,04	-0,03230	
18,44	0,5518	66,26	630,74	-0,03223	
18,46	0,5525	65,85	631,52	-0,03214	
18,48	0,5530	66,48	632,14	-0,03201	
18,50	0,5535	67,85	632,80	-0,03199	
18,52	0,5542	66,71	633,53	-0,03209	
18,54	0,5548	66,64	634,14	-0,03225	
18,56	0,5554	67,68	634,85	-0,03237	
18,58	0,5560	66,63	635,61	-0,03234	
18,60	0,5565	66,67	636,21	-0,03217	
18,62	0,5570	67,67	636,95	-0,03207	
18,64	0,5576	66,08	637,71	-0,03199	
18,66	0,5581	66,34	638,28	-0,03202	
18,68	0,5588	66,53	639,02	-0,03215	
18,70	0,5594	64,30	639,72	-0,03226	
18,72	0,5599	65,44	640,25	-0,03225	
18,74	0,5606	67,00	641,03	-0,03218	
18,76	0,5613	64,71	641,80	-0,03202	
18,78	0,5618	64,87	642,40	-0,03188	
18,80	0,5624	64,98	643,15	-0,03193	
18,82	0,5630	62,03	643,80	-0,03204	
18,84	0,5635	62,37	644,35	-0,03220	
18,86	0,5641	62,14	645,17	-0,03232	
18,88	0,5647	59,32	645,96	-0,03224	
18,90	0,5652	60,18	646,54	-0,03214	
18,92	0,5659	60,56	647,20	-0,03218	
18,94	0,5666	58,13	647,85	-0,03219	
18,96	0,5672	58,01	648,51	-0,03218	
18,98	0,5680	58,73	649,28	-0,03219	
19,00	0,5686	57,87	649,88	-0,03220	
19,02	0,5692	58,75	650,50	-0,03223	
19,04	0,5698	57,95	651,37	-0,03219	
19,06	0,5703	57,20	652,07	-0,03208	
19,08	0,5709	58,98	652,66	-0,03201	
19,10	0,5716	58,18	653,38	-0,03204	
19,12	0,5723	56,70	654,02	-0,03215	
19,14	0,5729	57,86	654,68	-0,03222	
19,16	0,5737	56,42	655,42	-0,03222	
19,18	0,5743	53,96	656,02	-0,03225	
19,20	0,5750	54,48	656,68	-0,03223	
19,22	0,5757	53,61	657,51	-0,03222	
19,24	0,5763	53,44	658,13	-0,03215	
19,26	0,5768	54,44	658,77	-0,03207	
19,28	0,5774	51,90	659,56	-0,03203	
19,30	0,5780	50,48	660,19	-0,03212	
19,32	0,5786	51,12	660,88	-0,03225	
19,34	0,5794	49,21	661,62	-0,03232	
19,36	0,5800	48,24	662,20	-0,03220	
19,38	0,5806	48,61	662,90	-0,03213	
19,40	0,5814	46,36	663,66	-0,03208	
19,42	0,5820	45,76	664,23	-0,03202	
19,44	0,5826	46,54	664,92	-0,03202	
19,46	0,5834	43,98	665,75	-0,03213	
19,48	0,5841	42,41	666,39	-0,03228	
19,50	0,5848	43,37	666,95	-0,03229	
19,52	0,5856	41,48	667,71	-0,03216	
19,54	0,5864	38,66	668,45	-0,03205	
19,56	0,5870	40,81	668,91	-0,03198	
19,58	0,5877	42,12	669,56	-0,03191	
19,60	0,5885	38,13	670,63	-0,03198	
19,62	0,5891	36,13	671,46	-0,03220	
19,64	0,5897	38,22	671,88	-0,03230	
19,66	0,5906	38,23	672,40	-0,03224	
19,68	0,5915	34,44	673,22	-0,03213	
19,70	0,5921	33,90	673,87	-0,03205	
19,72	0,5927	35,69	674,40	-0,03199	
19,74	0,5936	32,80	675,28	-0,03201	
19,76	0,5944	29,50	676,14	-0,03211	
19,78	0,5951	31,37	676,68	-0,03226	
19,80	0,5958	32,13	677,22	-0,03235	
19,82	0,5966	28,19	677,97	-0,03232	
19,84	0,5974	26,29	678,62	-0,03219	
19,86	0,5981	28,85	679,14	-0,03210	
19,88	0,5988	27,62	679,96	-0,03201	
19,90	0,5997	23,93	680,86	-0,03205	
19,92	0,6004	25,03	681,48	-0,03221	
19,94	0,6011	25,73	682,09	-0,03233	
19,96	0,6019	23,31	682,70	-0,03233	
19,98	0,6026	23,19	683,30	-0,03226	
20,00	0,6035	23,59	684,09	-0,03219	
20,02	0,6044	21,16	684,80	-0,03211	
20,04	0,6051	21,02	685,39	-0,03202	
20,06	0,6059	20,22	686,21	-0,03203	
20,08	0,6068	18,11	687,03	-0,03213	
20,10	0,6075	19,66	687,60	-0,03223	
20,12	0,6082	20,24	688,21	-0,03227	
20,14	0,6090	17,73	688,86	-0,03220	
20,16	0,6098	16,91	689,53	-0,03206	
20,18	0,6107	16,72	690,28	-0,03202	
20,20	0,6115	15,28	690,87	-0,03200	
20,22	0,6123	15,38	691,49	-0,03208	
20,24	0,6132	14,70	692,36	-0,03223	
20,26	0,6140	13,38	693,12	-0,03228	
20,28	0,6148	14,22	693,71	-0,03218	
20,30	0,6156	13,50	694,38	-0,03215	
20,32	0,6164	12,06	695,01	-0,03209	
20,34	0,6172	12,45	695,66	-0,03203	
20,36	0,6182	11,84	696,43	-0,03202	
20,38	0,6190	10,89	697,13	-0,03207	
20,40	0,6199	11,87	697,75	-0,03218	
20,42	0,6208	11,79	698,46	-0,03231	
20,44	0,6217	10,67	699,10	-0,03224	
20,46	0,6226	11,68	699,48	-0,03209	
20,48	0,6234	13,53	699,63	-0,03193	
20,50	0,6242	18,06	699,56	-0,03182	
20,52	0,6250	25,61	699,42	-0,03195	
20,54	0,6259	32,18	699,37	-0,03217	
20,56	0,6267	35,86	699,47	-0,03223	
20,58	0,6274	40,04	699,53	-0,03221	
20,60	0,6280	46,49	699,44	-0,03208	
20,62	0,6286	52,91	699,33	-0,03193	
20,64	0,6295	56,97	699,46	-0,03188	
20,66	0,6302	60,95	699,65	-0,03193	
20,68	0,6308	67,79	699,63	-0,03200	
20,70	0,6312	74,97	699,46	-0,03209	
20,72	0,6317	79,49	699,38	-0,03217	
20,74	0,6323	82,20	699,45	-0,03214	
20,76	0,6328	86,68	699,46	-0,03202	
20,78	0,6331	91,07	699,40	-0,03195	
20,80	0,6334	92,97	699,36	-0,03194	
20,82	0,6339	93,88	699,45	-0,03193	
20,84	0,6343	96,45	699,57	-0,03200	
20,86	0,6346	101,15	699,53	-0,03208	
20,88	0,6348	106,63	699,38	-0,03212	
20,90	0,6352	109,41	699,36	-0,03218	
20,92	0,6356	109,64	699,54	-0,03218	
20,94	0,6360	111,52	699,65	-0,03204	
20,96	0,6361	114,81	699,53	-0,03188	
20,98	0,6362	116,65	699,39	-0,03191	
21,00	0,6366	116,92	699,40	-0,03209	
21,02	0,6368	118,49	699,47	-0,03219	
21,04	0,6369	121,20	699,46	-0,03221	
21,06	0,6371	121,64	699,38	-0,03214	
21,08	0,6374	120,84	699,37	-0,03196	
21,10	0,6376	121,15	699,50	-0,03188	
21,12	0,6379	123,08	699,57	-0,03192	
21,14	0,6381	126,92	699,47	-0,03198	
21,16	0,6381	128,83	699,37	-0,03208	
21,18	0,6382	128,53	699,39	-0,03214	
21,20	0,6385	128,72	699,50	-0,03208	
21,22	0,6388	130,05	699,51	-0,03195	
21,24	0,6388	132,21	699,38	-0,03188	
21,26	0,6388	132,61	699,33	-0,03192	
21,28	0,6389	131,00	699,51	-0,03206	
21,30	0,6393	130,62	699,67	-0,03217	
21,32	0,6395	133,41	699,60	-0,03218	
21,34	0,6395	135,94	699,45	-0,03212	
21,36	0,6395	135,58	699,38	-0,03207	
21,38	0,6395	135,92	699,38	-0,03208	
21,40	0,6395	136,38	699,46	-0,03201	
21,42	0,6397	135,11	699,47	-0,03197	
21,44	0,6399	134,08	699,41	-0,03204	
21,46	0,6401	135,03	699,36	-0,03217	
21,48	0,6402	136,04	699,44	-0,03226	
21,50	0,6403	136,33	699,57	-0,03210	
21,52	0,6403	137,92	699,54	-0,03190	
21,54	0,6404	139,72	699,40	-0,03189	
21,56	0,6407	140,31	699,35	-0,03189	
21,58	0,6409	139,90	699,46	-0,03193	
21,60	0,6409	139,62	699,54	-0,03205	
21,62	0,6408	140,11	699,44	-0,03217	
21,64	0,6408	140,50	699,33	-0,03216	
21,66	0,6410	139,25	699,46	-0,03206	
21,68	0,6414	138,16	699,64	-0,03195	
21,70	0,6416	140,28	699,60	-0,03186	
21,72	0,6415	142,75	699,44	-0,03188	
21,74	0,6415	142,22	699,38	-0,03198	
21,76	0,6415	141,15	699,44	-0,03210	
21,78	0,6416	141,67	699,48	-0,03215	
21,80	0,6415	141,50	699,42	-0,03211	
21,82	0,6415	140,22	699,35	-0,03203	
21,84	0,6418	139,26	699,42	-0,03200	
21,86	0,6422	139,28	699,56	-0,03195	
21,88	0,6423	141,25	699,55	-0,03185	
21,90	0,6422	144,44	699,40	-0,03186	
21,92	0,6422	144,84	699,37	-0,03205	
21,94	0,6423	142,89	699,50	-0,03220	
21,96	0,6423	143,11	699,55	-0,03207	
21,98	0,6422	145,36	699,43	-0,03198	
22,00	0,6423	144,68	699,36	-0,03196	
22,02	0,6427	141,54	699,49	-0,03192	
22,04	0,6429	140,67	699,61	-0,03191	
22,06	0,6429	143,39	699,53	-0,03200	
22,08	0,6428	144,80	699,39	-0,03215	
22,10	0,6428	144,08	699,38	-0,03221	
22,12	0,6429	143,19	699,48	-0,03214	
22,14	0,6429	142,99	699,51	-0,03203	
22,16	0,6429	143,41	699,43	-0,03194	
22,18	0,6431	143,72	699,33	-0,03194	
22,20	0,6434	143,29	699,42	-0,03206	
22,22	0,6436	142,90	699,59	-0,03215	
22,24	0,6436	144,46	699,58	-0,03210	
22,26	0,6435	146,55	699,43	-0,03204	
22,28	0,6435	146,42	699,36	-0,03203	
22,30	0,6436	145,15	699,45	-0,03194	
22,32	0,6436	145,32	699,55	-0,03181	
22,34	0,6436	146,45	699,46	-0,03181	
22,36	0,6435	146,43	699,34	-0,03196	
22,38	0,6439	143,71	699,46	-0,03208	
22,40	0,6442	141,63	699,62	-0,03211	
22,42	0,6442	143,64	699,57	-0,03206	
22,44	0,6442	145,88	699,42	-0,03197	
22,46	0,6442	144,81	699,36	-0,03194	
22,48	0,6442	143,51	699,43	-0,03194	
22,50	0,6443	143,69	699,50	-0,03197	
22,52	0,6442	143,83	699,45	-0,03204	
22,54	0,6442	143,32	699,36	-0,03206	
22,56	0,6445	142,92	699,37	-0,03211	
22,58	0,6448	142,82	699,50	-0,03216	
22,60	0,6450	143,57	699,57	-0,03205	
22,62	0,6449	145,77	699,47	-0,03192	
22,64	0,6448	147,09	699,36	-0,03193	
22,66	0,6449	146,22	699,43	-0,03210	
22,68	0,6450	144,87	699,53	-0,03216	
22,70	0,6449	146,25	699,46	-0,03217	
22,72	0,6448	146,87	699,34	-0,03227	
22,74	0,6449	143,57	699,43	-0,03220	
22,76	0,6453	141,28	699,61	-0,03200	
22,78	0,6455	143,48	699,59	-0,03192	
22,80	0,6455	146,14	699,44	-0,03199	
22,82	0,6455	145,73	699,36	-0,03203	
22,84	0,6456	144,11	699,45	-0,03210	
22,86	0,6457	144,34	699,56	-0,03217	
22,88	0,6456	146,02	699,48	-0,03205	
22,90	0,6455	146,38	699,36	-0,03196	
22,92	0,6456	143,84	699,44	-0,03200	
22,94	0,6457	141,70	699,59	-0,03201	
22,96	0,6456	143,68	699,54	-0,03203	
22,98	0,6456	146,00	699,39	-0,03216	
23,00	0,6459	144,12	699,37	-0,03225	
23,02	0,6462	141,57	699,50	-0,03222	
23,04	0,6463	142,57	699,51	-0,03216	
23,06	0,6462	144,83	699,39	-0,03206	
23,08	0,6461	144,17	699,34	-0,03195	
23,10	0,6463	141,49	699,51	-0,03200	
23,12	0,6463	141,28	699,66	-0,03216	
23,14	0,6462	143,93	699,58	-0,03217	
23,16	0,6463	146,29	699,40	-0,03218	
23,18	0,6466	145,47	699,40	-0,03218	
23,20	0,6469	143,78	699,52	-0,03207	
23,22	0,6469	144,58	699,50	-0,03197	
23,24	0,6468	145,70	699,36	-0,03204	
23,26	0,6469	143,46	699,38	-0,03212	
23,28	0,6470	140,40	699,59	-0,03219	
23,30	0,6470	141,55	699,66	-0,03224	
23,32	0,6469	145,03	699,52	-0,03223	
23,34	0,6468	146,68	699,38	-0,03221	
23,36	0,6472	144,58	699,46	-0,03211	
23,38	0,6476	143,71	699,51	-0,03208	
23,40	0,6476	145,48	699,41	-0,03213	
23,42	0,6475	144,75	699,33	-0,03225	
23,44	0,6476	140,52	699,49	-0,03239	
23,46	0,6477	139,41	699,66	-0,03243	
23,48	0,6476	142,88	699,59	-0,03232	
23,50	0,6475	144,84	699,42	-0,03221	
23,52	0,6475	143,67	699,38	-0,03215	
23,54	0,6476	142,99	699,46	-0,03210	
23,56	0,6476	143,76	699,48	-0,03210	
23,58	0,6477	144,07	699,37	-0,03220	
23,60	0,6480	142,48	699,36	-0,03228	
23,62	0,6483	140,38	699,56	-0,03226	
23,64	0,6483	140,51	699,70	-0,03228	
23,66	0,6483	143,59	699,59	-0,03225	
23,68	0,6482	146,34	699,42	-0,03219	
23,70	0,6482	145,64	699,39	-0,03212	
23,72	0,6483	144,54	699,47	-0,03215	
23,74	0,6482	144,88	699,45	-0,03220	
23,76	0,6482	144,53	699,36	-0,03562	
23,78	0,6483	142,00	699,39	-0,05029	
23,80	0,6487	139,77	699,55	-0,06746	
23,82	0,6489	141,68	699,55	-0,06062	
23,84	0,6489	145,17	699,42	-0,05000	
23,86	0,6489	144,78	699,38	-0,03814	
23,88	0,6489	142,37	699,48	-0,01313	
23,90	0,6490	142,84	699,53	0,00604	
23,92	0,6489	145,37	699,41	0,01256	
23,94	0,6488	145,13	699,35	0,01335	
23,96	0,6491	142,72	699,49	0,01345	
23,98	0,6495	142,56	699,62	0,01412	
24,00	0,6495	145,14	699,53	0,01475	
24,02	0,6495	146,33	699,39	0,01499	
24,04	0,6496	144,31	699,41	0,01468	
24,06	0,6496	143,30	699,49	0,01442	
24,08	0,6496	144,97	699,44	0,01429	
24,10	0,6495	145,19	699,34	0,01403	
24,12	0,6495	142,67	699,41	0,01350	
24,14	0,6497	140,84	699,60	0,01298	
24,16	0,6497	142,51	699,60	0,01254	
24,18	0,6496	145,50	699,44	0,01215	
24,20	0,6498	145,39	699,37	0,01164	
24,22	0,6502	143,12	699,46	0,01111	
24,24	0,6503	143,11	699,50	0,01131	
24,26	0,6502	144,75	699,40	0,01179	
24,28	0,6502	144,03	699,35	0,01239	
24,30	0,6503	141,30	699,48	0,01284	
24,32	0,6504	140,60	699,58	0,01358	
24,34	0,6502	143,75	699,47	0,01413	
24,36	0,6502	145,11	699,36	0,01460	
24,38	0,6504	142,34	699,46	0,01496	
24,40	0,6508	140,90	699,58	0,01519	
24,42	0,6509	143,42	699,51	0,01532	
24,44	0,6509	144,29	699,37	0,01518	
24,46	0,6509	141,84	699,42	0,01495	
24,48	0,6510	140,42	699,58	0,01416	
24,50	0,6510	142,31	699,57	0,01329	
24,52	0,6509	144,08	699,42	0,01265	
24,54	0,6509	142,65	699,37	0,01225	
24,56	0,6510	140,55	699,48	0,01180	
24,58	0,6510	141,04	699,51	0,01182	
24,60	0,6509	142,72	699,40	0,01220	
24,62	0,6510	141,72	699,35	0,01241	
24,64	0,6514	139,00	699,53	0,01271	
24,66	0,6517	139,21	699,66	0,01307	
24,68	0,6516	143,16	699,56	0,01357	
24,70	0,6515	145,76	699,40	0,01412	
24,72	0,6515	144,88	699,39	0,01468	
24,74	0,6516	144,03	699,51	0,01513	
24,76	0,6517	145,24	699,52	0,01530	
24,78	0,6516	146,65	699,39	0,01509	
24,80	0,6517	145,38	699,34	0,01462	
24,82	0,6521	143,07	699,52	0,01406	
24,84	0,6523	143,24	699,66	0,01347	
24,86	0,6523	145,49	699,55	0,01311	
24,88	0,6522	146,43	699,39	0,01290	
24,90	0,6523	144,83	699,42	0,01270	
24,92	0,6524	143,94	699,52	0,01248	
24,94	0,6523	145,39	699,49	0,01224	
24,96	0,6522	146,17	699,36	0,01217	
24,98	0,6522	144,39	699,35	0,01225	
25,00	0,6523	142,45	699,54	0,01239	
25,02	0,6524	143,07	699,66	0,01292	
25,04	0,6522	145,49	699,53	0,01357	
25,06	0,6523	146,87	699,39	0,01407	
25,08	0,6527	145,48	699,47	0,01463	
25,10	0,6530	145,70	699,52	0,01508	
25,12	0,6529	148,44	699,41	0,01516	
25,14	0,6529	148,05	699,36	0,01500	
25,16	0,6530	143,81	699,48	0,01476	
25,18	0,6530	142,50	699,54	0,01466	
25,20	0,6529	145,02	699,45	0,01456	
25,22	0,6528	146,30	699,33	0,01442	
25,24	0,6529	144,69	699,42	0,01423	
25,26	0,6530	143,28	699,63	0,01407	
25,28	0,6530	144,39	699,64	0,01395	
25,30	0,6529	146,45	699,47	0,01377	
25,32	0,6532	146,61	699,36	0,01350	
25,34	0,6535	145,46	699,41	0,01331	
25,36	0,6537	145,30	699,52	0,01358	
25,38	0,6536	145,43	699,48	0,01428	
25,40	0,6535	145,14	699,35	0,01474	
25,42	0,6536	144,06	699,39	0,01505	
25,44	0,6537	143,22	699,57	0,01542	
25,46	0,6537	145,06	699,58	0,01583	
25,48	0,6536	147,71	699,45	0,01629	
25,50	0,6536	146,63	699,37	0,01675	
25,52	0,6536	144,40	699,42	0,01728	
25,54	0,6537	144,61	699,47	0,01748	
25,56	0,6537	145,56	699,42	0,01739	
25,58	0,6537	144,31	699,35	0,01719	
25,60	0,6541	141,46	699,47	0,01706	
25,62	0,6544	140,37	699,65	0,01691	
25,64	0,6544	142,43	699,64	0,01671	
25,66	0,6542	145,63	699,46	0,01665	
25,68	0,6542	146,40	699,36	0,01640	
25,70	0,6543	144,51	699,47	0,01608	
25,72	0,6544	143,16	699,56	0,01595	
25,74	0,6543	143,49	699,45	0,01573	
25,76	0,6542	143,24	699,32	0,01579	
25,78	0,6544	140,40	699,43	0,01640	
25,80	0,6548	138,41	699,62	0,01729	
25,82	0,6550	140,20	699,61	0,01806	
25,84	0,6549	142,59	699,47	0,01850	
25,86	0,6549	142,51	699,34	0,01873	
25,88	0,6549	142,28	699,39	0,01868	
25,90	0,6550	141,81	699,53	0,01864	
25,92	0,6550	141,19	699,50	0,01862	
25,94	0,6549	141,44	699,40	0,01859	
25,96	0,6549	140,86	699,39	0,01847	
25,98	0,6550	140,40	699,41	0,01845	
26,00	0,6553	141,13	699,48	0,01865	
26,02	0,6556	140,51	699,58	0,01870	
26,04	0,6557	140,51	699,52	0,01884	
26,06	0,6556	143,74	699,34	0,01886	
26,08	0,6556	145,40	699,36	0,01877	
26,10	0,6557	142,95	699,61	0,01850	
26,12	0,6558	141,81	699,73	0,01845	
26,14	0,6557	142,56	699,60	0,01859	
26,16	0,6556	142,79	699,41	0,01870	
26,18	0,6556	142,51	699,34	0,01875	
26,20	0,6559	142,59	699,41	0,01885	
26,22	0,6562	141,51	699,49	0,01888	
26,24	0,6563	140,44	699,47	0,01862	
26,26	0,6563	139,70	699,40	0,01859	
26,28	0,6563	139,41	699,37	0,01865	
26,30	0,6563	139,70	699,44	0,01874	
26,32	0,6564	140,93	699,51	0,01879	
26,34	0,6563	142,65	699,46	0,01891	
26,36	0,6562	143,67	699,35	0,01890	
26,38	0,6562	143,54	699,37	0,01873	
26,40	0,6564	141,71	699,56	0,01864	
26,42	0,6564	141,41	699,64	0,01858	
26,44	0,6564	142,91	699,49	0,01860	
26,46	0,6566	143,20	699,37	0,01866	
26,48	0,6569	141,46	699,45	0,01874	
26,50	0,6571	141,26	699,54	0,01876	
26,52	0,6570	142,79	699,46	0,01880	
26,54	0,6569	142,98	699,35	0,01879	
26,56	0,6570	140,07	699,43	0,01865	
26,58	0,6571	138,52	699,56	0,01857	
26,60	0,6570	140,64	699,51	0,01874	
26,62	0,6570	142,49	699,37	0,01891	
26,64	0,6572	140,76	699,41	0,01888	
26,66	0,6576	138,42	699,58	0,01888	
26,68	0,6577	140,03	699,56	0,01885	
26,70	0,6576	142,66	699,41	0,01866	
26,72	0,6576	141,97	699,39	0,01852	
26,74	0,6577	139,65	699,52	0,01859	
26,76	0,6577	140,93	699,54	0,01874	
26,78	0,6576	143,43	699,40	0,01880	
26,80	0,6576	142,27	699,35	0,01882	
26,82	0,6578	139,79	699,48	0,01880	
26,84	0,6582	139,71	699,57	0,01871	
26,86	0,6583	142,12	699,45	0,01863	
26,88	0,6582	142,83	699,35	0,01855	
26,90	0,6584	139,81	699,51	0,01854	
26,92	0,6584	139,02	699,65	0,01860	
26,94	0,6583	142,62	699,56	0,01874	
26,96	0,6582	144,63	699,40	0,01888	
26,98	0,6583	142,00	699,42	0,01879	
27,00	0,6584	140,38	699,50	0,01862	
27,02	0,6583	141,95	699,44	0,01862	
27,04	0,6582	142,82	699,33	0,01864	
27,06	0,6584	139,51	699,43	0,01861	
27,08	0,6589	136,90	699,63	0,01866	
27,10	0,6590	139,26	699,62	0,01871	
27,12	0,6590	142,46	699,45	0,01878	
27,14	0,6589	142,30	699,36	0,01871	
27,16	0,6590	140,62	699,46	0,01859	
27,18	0,6591	141,00	699,52	0,01857	
27,20	0,6590	142,69	699,40	0,01860	
27,22	0,6590	141,70	699,35	0,01862	
27,24	0,6592	138,37	699,55	0,01867	
27,26	0,6595	138,30	699,71	0,01869	
27,28	0,6597	141,33	699,59	0,01873	
27,30	0,6596	143,28	699,41	0,01867	
27,32	0,6596	140,84	699,46	0,01853	
27,34	0,6597	139,55	699,54	0,01855	
27,36	0,6597	142,37	699,44	0,01868	
27,38	0,6596	143,33	699,33	0,01872	
27,40	0,6597	139,55	699,47	0,01878	
27,42	0,6597	136,97	699,65	0,01886	
27,44	0,6597	139,38	699,58	0,01884	
27,46	0,6598	141,25	699,41	0,01873	
27,48	0,6601	139,25	699,43	0,01856	
27,50	0,6604	137,58	699,55	0,01849	
27,52	0,6605	139,97	699,49	0,01851	
27,54	0,6604	142,04	699,36	0,01859	
27,56	0,6604	139,32	699,41	0,01870	
27,58	0,6605	136,29	699,57	0,01876	
27,60	0,6604	137,99	699,55	0,01867	
27,62	0,6603	141,04	699,40	0,01861	
27,64	0,6604	139,84	699,38	0,01853	
27,66	0,6608	137,87	699,53	0,01854	
27,68	0,6610	139,72	699,54	0,01873	
27,70	0,6610	142,43	699,41	0,01884	
27,72	0,6610	140,98	699,36	0,01884	
27,74	0,6610	137,85	699,48	0,01880	
27,76	0,6611	138,23	699,54	0,01868	
27,78	0,6610	140,84	699,43	0,01855	
27,80	0,6609	140,62	699,35	0,01846	
27,82	0,6613	138,04	699,47	0,01844	
27,84	0,6617	137,72	699,58	0,01851	
27,86	0,6617	140,57	699,49	0,01853	
27,88	0,6616	142,35	699,35	0,01856	
27,90	0,6617	139,90	699,43	0,01862	
27,92	0,6618	137,82	699,57	0,01854	
27,94	0,6617	139,88	699,51	0,01846	
27,96	0,6616	140,70	699,35	0,01845	
27,98	0,6617	137,23	699,40	0,01839	
28,00	0,6619	134,42	699,60	0,01833	
28,02	0,6622	136,25	699,62	0,01844	
28,04	0,6623	139,28	699,44	0,01861	
28,06	0,6623	138,87	699,39	0,01863	
28,08	0,6624	136,42	699,53	0,01848	
28,10	0,6624	137,77	699,56	0,01835	
28,12	0,6623	140,83	699,43	0,01833	
28,14	0,6623	139,40	699,35	0,01829	
28,16	0,6625	136,12	699,43	0,01831	
28,18	0,6629	135,90	699,54	0,01838	
28,20	0,6630	138,38	699,46	0,01853	
28,22	0,6629	139,63	699,33	0,01858	
28,24	0,6630	137,27	699,49	0,01846	
28,26	0,6631	134,89	699,75	0,01834	
28,28	0,6631	136,59	699,72	0,01825	
28,30	0,6630	139,45	699,49	0,01824	
28,32	0,6631	139,82	699,38	0,01828	
28,34	0,6635	137,90	699,46	0,01834	
28,36	0,6637	137,99	699,47	0,01842	
28,38	0,6637	139,11	699,35	0,01845	
28,40	0,6637	136,76	699,38	0,01838	
28,42	0,6638	132,19	699,61	0,01826	
28,44	0,6638	133,26	699,68	0,01821	
28,46	0,6637	137,73	699,51	0,01824	
28,48	0,6636	139,55	699,37	0,01826	
28,50	0,6640	137,24	699,47	0,01825	
28,52	0,6644	136,43	699,59	0,01829	
28,54	0,6644	138,32	699,53	0,01837	
28,56	0,6643	138,73	699,37	0,01831	
28,58	0,6644	136,45	699,36	0,01810	
28,60	0,6645	135,08	699,54	0,01803	
28,62	0,6645	136,96	699,61	0,01818	
28,64	0,6644	139,43	699,47	0,01838	
28,66	0,6646	139,16	699,36	0,01843	
28,68	0,6649	137,64	699,41	0,01835	
28,70	0,6651	137,74	699,51	0,01820	
28,72	0,6651	139,28	699,46	0,01808	
28,74	0,6650	139,96	699,33	0,01805	
28,76	0,6651	138,16	699,42	0,01800	
28,78	0,6652	135,98	699,65	0,01802	
28,80	0,6651	137,06	699,66	0,01817	
28,82	0,6651	139,42	699,47	0,01827	
28,84	0,6654	139,12	699,37	0,01827	
28,86	0,6657	137,36	699,48	0,01814	
28,88	0,6658	137,63	699,54	0,01796	
28,90	0,6657	139,37	699,42	0,01790	
28,92	0,6656	138,59	699,34	0,01794	
28,94	0,6658	135,31	699,49	0,01804	
28,96	0,6660	135,03	699,64	0,01812	
28,98	0,6661	138,02	699,54	0,01813	
29,00	0,6662	139,44	699,38	0,01813	
29,02	0,6664	136,89	699,42	0,01806	
29,04	0,6665	135,83	699,52	0,01793	
29,06	0,6664	138,23	699,47	0,01792	
29,08	0,6663	139,51	699,34	0,01794	
29,10	0,6664	136,85	699,40	0,01798	
29,12	0,6666	134,48	699,59	0,01806	
29,14	0,6669	136,50	699,59	0,01820	
29,16	0,6670	139,39	699,42	0,01822	
29,18	0,6670	138,87	699,38	0,01806	
29,20	0,6671	136,46	699,53	0,01789	
29,22	0,6672	137,06	699,57	0,01783	
29,24	0,6670	139,42	699,44	0,01793	
29,26	0,6670	138,65	699,37	0,01802	
29,28	0,6673	135,83	699,50	0,01805	
29,30	0,6676	136,02	699,53	0,01808	
29,32	0,6676	138,72	699,38	0,01812	
29,34	0,6677	137,54	699,41	0,01806	
29,36	0,6679	132,97	699,67	0,01786	
29,38	0,6679	133,31	699,73	0,01777	
29,40	0,6677	137,06	699,54	0,01791	
29,42	0,6677	137,55	699,36	0,01800	
29,44	0,6679	135,16	699,42	0,01799	
29,46	0,6683	134,44	699,57	0,01803	
29,48	0,6684	135,81	699,54	0,01802	
29,50	0,6667	136,96	699,38	0,01791	
29,52	0,6625	135,73	699,37	0,01779	
29,54	0,6598	133,70	699,54	0,01779	
29,56	0,6590	134,81	699,57	0,01783	
29,58	0,6589	137,71	699,41	0,01785	
29,60	0,6590	136,76	699,36	0,01786	
29,62	0,6595	134,15	699,54	0,01780	
29,64	0,6598	134,88	699,62	0,01766	
29,66	0,6598	137,77	699,49	0,01753	
29,68	0,6596	137,59	699,36	0,01754	
29,70	0,6596	135,08	699,43	0,01758	
29,72	0,6598	134,58	699,54	0,01764	
29,74	0,6598	137,28	699,49	0,01762	
29,76	0,6599	139,94	699,34	0,01749	
29,78	0,6604	141,02	699,40	0,01721	
29,80	0,6610	144,62	699,60	0,01676	
29,82	0,6619	155,32	699,60	0,01620	
29,84	0,6631	171,16	699,42	0,01557	
29,86	0,6649	187,29	699,38	0,01484	
29,88	0,6672	206,26	699,52	0,01404	
29,90	0,6698	233,25	699,53	0,01327	
29,92	0,6725	265,37	699,39	0,01242	
29,94	0,6758	297,01	699,36	0,01128	
29,96	0,6796	331,45	699,50	0,00986	
29,98	0,6837	373,55	699,55	0,00832	
30,00	0,6882	420,96	699,41	0,00676	
30,02	0,6932	468,24	699,34	0,00509	
30,04	0,6987	515,25	699,50	0,00321	
30,06	0,7044	567,63	699,62	0,00117	
30,08	0,7103	625,23	699,52	-0,00124	
30,10	0,7167	680,73	699,37	-0,00424	
30,12	0,7237	733,33	699,43	-0,00786	
30,14	0,7312	786,78	699,54	-0,01194	
30,16	0,7389	840,64	699,46	-0,01644	
30,18	0,7468	889,72	699,35	-0,02160	
30,20	0,7554	930,62	699,51	-0,02742	
30,22	0,7645	968,76	699,74	-0,03369	
30,24	0,7738	1006,3	699,80	-0,04051	
30,26	0,7833	1038,7	699,72	-0,04793	
30,28	0,7933	1065,5	699,57	-0,05593	
30,30	0,8039	1090,4	699,43	-0,06457	
30,32	0,8147	1112,1	699,31	-0,07358	
30,34	0,8260	1127,5	699,28	-0,08284	
30,36	0,8377	1135,2	699,50	-0,09236	
30,38	0,8499	1141,6	699,50	-0,1020	
30,40	0,8623	1151,3	699,18	-0,1122	
30,42	0,8752	1159,6	699,17	-0,1228	
30,44	0,8887	1163,5	699,70	-0,1336	
30,46	0,9025	1168,7	699,98	-0,1447	
30,48	0,9164	1178,5	699,62	-0,1563	
30,50	0,9307	1184,1	699,32	-0,1684	
30,52	0,9458	1184,1	699,62	-0,1806	
30,54	0,9613	1187,3	699,89	-0,1930	
30,56	0,9770	1195,3	699,67	-0,2061	
30,58	0,9930	1199,6	699,39	-0,2198	
30,60	1,010	1197,7	699,60	-0,2338	
30,62	1,027	1199,6	699,85	-0,2479	
30,64	1,044	1207,7	699,71	-0,2624	
30,66	1,061	1213,2	699,42	-0,2774	
30,68	1,080	1212,9	699,43	-0,2928	
30,70	1,098	1213,6	699,63	-0,3083	
30,72	1,117	1219,1	699,63	-0,3242	
30,74	1,136	1224,9	699,46	-0,3404	
30,76	1,156	1227,0	699,36	-0,3567	
30,78	1,176	1228,1	699,45	-0,3729	
30,80	1,196	1230,9	699,53	-0,3888	
30,82	1,216	1234,4	699,45	-0,4048	
30,84	1,236	1236,1	699,34	-0,4212	
30,86	1,256	1236,2	699,43	-0,4377	
30,88	1,276	1237,1	699,60	-0,4541	
30,90	1,296	1240,8	699,61	-0,4704	
30,92	1,316	1244,2	699,47	-0,4868	
30,94	1,336	1245,4	699,37	-0,5034	
30,96	1,356	1246,3	699,41	-0,5198	
30,98	1,376	1247,3	699,50	-0,5361	
31,00	1,396	1248,0	699,48	-0,5525	
31,02	1,416	1248,6	699,38	-0,5692	
31,04	1,436	1249,9	699,35	-0,5858	
31,06	1,456	1250,9	699,48	-0,6024	
31,08	1,476	1252,4	699,61	-0,6189	
31,10	1,496	1255,3	699,56	-0,6353	
31,12	1,515	1257,8	699,42	-0,6520	
31,14	1,536	1258,6	699,35	-0,6688	
31,16	1,556	1259,6	699,42	-0,6856	
31,18	1,576	1260,0	699,57	-0,7023	
31,20	1,596	1259,7	699,59	-0,7189	
31,22	1,616	1261,0	699,47	-0,7356	
31,24	1,636	1262,7	699,40	-0,7524	
31,26	1,656	1263,8	699,41	-0,7692	
31,28	1,676	1265,0	699,43	-0,7860	
31,30	1,696	1265,8	699,42	-0,8028	
31,32	1,716	1264,9	699,40	-0,8198	
31,34	1,736	1263,5	699,44	-0,8367	
31,36	1,756	1264,4	699,46	-0,8535	
31,38	1,776	1266,9	699,41	-0,8703	
31,40	1,796	1268,5	699,38	-0,8871	
31,42	1,816	1268,5	699,43	-0,9041	
31,44	1,836	1268,1	699,53	-0,9210	
31,46	1,856	1269,6	699,50	-0,9379	
31,48	1,876	1272,0	699,41	-0,9549	
31,50	1,896	1272,6	699,37	-0,9720	
31,52	1,916	1272,5	699,41	-0,9891	
31,54	1,936	1272,8	699,50	-1,006	
31,56	1,956	1272,5	699,49	-1,023	
31,58	1,976	1272,7	699,40	-1,040	
31,60	1,996	1274,1	699,36	-1,057	
31,62	2,016	1274,3	699,43	-1,074	
31,64	2,036	1273,8	699,53	-1,092	
31,66	2,056	1274,5	699,48	-1,109	
31,68	2,075	1275,2	699,39	-1,126	
31,70	2,095	1275,2	699,40	-1,143	
31,72	2,116	1274,8	699,50	-1,160	
31,74	2,136	1276,0	699,51	-1,177	
31,76	2,156	1277,4	699,40	-1,195	
31,78	2,176	1276,6	699,36	-1,212	
31,80	2,196	1275,2	699,48	-1,229	
31,82	2,216	1275,1	699,57	-1,247	
31,84	2,236	1277,0	699,49	-1,264	
31,86	2,256	1277,9	699,39	-1,281	
31,88	2,276	1276,3	699,42	-1,299	
31,90	2,296	1275,5	699,49	-1,316	
31,92	2,316	1276,9	699,45	-1,333	
31,94	2,336	1277,0	699,36	-1,351	
31,96	2,356	1274,4	699,42	-1,368	
31,98	2,376	1272,5	699,58	-1,386	
32,00	2,396	1274,0	699,57	-1,403	
32,02	2,416	1276,4	699,44	-1,421	
32,04	2,436	1276,3	699,37	-1,438	
32,06	2,456	1275,2	699,42	-1,456	
32,08	2,476	1274,6	699,48	-1,473	
32,10	2,496	1274,7	699,44	-1,491	
32,12	2,516	1273,9	699,37	-1,509	
32,14	2,536	1273,2	699,38	-1,526	
32,16	2,556	1272,2	699,52	-1,544	
32,18	2,576	1272,7	699,57	-1,561	
32,20	2,596	1274,4	699,45	-1,579	
32,22	2,616	1274,6	699,37	-1,596	
32,24	2,636	1272,9	699,45	-1,614	
32,26	2,656	1272,0	699,55	-1,632	
32,28	2,676	1273,5	699,47	-1,649	
32,30	2,696	1273,1	699,39	-1,667	
32,32	2,716	1270,2	699,46	-1,685	
32,34	2,736	1269,6	699,50	-1,703	
32,36	2,756	1272,1	699,41	-1,720	
32,38	2,776	1272,7	699,36	-1,738	
32,40	2,796	1268,9	699,53	-1,756	
32,42	2,816	1267,3	699,66	-1,774	
32,44	2,836	1269,7	699,56	-1,791	
32,46	2,856	1271,0	699,41	-1,809	
32,48	2,876	1268,6	699,41	-1,828	
32,50	2,896	1266,8	699,48	-1,845	
32,52	2,916	1267,5	699,45	-1,863	
32,54	2,936	1267,8	699,36	-1,881	
32,56	2,956	1265,0	699,43	-1,899	
32,58	2,976	1262,6	699,58	-1,917	
32,60	2,996	1264,6	699,56	-1,935	
32,62	3,016	1266,9	699,43	-1,953	
32,64	3,036	1265,2	699,40	-1,971	
32,66	3,056	1262,4	699,49	-1,989	
32,68	3,076	1262,7	699,48	-2,007	
32,70	3,096	1263,8	699,40	-2,025	
32,72	3,116	1261,8	699,38	-2,043	
32,74	3,136	1259,1	699,50	-2,061	
32,76	3,156	1259,1	699,56	-2,079	
32,78	3,176	1260,8	699,45	-2,098	
32,80	3,196	1260,6	699,37	-2,116	
32,82	3,216	1257,7	699,48	-2,134	
32,84	3,236	1256,4	699,59	-2,152	
32,86	3,256	1257,5	699,51	-2,170	
32,88	3,276	1257,9	699,39	-2,188	
32,90	3,296	1255,0	699,43	-2,207	
32,92	3,316	1252,8	699,54	-2,225	
32,94	3,336	1254,2	699,49	-2,243	
32,96	3,356	1254,9	699,38	-2,261	
32,98	3,376	1251,9	699,41	-2,280	
33,00	3,396	1249,3	699,56	-2,298	
33,02	3,416	1249,8	699,56	-2,316	
33,04	3,436	1251,2	699,44	-2,334	
33,06	3,456	1249,7	699,42	-2,353	
33,08	3,476	1248,1	699,47	-2,371	
33,10	3,496	1249,0	699,44	-2,390	
33,12	3,516	1249,5	699,36	-2,408	
33,14	3,536	1246,2	699,44	-2,427	
33,16	3,556	1243,1	699,58	-2,445	
33,18	3,576	1244,7	699,53	-2,463	
33,20	3,596	1246,8	699,42	-2,482	
33,22	3,616	1245,0	699,42	-2,500	
33,24	3,636	1242,7	699,48	-2,519	
33,26	3,656	1243,4	699,43	-2,537	
33,28	3,676	1243,7	699,35	-2,556	
33,30	3,696	1239,5	699,49	-2,574	
33,32	3,716	1236,2	699,65	-2,592	
33,34	3,736	1237,9	699,59	-2,611	
33,36	3,756	1240,1	699,45	-2,629	
33,38	3,776	1237,5	699,48	-2,648	
33,40	3,796	1235,5	699,53	-2,667	
33,42	3,816	1236,7	699,45	-2,685	
33,44	3,836	1236,2	699,40	-2,704	
33,46	3,856	1231,8	699,47	-2,722	
33,48	3,876	1229,5	699,48	-2,741	
33,50	3,896	1231,1	699,39	-2,760	
33,52	3,916	1230,3	699,38	-2,778	
33,54	3,936	1226,8	699,53	-2,797	
33,56	3,956	1225,9	699,59	-2,816	
33,58	3,976	1227,4	699,47	-2,834	
33,60	3,996	1227,0	699,40	-2,853	
33,62	4,016	1224,1	699,50	-2,872	
33,64	4,036	1223,5	699,54	-2,890	
33,66	4,056	1225,6	699,43	-2,909	
33,68	4,076	1223,9	699,43	-2,928	
33,70	4,096	1219,3	699,55	-2,947	
33,72	4,116	1219,1	699,53	-2,965	
33,74	4,136	1220,8	699,42	-2,984	
33,76	4,156	1217,8	699,47	-3,003	
33,78	4,176	1213,8	699,53	-3,022	
33,80	4,196	1214,7	699,45	-3,040	
33,82	4,216	1215,3	699,38	-3,059	
33,84	4,236	1211,8	699,50	-3,078	
33,86	4,256	1209,1	699,59	-3,097	
33,88	4,276	1210,7	699,48	-3,115	
33,90	4,296	1210,8	699,43	-3,134	
33,92	4,316	1207,2	699,58	-3,153	
33,94	4,336	1206,3	699,60	-3,172	
33,96	4,356	1207,9	699,46	-3,191	
33,98	4,376	1205,2	699,45	-3,210	
34,00	4,396	1200,9	699,51	-3,229	
34,02	4,416	1201,2	699,44	-3,248	
34,04	4,436	1201,8	699,38	-3,267	
34,06	4,456	1197,8	699,51	-3,286	
34,08	4,476	1194,8	699,61	-3,304	
34,10	4,496	1196,2	699,51	-3,323	
34,12	4,516	1196,5	699,45	-3,342	
34,14	4,536	1193,0	699,54	-3,361	
34,16	4,556	1192,6	699,50	-3,380	
34,18	4,576	1193,9	699,40	-3,399	
34,20	4,596	1190,8	699,50	-3,418	
34,22	4,616	1186,2	699,58	-3,437	
34,24	4,636	1186,0	699,49	-3,456	
34,26	4,656	1185,5	699,41	-3,475	
34,28	4,676	1181,8	699,47	-3,495	
34,30	4,696	1180,2	699,48	-3,514	
34,32	4,716	1181,9	699,39	-3,533	
34,34	4,736	1180,3	699,42	-3,552	
34,36	4,756	1176,4	699,56	-3,571	
34,38	4,776	1175,7	699,54	-3,590	
34,40	4,796	1176,6	699,44	-3,609	
34,42	4,816	1173,7	699,50	-3,628	
34,44	4,836	1171,2	699,54	-3,647	
34,46	4,855	1172,4	699,45	-3,666	
34,48	4,876	1170,8	699,46	-3,685	
34,50	4,896	1166,0	699,51	-3,705	
34,52	4,916	1165,2	699,44	-3,724	
34,54	4,935	1165,7	699,40	-3,743	
34,56	4,956	1161,5	699,54	-3,762	
34,58	4,976	1158,1	699,59	-3,781	
34,60	4,996	1159,1	699,47	-3,800	
34,62	5,016	1157,5	699,48	-3,820	
34,64	5,036	1153,8	699,55	-3,839	
34,66	5,056	1154,5	699,47	-3,858	
34,68	5,076	1154,3	699,42	-3,877	
34,70	5,096	1149,3	699,51	-3,896	
34,72	5,116	1146,6	699,49	-3,916	
34,74	5,135	1147,1	699,40	-3,935	
34,76	5,156	1144,1	699,50	-3,954	
34,78	5,176	1140,1	699,60	-3,973	
34,80	5,196	1141,0	699,50	-3,993	
34,82	5,215	1140,9	699,48	-4,012	
34,84	5,236	1135,9	699,63	-4,031	
34,86	5,256	1133,5	699,60	-4,050	
34,88	5,276	1135,0	699,47	-4,070	
34,90	5,296	1131,8	699,57	-4,089	
34,92	5,316	1126,5	699,67	-4,109	
34,94	5,336	1126,5	699,54	-4,128	
34,96	5,356	1126,4	699,51	-4,147	
34,98	5,376	1120,9	699,78	-4,167	
35,00	5,396	1117,9	699,87	-4,186	
35,02	5,415	1118,7	699,65	-4,205	
35,04	5,435	1117,3	699,49	-4,224	
35,06	5,456	1111,8	699,62	-4,244	
35,08	5,476	1109,0	699,66	-4,263	
35,10	5,496	1109,5	699,50	-4,282	
35,12	5,516	1107,0	699,60	-4,302	
35,14	5,536	1100,6	699,89	-4,321	
35,16	5,556	1098,3	699,88	-4,340	
35,18	5,576	1099,2	699,61	-4,360	
35,20	5,596	1097,6	699,55	-4,379	
35,22	5,616	1093,1	699,77	-4,399	
35,24	5,636	1091,5	699,78	-4,418	
35,26	5,656	1090,9	699,56	-4,438	
35,28	5,675	1087,3	699,60	-4,457	
35,30	5,696	1081,5	699,83	-4,477	
35,32	5,716	1080,1	699,78	-4,496	
35,34	5,736	1080,3	699,55	-4,516	
35,36	5,756	1076,4	699,61	-4,535	
35,38	5,776	1071,4	699,80	-4,554	
35,40	5,796	1070,8	699,71	-4,574	
35,42	5,815	1071,2	699,51	-4,593	
35,44	5,836	1067,1	699,64	-4,613	
35,46	5,856	1061,7	699,84	-4,632	
35,48	5,876	1060,8	699,72	-4,652	
35,50	5,895	1060,6	699,50	-4,672	
35,52	5,916	1055,7	699,63	-4,692	
35,54	5,936	1051,2	699,78	-4,711	
35,56	5,956	1051,2	699,64	-4,731	
35,58	5,975	1050,9	699,52	-4,750	
35,60	5,995	1044,9	699,86	-4,770	
35,62	6,016	1040,4	700,14	-4,789	
35,64	6,036	1039,9	700,00	-4,809	
35,66	6,056	1038,9	699,64	-4,828	
35,68	6,075	1035,0	699,66	-4,848	
35,70	6,096	1030,7	700,11	-4,867	
35,72	6,116	1028,2	700,25	-4,887	
35,74	6,136	1025,4	700,00	-4,906	
35,76	6,156	1022,2	699,64	-4,926	
35,78	6,175	1019,8	699,56	-4,946	
35,80	6,196	1016,5	699,89	-4,965	
35,82	6,216	1012,8	700,03	-4,985	
35,84	6,236	1009,4	699,80	-5,004	
35,86	6,255	1007,1	699,55	-5,024	
35,88	6,275	1001,8	699,75	-5,043	
35,90	6,296	998,04	700,00	-5,063	
35,92	6,316	997,14	699,89	-5,082	
35,94	6,336	995,94	699,60	-5,102	
35,96	6,355	991,51	699,69	-5,122	
35,98	6,376	985,39	700,04	-5,141	
36,00	6,396	982,31	700,04	-5,161	
36,02	6,416	980,32	699,73	-5,180	
36,04	6,435	977,55	699,56	-5,200	
36,06	6,455	971,82	699,84	-5,220	
36,08	6,476	968,42	700,03	-5,239	
36,10	6,496	966,57	699,85	-5,259	
36,12	6,516	964,32	699,56	-5,278	
36,14	6,536	959,17	699,62	-5,298	
36,16	6,556	954,89	699,77	-5,318	
36,18	6,576	953,22	699,65	-5,337	
36,20	6,596	950,89	699,51	-5,357	
36,22	6,616	944,67	699,80	-5,377	
36,24	6,636	939,00	700,03	-5,396	
36,26	6,656	937,37	699,88	-5,416	
36,28	6,676	935,88	699,57	-5,436	
36,30	6,696	931,17	699,62	-5,455	
36,32	6,716	925,53	699,93	-5,475	
36,34	6,735	922,27	699,94	-5,495	
36,36	6,755	919,21	699,66	-5,514	
36,38	6,776	915,07	699,54	-5,534	
36,40	6,796	908,21	699,86	-5,554	
36,42	6,816	904,23	700,03	-5,573	
36,44	6,835	901,63	699,81	-5,593	
36,46	6,855	898,52	699,55	-5,613	
36,48	6,876	892,33	699,88	-5,633	
36,50	6,896	886,58	700,36	-5,652	
36,52	6,916	883,23	700,37	-5,672	
36,54	6,936	879,29	700,03	-5,692	
36,56	6,956	875,13	699,64	-5,711	
36,58	6,976	870,94	699,58	-5,731	
36,60	6,996	866,94	699,74	-5,751	
36,62	7,016	863,10	699,68	-5,771	
36,64	7,035	859,34	699,50	-5,790	
36,66	7,056	852,76	699,78	-5,810	
36,68	7,076	845,32	700,14	-5,830	
36,70	7,096	842,22	700,08	-5,850	
36,72	7,116	840,18	699,74	-5,869	
36,74	7,135	835,97	699,58	-5,889	
36,76	7,156	828,84	700,03	-5,909	
36,78	7,176	823,29	700,38	-5,929	
36,80	7,196	818,68	700,26	-5,949	
36,82	7,215	814,22	699,87	-5,968	
36,84	7,235	809,52	699,54	-5,988	
36,86	7,256	805,08	699,72	-6,008	
36,88	7,276	799,70	700,04	-6,028	
36,90	7,296	794,32	699,99	-6,047	
36,92	7,315	789,33	699,67	-6,067	
36,94	7,336	784,06	699,61	-6,087	
36,96	7,356	776,24	700,02	-6,107	
36,98	7,376	771,27	700,20	-6,127	
37,00	7,395	767,43	699,97	-6,146	
37,02	7,415	762,32	699,60	-6,166	
37,04	7,435	755,83	699,62	-6,186	
37,06	7,456	749,54	700,02	-6,206	
37,08	7,476	744,14	700,13	-6,226	
37,10	7,496	738,76	699,87	-6,245	
37,12	7,515	734,18	699,56	-6,265	
37,14	7,536	727,13	699,70	-6,285	
37,16	7,556	719,96	699,95	-6,305	
37,18	7,576	714,08	699,86	-6,325	
37,20	7,595	708,59	699,57	-6,345	
37,22	7,615	701,03	699,77	-6,365	
37,24	7,636	692,29	700,30	-6,385	
37,26	7,656	686,27	700,43	-6,405	
37,28	7,676	680,39	700,15	-6,425	
37,30	7,695	672,92	699,74	-6,445	
37,32	7,715	666,71	699,56	-6,465	
37,34	7,736	660,20	699,87	-6,485	
37,36	7,756	652,23	700,05	-6,505	
37,38	7,775	644,64	699,86	-6,525	
37,40	7,795	638,24	699,55	-6,545	
37,42	7,815	630,14	699,80	-6,565	
37,44	7,836	620,50	700,44	-6,585	
37,46	7,855	612,18	700,63	-6,605	
37,48	7,875	603,48	700,38	-6,625	
37,50	7,895	593,85	699,97	-6,645	
37,52	7,915	585,63	699,60	-6,665	
37,54	7,935	580,01	699,65	-6,685	
37,56	7,955	571,15	700,02	-6,706	
37,58	7,975	560,57	700,09	-6,726	
37,60	7,995	550,96	699,79	-6,746	
37,62	8,015	541,93	699,53	-6,766	
37,64	8,036	530,24	699,74	-6,787	
37,66	8,055	518,69	700,01	-6,807	
37,68	8,075	508,03	699,90	-6,827	
37,70	8,095	497,23	699,59	-6,847	
37,72	8,115	483,13	699,70	-6,868	
37,74	8,135	466,93	700,07	-6,889	
37,76	8,155	452,99	700,10	-6,909	
37,78	8,175	438,99	699,80	-6,930	
37,80	8,195	423,59	699,55	-6,950	
37,82	8,216	404,66	699,85	-6,972	
37,84	8,236	385,51	700,20	-6,993	
37,86	8,255	365,12	700,13	-7,014	
37,88	8,275	342,19	699,80	-7,035	
37,90	8,295	317,81	699,55	-7,056	
37,92	8,315	291,01	699,91	-7,078	
37,94	8,335	264,32	700,31	-7,098	
37,96	8,355	240,68	700,25	-7,118	
37,98	8,375	220,17	699,92	-7,138	
38,00	8,395	203,27	699,59	-7,158	
38,02	8,415	188,74	699,73	-7,179	
38,04	8,435	174,56	700,07	-7,195	
38,06	8,455	159,66	700,03	-7,206	
38,08	8,474	145,37	699,70	-7,211	
38,10	8,489	131,84	699,65	-7,214	
38,12	8,500	114,89	700,45	-7,217	
38,14	8,505	98,77	701,01	-7,219	
38,16	8,508	86,04	700,89	-7,219	
38,18	8,509	73,92	700,46	-7,220	
38,20	8,509	62,32	700,00	-7,220	
38,22	8,509	57,23	699,62	-7,220	
38,24	8,510	56,81	699,74	-7,221	
38,26	8,510	53,58	700,14	-7,221	
38,28	8,510	49,22	700,16	-7,222	
38,30	8,510	46,16	699,83	-7,222	
38,32	8,510	44,27	699,58	-7,222	
38,34	8,510	40,49	700,01	-7,223	
38,36	8,510	37,53	700,46	-7,223	
38,38	8,510	36,17	700,36	-7,223	
38,40	8,510	34,71	699,96	-7,223	
38,42	8,510	33,79	699,60	-7,223	
38,44	8,510	33,48	699,87	-7,224	
38,46	8,510	32,35	700,42	-7,224	
38,48	8,510	30,47	700,51	-7,225	
38,50	8,510	29,27	700,22	-7,224	
38,52	8,510	29,02	699,84	-7,224	
38,54	8,510	29,54	699,55	-7,224	
38,56	8,510	29,26	699,79	-7,225	
38,58	8,510	28,79	700,21	-7,225	
38,60	8,510	28,82	700,22	-7,225	
38,62	8,510	28,98	699,91	-7,225	
38,64	8,510	29,40	699,59	-7,225	
38,66	8,510	29,33	699,77	-7,226	
38,68	8,510	28,77	700,35	-7,226	
38,70	8,510	28,71	700,52	-7,227	
38,72	8,510	28,88	700,27	-7,226	
38,74	8,510	28,97	699,91	-7,226	
38,76	8,510	29,31	699,59	-7,226	
38,78	8,510	29,29	699,66	-7,226	
38,80	8,510	28,81	700,04	-7,227	
38,82	8,510	28,77	700,10	-7,227	
38,84	8,510	28,96	699,85	-7,227	
38,86	8,510	29,51	699,57	-7,227	
38,88	8,510	29,37	699,77	-7,227	
38,90	8,510	28,84	700,22	-7,228	
38,92	8,510	28,81	700,29	-7,228	
38,94	8,510	28,94	700,03	-7,228	
38,96	8,510	29,00	699,69	-7,228	
38,98	8,510	29,64	699,57	-7,228	
39,00	8,510	28,61	699,95	-7,228	
39,02	8,510	26,65	700,21	-7,229	
39,04	8,510	25,72	700,09	-7,229	
39,06	8,510	25,60	699,78	-7,228	
39,08	8,510	26,22	699,55	-7,229	
39,10	8,510	27,10	699,92	-7,229	
39,12	8,510	26,68	700,40	-7,230	
39,14	8,510	25,50	700,42	-7,230	
39,16	8,510	23,76	700,13	-7,230	
39,18	8,510	22,62	699,78	-7,229	
39,20	8,510	24,00	699,55	-7,229	
39,22	8,510	27,27	699,82	-7,230	
39,24	8,510	27,40	700,20	-7,231	
39,26	8,510	26,13	700,17	-7,231	
39,28	8,510	24,56	699,87	-7,230	
39,30	8,510	23,51	699,57	-7,230	
39,32	8,510	23,71	699,77	-7,231	
39,34	8,510	23,48	700,28	-7,231	
39,36	8,510	22,75	700,39	-7,232	
39,38	8,510	22,39	700,14	-7,231	
39,40	8,510	21,94	699,79	-7,231	
39,42	8,510	22,27	699,54	-7,231	
39,44	8,510	24,36	699,85	-7,232	
39,46	8,510	24,00	700,27	-7,232	
39,48	8,510	22,71	700,28	-7,232	
39,50	8,510	21,75	699,99	-7,232	
39,52	8,510	20,47	699,65	-7,232	
39,54	8,510	21,52	699,59	-7,232	
39,56	8,510	23,02	700,06	-7,233	
39,58	8,510	22,86	700,35	-7,233	
39,60	8,510	22,34	700,20	-7,233	
39,62	8,510	21,20	699,87	-7,233	
39,64	8,510	20,39	699,58	-7,233	
39,66	8,510	21,84	699,75	-7,233	
39,68	8,510	22,68	700,18	-7,234	
39,70	8,510	22,50	700,24	-7,234	
39,72	8,510	21,85	699,97	-7,234	
39,74	8,510	20,37	699,61	-7,233	
39,76	8,510	20,69	699,27	-7,233	
39,78	8,510	25,89	698,95	-7,233	
39,80	8,510	32,23	698,64	-7,233	
39,82	8,510	37,34	698,31	-7,233	
39,84	8,510	41,20	697,98	-7,233	
39,86	8,510	44,27	697,66	-7,233	
39,88	8,510	46,81	697,35	-7,233	
39,90	8,510	48,66	697,03	-7,234	
39,92	8,510	50,41	696,70	-7,234	
39,94	8,510	52,07	696,39	-7,234	
39,96	8,510	53,80	696,08	-7,234	
39,98	8,510	55,39	695,76	-7,234	
40,00	8,510	56,99	695,44	-7,234	
40,02	8,510	58,48	695,11	-7,235	
40,04	8,510	59,21	694,76	-7,235	
40,06	8,510	59,43	694,42	-7,235	
40,08	8,510	60,47	694,08	-7,235	
40,10	8,510	61,88	693,75	-7,235	
40,12	8,510	62,60	693,39	-7,235	
40,14	8,510	62,75	693,03	-7,236	
40,16	8,510	63,14	692,65	-7,236	
40,18	8,510	64,59	692,27	-7,236	
40,20	8,510	65,72	691,89	-7,236	
40,22	8,510	66,01	691,51	-7,236	
40,24	8,510	65,98	691,12	-7,237	
40,26	8,510	65,96	690,73	-7,237	
40,28	8,510	66,46	690,33	-7,237	
40,30	8,510	67,96	689,92	-7,237	
40,32	8,510	69,10	689,50	-7,237	
40,34	8,510	69,46	689,10	-7,238	
40,36	8,510	69,49	688,68	-7,238	
40,38	8,510	69,47	688,26	-7,238	
40,40	8,510	69,44	687,83	-7,238	
40,42	8,510	69,42	687,40	-7,238	
40,44	8,510	69,41	686,95	-7,239	
40,46	8,510	69,44	686,50	-7,239	
40,48	8,510	69,48	686,05	-7,239	
40,50	8,510	69,52	685,62	-7,239	
40,52	8,510	70,47	685,18	-7,240	
40,54	8,510	71,96	684,73	-7,240	
40,56	8,510	72,69	684,28	-7,240	
40,58	8,510	72,77	683,82	-7,240	
40,60	8,510	72,79	683,36	-7,240	
40,62	8,510	72,85	682,91	-7,241	
40,64	8,510	72,80	682,44	-7,241	
40,66	8,510	71,69	681,97	-7,241	
40,68	8,510	70,14	681,49	-7,242	
40,70	8,510	69,39	681,01	-7,242	
40,72	8,510	69,29	680,51	-7,242	
40,74	8,510	69,36	680,03	-7,242	
40,76	8,510	69,43	679,55	-7,243	
40,78	8,510	69,40	679,08	-7,243	
40,80	8,510	69,38	678,60	-7,243	
40,82	8,510	69,44	678,12	-7,244	
40,84	8,510	69,43	677,64	-7,244	
40,86	8,510	68,39	677,15	-7,244	
40,88	8,510	66,93	676,65	-7,245	
40,90	8,510	66,21	676,15	-7,245	
40,92	8,510	66,11	675,65	-7,245	
40,94	8,510	66,17	675,14	-7,245	
40,96	8,510	65,79	674,66	-7,246	
40,98	8,510	64,32	674,16	-7,246	
41,00	8,510	63,16	673,66	-7,246	
41,02	8,510	62,81	673,16	-7,247	
41,04	8,510	62,77	672,65	-7,247	
41,06	8,510	62,75	672,14	-7,247	
41,08	8,510	62,77	671,64	-7,247	
41,10	8,510	62,33	671,12	-7,248	
41,12	8,510	60,84	670,60	-7,248	
41,14	8,510	59,69	670,08	-7,248	
41,16	8,510	59,37	669,56	-7,249	
41,18	8,510	59,36	669,05	-7,249	
41,20	8,510	59,33	668,54	-7,249	
41,22	8,510	59,26	668,02	-7,249	
41,24	8,510	59,25	667,51	-7,250	
41,26	8,510	59,25	667,00	-7,250	
41,28	8,510	59,26	666,49	-7,250	
41,30	8,510	59,31	665,97	-7,250	
41,32	8,510	59,36	665,45	-7,251	
41,34	8,510	59,35	664,92	-7,251	
41,36	8,510	59,36	664,37	-7,251	
41,38	8,510	59,46	663,84	-7,251	
41,40	8,510	60,44	663,31	-7,251	
41,42	8,510	61,87	662,78	-7,252	
41,44	8,510	62,58	662,25	-7,252	
41,46	8,510	62,68	661,72	-7,252	
41,48	8,510	62,65	661,19	-7,252	
41,50	8,510	62,70	660,68	-7,252	
41,52	8,510	62,77	660,16	-7,253	
41,54	8,510	62,78	659,63	-7,253	
41,56	8,510	62,72	659,10	-7,253	
41,58	8,510	62,82	658,57	-7,253	
41,60	8,510	63,84	658,04	-7,254	
41,62	8,510	65,27	657,52	-7,254	
41,64	8,510	65,94	656,99	-7,254	
41,66	8,510	66,04	656,46	-7,251	
41,68	8,510	66,02	655,93	-7,247	
41,70	8,510	66,00	655,40	-7,245	
41,72	8,510	66,05	654,88	-7,245	
41,74	8,510	66,08	654,34	-7,245	
41,76	8,510	66,10	653,80	-7,246	
41,78	8,510	67,12	653,28	-7,246	
41,80	8,510	68,59	652,76	-7,246	
41,82	8,510	69,24	652,21	-7,246	
41,84	8,510	69,30	651,66	-7,246	
41,86	8,510	69,24	651,10	-7,247	
41,88	8,510	69,24	650,55	-7,248	
41,90	8,510	69,28	650,03	-7,253	
41,92	8,510	69,43	649,52	-7,256	
41,94	8,510	70,43	649,02	-7,257	
41,96	8,510	71,90	648,52	-7,257	
41,98	8,510	72,63	648,02	-7,258	
42,00	8,510	72,79	647,53	-7,258	
42,02	8,510	72,79	647,03	-7,258	
42,04	8,510	72,76	646,53	-7,258	
42,06	8,510	73,68	646,03	-7,258	
42,08	8,510	75,18	645,52	-7,259	
42,10	8,510	76,01	645,03	-7,259	
42,12	8,510	76,11	644,54	-7,259	
42,14	8,510	76,05	644,06	-7,259	
42,16	8,510	76,10	643,56	-7,259	
42,18	8,510	76,57	643,07	-7,260	
42,20	8,510	78,05	642,58	-7,260	
42,22	8,510	79,23	642,10	-7,260	
42,24	8,510	79,59	641,60	-7,260	
42,26	8,510	79,64	641,10	-7,260	
42,28	8,510	79,62	640,59	-7,261	
42,30	8,510	79,56	640,10	-7,261	
42,32	8,510	79,56	639,60	-7,261	
42,34	8,510	79,99	639,10	-7,261	
42,36	8,510	81,48	638,59	-7,261	
42,38	8,510	82,65	638,08	-7,262	
42,40	8,510	82,95	637,56	-7,262	
42,42	8,510	82,94	637,03	-7,262	
42,44	8,510	82,93	636,51	-7,262	
42,46	8,510	82,87	635,99	-7,262	
42,48	8,510	82,90	635,47	-7,263	
42,50	8,510	83,95	634,95	-7,263	
42,52	8,510	85,55	634,45	-7,263	
42,54	8,510	86,30	633,95	-7,263	
42,56	8,510	86,39	633,43	-7,263	
42,58	8,510	86,37	632,92	-7,264	
42,60	8,510	86,34	632,42	-7,264	
42,62	8,510	86,35	631,92	-7,264	
42,64	8,510	87,26	631,41	-7,264	
42,66	8,510	88,70	630,91	-7,264	
42,68	8,510	89,43	630,40	-7,265	
42,70	8,510	89,56	629,88	-7,265	
42,72	8,510	89,57	629,38	-7,265	
42,74	8,510	89,61	628,86	-7,265	
42,76	8,510	89,60	628,37	-7,265	
42,78	8,510	89,92	627,87	-7,266	
42,80	8,510	91,36	627,37	-7,266	
42,82	8,510	92,56	626,88	-7,266	
42,84	8,510	92,95	626,37	-7,266	
42,86	8,510	92,93	625,88	-7,266	
42,88	8,510	92,83	625,39	-7,267	
42,90	8,510	93,19	624,89	-7,267	
42,92	8,510	94,66	624,39	-7,267	
42,94	8,510	95,81	623,88	-7,267	
42,96	8,510	96,15	623,38	-7,267	
42,98	8,510	96,18	622,89	-7,268	
43,00	8,510	96,17	622,41	-7,268	
43,02	8,510	96,59	621,91	-7,268	
43,04	8,510	98,03	621,40	-7,268	
43,06	8,510	99,22	620,90	-7,268	
43,08	8,510	99,63	620,41	-7,269	
43,10	8,510	99,60	619,93	-7,269	
43,12	8,510	99,52	619,43	-7,269	
43,14	8,510	99,51	618,94	-7,269	
43,16	8,510	99,61	618,46	-7,269	
43,18	8,510	100,65	617,98	-7,270	
43,20	8,510	102,21	617,48	-7,270	
43,22	8,510	103,01	616,97	-7,270	
43,24	8,510	103,14	616,49	-7,270	
43,26	8,510	103,06	616,03	-7,270	
43,28	8,510	103,46	615,57	-7,271	
43,30	8,510	104,96	615,11	-7,271	
43,32	8,510	106,13	614,62	-7,271	
43,34	8,510	106,49	614,13	-7,271	
43,36	8,510	106,47	613,64	-7,271	
43,38	8,510	106,48	613,17	-7,272	
43,40	8,510	107,50	612,70	-7,272	
43,42	8,510	109,01	612,21	-7,272	
43,44	8,510	109,71	611,71	-7,272	
43,46	8,510	109,87	611,22	-7,272	
43,48	8,510	110,86	610,75	-7,272	
43,50	8,510	112,31	610,26	-7,273	
43,52	8,510	113,02	609,78	-7,273	
43,54	8,510	113,17	609,29	-7,273	
43,56	8,510	113,21	608,79	-7,273	
43,58	8,510	113,25	608,29	-7,273	
43,60	8,510	113,59	607,79	-7,274	
43,62	8,510	115,01	607,29	-7,274	
43,64	8,510	116,18	606,79	-7,274	
43,66	8,510	116,58	606,30	-7,274	
43,68	8,510	116,63	605,83	-7,275	
43,70	8,510	117,00	605,37	-7,275	
43,72	8,510	118,43	604,88	-7,275	
43,74	8,510	119,52	604,39	-7,275	
43,76	8,510	119,84	603,88	-7,275	
43,78	8,510	119,89	603,36	-7,276	
43,80	8,510	120,85	602,85	-7,276	
43,82	8,510	122,30	602,34	-7,276	
43,84	8,510	123,05	601,84	-7,276	
43,86	8,510	123,20	601,35	-7,276	
43,88	8,510	123,13	600,87	-7,277	
43,90	8,510	123,15	600,40	-7,277	
43,92	8,510	123,56	599,90	-7,277	
43,94	8,510	124,98	599,41	-7,277	
43,96	8,510	126,12	598,93	-7,277	
43,98	8,510	126,48	598,45	-7,278	
44,00	8,510	126,51	597,97	-7,278	
44,02	8,510	126,88	597,48	-7,278	
44,04	8,510	128,39	596,99	-7,278	
44,06	8,510	129,64	596,51	-7,278	
44,08	8,510	129,98	596,03	-7,279	
44,10	8,510	129,89	595,54	-7,279	
44,12	8,510	129,74	595,05	-7,279	
44,14	8,510	130,10	594,56	-7,279	
44,16	8,510	131,67	594,08	-7,279	
44,18	8,510	132,90	593,62	-7,280	
44,20	8,510	133,21	593,15	-7,280	
44,22	8,510	133,21	592,67	-7,280	
44,24	8,510	133,25	592,20	-7,280	
44,26	8,510	133,33	591,72	-7,281	
44,28	8,510	134,34	591,25	-7,281	
44,30	8,510	135,86	590,77	-7,281	
44,32	8,510	136,66	590,29	-7,281	
44,34	8,510	136,78	589,82	-7,281	
44,36	8,510	136,75	589,33	-7,282	
44,38	8,510	136,73	588,82	-7,282	
44,40	8,510	137,04	588,31	-7,282	
44,42	8,510	138,45	587,84	-7,282	
44,44	8,510	139,63	587,38	-7,282	
44,46	8,510	140,04	586,91	-7,282	
44,48	8,510	140,05	586,43	-7,283	
44,50	8,510	139,97	585,97	-7,283	
44,52	8,510	139,95	585,50	-7,283	
44,54	8,510	140,28	585,02	-7,283	
44,56	8,510	141,79	584,51	-7,283	