Zeit  1 - Standardmessrate [s]	ZwickWeg [mm]	ZwickKraft [N]	Pyrometer [°C]	Maytec [mm]
0	-0,3276	158,61	150,02	0,03882	
0,02000	-0,3276	158,58	150,02	0,03875	
0,04000	-0,3276	158,58	150,02	0,03866	
0,06000	-0,3276	158,56	150,02	0,03862	
0,08000	-0,3276	158,54	150,02	0,03867	
0,1000	-0,3276	158,58	150,02	0,03868	
0,1200	-0,3277	158,66	150,02	0,03871	
0,1400	-0,3277	158,69	150,02	0,03880	
0,1600	-0,3276	158,71	150,02	0,03876	
0,1800	-0,3276	158,72	150,02	0,03865	
0,2000	-0,3276	158,72	150,02	0,03856	
0,2200	-0,3276	158,66	150,02	0,03857	
0,2400	-0,3277	158,72	150,02	0,03868	
0,2600	-0,3276	158,70	150,02	0,03886	
0,2800	-0,3276	158,60	150,02	0,03899	
0,3000	-0,3276	158,59	150,02	0,03894	
0,3200	-0,3276	158,62	150,02	0,03874	
0,3400	-0,3276	158,65	150,02	0,03859	
0,3600	-0,3276	158,66	150,02	0,03857	
0,3800	-0,3276	158,63	150,02	0,03864	
0,4000	-0,3276	158,67	150,02	0,03865	
0,4200	-0,3276	158,67	150,02	0,03867	
0,4400	-0,3277	158,63	150,02	0,03876	
0,4600	-0,3277	158,66	150,02	0,03877	
0,4800	-0,3276	158,67	150,02	0,03866	
0,5000	-0,3276	158,66	150,02	0,03861	
0,5200	-0,3276	158,68	150,02	0,03863	
0,5400	-0,3276	158,65	150,02	0,03868	
0,5600	-0,3276	158,64	150,02	0,03876	
0,5800	-0,3277	158,62	150,02	0,03882	
0,6000	-0,3277	158,53	150,02	0,03876	
0,6200	-0,3277	158,55	150,02	0,03862	
0,6400	-0,3277	158,64	150,02	0,03857	
0,6600	-0,3277	158,64	150,02	0,03859	
0,6800	-0,3276	158,58	150,02	0,03867	
0,7000	-0,3276	158,58	150,02	0,03877	
0,7200	-0,3276	158,61	150,02	0,03886	
0,7400	-0,3276	158,58	150,02	0,03882	
0,7600	-0,3276	158,58	150,02	0,03871	
0,7800	-0,3276	158,56	150,02	0,03863	
0,8000	-0,3276	158,58	150,02	0,03862	
0,8200	-0,3276	158,67	150,02	0,03870	
0,8400	-0,3276	158,69	150,02	0,03875	
0,8600	-0,3276	158,68	150,02	0,03880	
0,8800	-0,3276	158,67	150,02	0,03883	
0,9000	-0,3276	158,69	150,02	0,03874	
0,9200	-0,3276	158,63	150,02	0,03866	
0,9400	-0,3276	158,58	150,02	0,03864	
0,9600	-0,3276	158,57	150,02	0,03866	
0,9800	-0,3276	158,56	150,02	0,03873	
1,000	-0,3276	158,56	150,02	0,03883	
1,020	-0,3276	158,54	150,02	0,03888	
1,040	-0,3277	158,55	150,02	0,03880	
1,060	-0,3277	158,56	150,02	0,03866	
1,080	-0,3277	158,63	150,02	0,03863	
1,100	-0,3277	158,66	150,02	0,03868	
1,120	-0,3277	158,60	150,02	0,03880	
1,140	-0,3277	158,52	150,02	0,03882	
1,160	-0,3277	158,50	150,02	0,03882	
1,180	-0,3277	158,51	150,02	0,03875	
1,200	-0,3277	158,57	150,02	0,03860	
1,220	-0,3277	158,67	150,02	0,03854	
1,240	-0,3277	158,68	150,02	0,03855	
1,260	-0,3276	158,66	150,02	0,03863	
1,280	-0,3277	158,57	150,02	0,03871	
1,300	-0,3277	158,54	150,02	0,03879	
1,320	-0,3277	158,53	150,02	0,03879	
1,340	-0,3277	158,50	150,02	0,03867	
1,360	-0,3277	158,49	150,02	0,03856	
1,380	-0,3277	158,52	150,02	0,03853	
1,400	-0,3277	158,57	150,02	0,03859	
1,420	-0,3277	158,66	150,02	0,03868	
1,440	-0,3277	158,67	150,02	0,03879	
1,460	-0,3277	158,56	150,02	0,03882	
1,480	-0,3277	158,56	150,02	0,03869	
1,500	-0,3277	158,61	150,02	0,03855	
1,520	-0,3277	158,69	150,02	0,03852	
1,540	-0,3277	158,69	150,02	0,03862	
1,560	-0,3277	158,61	150,02	0,03876	
1,580	-0,3277	158,62	150,02	0,03886	
1,600	-0,3276	158,64	150,02	0,03885	
1,620	-0,3276	158,61	150,02	0,03868	
1,640	-0,3277	158,63	150,02	0,03857	
1,660	-0,3276	158,71	150,02	0,03855	
1,680	-0,3276	158,71	150,02	0,03858	
1,700	-0,3276	158,58	150,02	0,03866	
1,720	-0,3276	158,52	150,02	0,03871	
1,740	-0,3276	158,54	150,02	0,03876	
1,760	-0,3276	158,55	150,02	0,03878	
1,780	-0,3276	158,60	150,02	0,03866	
1,800	-0,3276	158,62	150,02	0,03858	
1,820	-0,3276	158,63	150,02	0,03861	
1,840	-0,3276	158,56	150,02	0,03864	
1,860	-0,3276	158,52	150,02	0,03874	
1,880	-0,3276	158,54	150,02	0,03886	
1,900	-0,3276	158,55	150,02	0,03883	
1,920	-0,3276	158,53	150,02	0,03865	
1,940	-0,3276	158,52	150,02	0,03849	
1,960	-0,3276	158,54	150,02	0,03846	
1,980	-0,3276	158,53	150,02	0,03860	
2,000	-0,3276	158,53	150,02	0,03878	
2,020	-0,3277	158,59	150,02	0,03886	
2,040	-0,3277	158,65	150,02	0,03884	
2,060	-0,3277	158,63	150,02	0,03874	
2,080	-0,3276	158,66	150,02	0,03864	
2,100	-0,3276	158,66	150,02	0,03862	
2,120	-0,3276	158,62	150,02	0,03868	
2,140	-0,3276	158,62	150,02	0,03876	
2,160	-0,3276	158,62	150,02	0,03884	
2,180	-0,3276	158,60	150,02	0,03883	
2,200	-0,3276	158,56	150,02	0,03871	
2,220	-0,3277	158,53	150,02	0,03859	
2,240	-0,3277	158,53	150,02	0,03860	
2,260	-0,3276	158,56	150,02	0,03869	
2,280	-0,3277	158,57	150,02	0,03880	
2,300	-0,3276	158,60	150,02	0,03885	
2,320	-0,3276	158,61	150,02	0,03885	
2,340	-0,3276	158,60	150,02	0,03878	
2,360	-0,3276	158,57	150,02	0,03861	
2,380	-0,3276	158,58	150,02	0,03854	
2,400	-0,3277	158,57	150,02	0,03854	
2,420	-0,3277	158,53	150,02	0,03861	
2,440	-0,3277	158,57	150,02	0,03874	
2,460	-0,3277	158,66	150,02	0,03888	
2,480	-0,3277	158,66	150,02	0,03888	
2,500	-0,3277	158,61	150,02	0,03874	
2,520	-0,3277	158,55	150,02	0,03867	
2,540	-0,3277	158,52	150,02	0,03864	
2,560	-0,3277	158,52	150,02	0,03863	
2,580	-0,3277	158,49	150,02	0,03877	
2,600	-0,3277	158,46	150,02	0,03883	
2,620	-0,3277	158,54	150,02	0,03883	
2,640	-0,3277	158,61	150,02	0,03877	
2,660	-0,3277	158,63	150,02	0,03861	
2,680	-0,3277	158,67	150,02	0,03860	
2,700	-0,3277	158,66	150,02	0,03872	
2,720	-0,3277	158,62	150,02	0,03881	
2,740	-0,3277	158,58	150,02	0,03883	
2,760	-0,3277	158,58	150,02	0,03881	
2,780	-0,3277	158,61	150,02	0,03874	
2,800	-0,3277	158,63	150,02	0,03862	
2,820	-0,3276	158,59	150,02	0,03855	
2,840	-0,3276	158,54	150,02	0,03861	
2,860	-0,3277	158,57	150,02	0,03871	
2,880	-0,3277	158,58	150,02	0,03872	
2,900	-0,3277	158,56	150,02	0,03876	
2,920	-0,3277	158,58	150,02	0,03885	
2,940	-0,3277	158,61	150,02	0,03873	
2,960	-0,3277	158,63	150,02	0,03855	
2,980	-0,3277	158,54	150,02	0,03853	
3,000	-0,3276	158,48	150,02	0,03869	
3,020	-0,3276	158,44	150,02	0,03879	
3,040	-0,3276	158,40	150,02	0,03885	
3,060	-0,3276	158,36	150,02	0,03887	
3,080	-0,3277	158,35	150,02	0,03875	
3,100	-0,3277	158,43	150,02	0,03858	
3,120	-0,3277	158,49	150,02	0,03851	
3,140	-0,3276	158,49	150,02	0,03861	
3,160	-0,3276	158,56	150,02	0,03878	
3,180	-0,3276	158,61	150,02	0,03882	
3,200	-0,3276	158,59	150,02	0,03881	
3,220	-0,3277	158,58	150,02	0,03875	
3,240	-0,3277	158,49	150,02	0,03865	
3,260	-0,3276	158,45	150,02	0,03861	
3,280	-0,3276	158,46	150,02	0,03866	
3,300	-0,3276	158,45	150,02	0,03877	
3,320	-0,3276	158,40	150,02	0,03891	
3,340	-0,3276	158,42	150,02	0,03890	
3,360	-0,3276	158,49	150,02	0,03885	
3,380	-0,3276	158,55	150,02	0,03872	
3,400	-0,3276	158,58	150,02	0,03858	
3,420	-0,3277	158,49	150,02	0,03859	
3,440	-0,3276	158,38	150,02	0,03869	
3,460	-0,3276	158,37	150,02	0,03880	
3,480	-0,3277	158,39	150,02	0,03886	
3,500	-0,3276	158,43	150,02	0,03884	
3,520	-0,3276	158,42	150,02	0,03877	
3,540	-0,3276	158,38	150,02	0,03871	
3,560	-0,3276	158,40	150,01	0,03867	
3,580	-0,3276	158,49	150,01	0,03873	
3,600	-0,3276	158,55	150,01	0,03880	
3,620	-0,3276	158,53	150,01	0,03885	
3,640	-0,3277	158,48	150,01	0,03879	
3,660	-0,3277	158,44	150,02	0,03869	
3,680	-0,3277	158,48	150,02	0,03866	
3,700	-0,3277	158,51	150,02	0,03869	
3,720	-0,3277	158,51	150,02	0,03872	
3,740	-0,3277	158,48	150,02	0,03881	
3,760	-0,3277	158,45	150,02	0,03889	
3,780	-0,3277	158,47	150,02	0,03890	
3,800	-0,3277	158,51	150,02	0,03883	
3,820	-0,3277	158,47	150,02	0,03869	
3,840	-0,3277	158,43	150,02	0,03859	
3,860	-0,3277	158,48	150,02	0,03863	
3,880	-0,3277	158,53	150,02	0,03879	
3,900	-0,3277	158,51	150,02	0,03889	
3,920	-0,3277	158,53	150,02	0,03890	
3,940	-0,3277	158,56	150,02	0,03883	
3,960	-0,3277	158,52	150,02	0,03874	
3,980	-0,3276	158,47	150,02	0,03866	
4,000	-0,3277	158,51	150,02	0,03863	
4,020	-0,3277	158,57	150,02	0,03870	
4,040	-0,3277	158,57	150,02	0,03880	
4,060	-0,3276	158,54	150,02	0,03886	
4,080	-0,3276	158,57	150,02	0,03885	
4,100	-0,3277	158,61	150,02	0,03870	
4,120	-0,3277	158,62	150,02	0,03860	
4,140	-0,3277	158,60	150,02	0,03856	
4,160	-0,3277	158,58	150,02	0,03861	
4,180	-0,3277	158,63	150,02	0,03871	
4,200	-0,3277	158,67	150,02	0,03881	
4,220	-0,3277	158,69	150,02	0,03882	
4,240	-0,3277	158,70	150,02	0,03870	
4,260	-0,3277	158,66	150,02	0,03853	
4,280	-0,3277	158,61	150,02	0,03847	
4,300	-0,3277	158,64	150,02	0,03855	
4,320	-0,3277	158,68	150,02	0,03867	
4,340	-0,3277	158,63	150,02	0,03881	
4,360	-0,3277	158,60	150,02	0,03888	
4,380	-0,3277	158,57	150,02	0,03881	
4,400	-0,3277	158,61	150,02	0,03872	
4,420	-0,3277	158,69	150,02	0,03868	
4,440	-0,3276	158,68	150,02	0,03865	
4,460	-0,3277	158,59	150,02	0,03868	
4,480	-0,3277	158,51	150,02	0,03877	
4,500	-0,3277	158,54	150,02	0,03885	
4,520	-0,3276	158,61	150,02	0,03892	
4,540	-0,3277	158,66	150,02	0,03883	
4,560	-0,3277	158,65	150,02	0,03870	
4,580	-0,3277	158,61	150,02	0,03869	
4,600	-0,3277	158,62	150,02	0,03871	
4,620	-0,3276	158,66	150,02	0,03874	
4,640	-0,3276	158,71	150,02	0,03878	
4,660	-0,3276	158,72	150,02	0,03881	
4,680	-0,3276	158,69	150,02	0,03880	
4,700	-0,3276	158,68	150,02	0,03870	
4,720	-0,3276	158,72	150,02	0,03857	
4,740	-0,3276	158,73	150,02	0,03858	
4,760	-0,3277	158,70	150,02	0,03867	
4,780	-0,3277	158,71	150,02	0,03875	
4,800	-0,3277	158,73	150,02	0,03887	
4,820	-0,3277	158,67	150,02	0,03887	
4,840	-0,3277	158,62	150,02	0,03871	
4,860	-0,3277	158,63	150,02	0,03856	
4,880	-0,3277	158,65	150,02	0,03860	
4,900	-0,3277	158,66	150,02	0,03868	
4,920	-0,3277	158,64	150,02	0,03871	
4,940	-0,3276	158,63	150,02	0,03873	
4,960	-0,3276	158,64	150,02	0,03875	
4,980	-0,3276	158,63	150,02	0,03864	
5,000	-0,3276	158,66	150,02	0,03854	
5,020	-0,3276	158,66	150,02	0,03850	
5,040	-0,3276	158,57	150,02	0,03854	
5,060	-0,3276	158,57	150,02	0,03865	
5,080	-0,3277	158,64	150,02	0,03873	
5,100	-0,3277	158,70	150,02	0,03870	
5,120	-0,3277	158,69	150,02	0,03863	
5,140	-0,3277	158,69	150,02	0,03856	
5,160	-0,3277	158,66	150,02	0,03853	
5,180	-0,3277	158,58	150,02	0,03857	
5,200	-0,3277	158,57	150,02	0,03870	
5,220	-0,3277	158,59	150,02	0,03879	
5,240	-0,3277	158,63	150,02	0,03880	
5,260	-0,3276	158,64	150,02	0,03876	
5,280	-0,3277	158,65	150,02	0,03862	
5,300	-0,3277	158,70	150,02	0,03850	
5,320	-0,3277	158,72	150,02	0,03852	
5,340	-0,3277	158,65	150,02	0,03864	
5,360	-0,3277	158,50	150,02	0,03880	
5,380	-0,3277	158,44	150,02	0,03885	
5,400	-0,3277	158,42	150,02	0,03874	
5,420	-0,3277	158,40	150,02	0,03859	
5,440	-0,3277	158,43	150,02	0,03848	
5,460	-0,3277	158,45	150,02	0,03846	
5,480	-0,3277	158,46	150,02	0,03858	
5,500	-0,3277	158,48	150,02	0,03869	
5,520	-0,3277	158,50	150,02	0,03878	
5,540	-0,3277	158,52	150,02	0,03882	
5,560	-0,3277	158,57	150,02	0,03876	
5,580	-0,3277	158,60	150,02	0,03868	
5,600	-0,3277	158,63	150,02	0,03866	
5,620	-0,3276	158,62	150,02	0,03871	
5,640	-0,3276	158,57	150,02	0,03882	
5,660	-0,3277	158,58	150,02	0,03887	
5,680	-0,3277	158,60	150,02	0,03884	
5,700	-0,3277	158,63	150,02	0,03871	
5,720	-0,3277	158,61	150,02	0,03858	
5,740	-0,3277	158,63	150,02	0,03854	
5,760	-0,3277	158,68	150,02	0,03859	
5,780	-0,3277	158,68	150,02	0,03872	
5,800	-0,3276	158,66	150,02	0,03882	
5,820	-0,3276	158,70	150,02	0,03878	
5,840	-0,3276	158,69	150,02	0,03871	
5,860	-0,3277	158,69	150,02	0,03863	
5,880	-0,3277	158,75	150,02	0,03854	
5,900	-0,3277	158,78	150,02	0,03853	
5,920	-0,3277	158,73	150,02	0,03863	
5,940	-0,3277	158,70	150,02	0,03881	
5,960	-0,3277	158,65	150,02	0,03893	
5,980	-0,3277	158,62	150,02	0,03885	
6,000	-0,3277	158,59	150,02	0,03869	
6,020	-0,3277	158,50	150,02	0,03865	
6,040	-0,3277	158,42	150,02	0,03867	
6,060	-0,3277	158,41	150,02	0,03873	
6,080	-0,3276	158,44	150,02	0,03887	
6,100	-0,3276	158,50	150,02	0,03886	
6,120	-0,3276	158,53	150,02	0,03876	
6,140	-0,3276	158,50	150,02	0,03864	
6,160	-0,3276	158,49	150,02	0,03852	
6,180	-0,3277	158,47	150,02	0,03845	
6,200	-0,3277	158,50	150,02	0,03846	
6,220	-0,3277	158,54	150,02	0,03861	
6,240	-0,3277	158,55	150,02	0,03874	
6,260	-0,3277	158,54	150,02	0,03879	
6,280	-0,3277	158,55	150,02	0,03878	
6,300	-0,3277	158,52	150,02	0,03868	
6,320	-0,3277	158,51	150,02	0,03863	
6,340	-0,3277	158,54	150,02	0,03862	
6,360	-0,3277	158,55	150,02	0,03868	
6,380	-0,3277	158,60	150,02	0,03878	
6,400	-0,3277	158,64	150,02	0,03889	
6,420	-0,3277	158,65	150,02	0,03888	
6,440	-0,3277	158,58	150,02	0,03875	
6,460	-0,3277	158,55	150,02	0,03863	
6,480	-0,3277	158,60	150,02	0,03858	
6,500	-0,3277	158,64	150,02	0,03861	
6,520	-0,3277	158,61	150,02	0,03868	
6,540	-0,3277	158,56	150,02	0,03872	
6,560	-0,3276	158,50	150,02	0,03870	
6,580	-0,3276	158,54	150,02	0,03865	
6,600	-0,3276	158,61	150,02	0,03858	
6,620	-0,3276	158,61	150,02	0,03857	
6,640	-0,3277	158,58	150,02	0,03863	
6,660	-0,3277	158,55	150,02	0,03871	
6,680	-0,3277	158,51	150,02	0,03882	
6,700	-0,3277	158,48	150,02	0,03887	
6,720	-0,3277	158,49	150,02	0,03873	
6,740	-0,3277	158,51	150,02	0,03855	
6,760	-0,3277	158,54	150,02	0,03847	
6,780	-0,3277	158,56	150,02	0,03856	
6,800	-0,3277	158,57	150,02	0,03870	
6,820	-0,3277	158,63	150,02	0,03881	
6,840	-0,3277	158,69	150,02	0,03884	
6,860	-0,3277	158,69	150,02	0,03879	
6,880	-0,3277	158,67	150,02	0,03869	
6,900	-0,3277	158,71	150,02	0,03854	
6,920	-0,3277	158,78	150,02	0,03849	
6,940	-0,3277	158,77	150,02	0,03856	
6,960	-0,3277	158,72	150,02	0,03866	
6,980	-0,3277	158,68	150,02	0,03877	
7,000	-0,3277	158,63	150,02	0,03882	
7,020	-0,3277	158,63	150,02	0,03874	
7,040	-0,3277	158,63	150,02	0,03859	
7,060	-0,3277	158,69	150,02	0,03859	
7,080	-0,3277	158,71	150,02	0,03868	
7,100	-0,3277	158,63	150,02	0,03875	
7,120	-0,3277	158,55	150,02	0,03886	
7,140	-0,3277	158,57	150,02	0,03889	
7,160	-0,3277	158,64	150,02	0,03882	
7,180	-0,3277	158,66	150,02	0,03866	
7,200	-0,3277	158,66	150,02	0,03854	
7,220	-0,3276	158,65	150,02	0,03859	
7,240	-0,3276	158,66	150,02	0,03871	
7,260	-0,3276	158,65	150,02	0,03880	
7,280	-0,3276	158,60	150,02	0,03881	
7,300	-0,3276	158,54	150,02	0,03874	
7,320	-0,3276	158,49	150,02	0,03862	
7,340	-0,3276	158,50	150,02	0,03857	
7,360	-0,3276	158,48	150,02	0,03857	
7,380	-0,3276	158,39	150,02	0,03865	
7,400	-0,3277	158,40	150,02	0,03883	
7,420	-0,3277	158,51	150,02	0,03888	
7,440	-0,3276	158,55	150,02	0,03878	
7,460	-0,3276	158,47	150,02	0,03867	
7,480	-0,3277	158,48	150,02	0,03862	
7,500	-0,3276	158,48	150,02	0,03860	
7,520	-0,3276	158,44	150,02	0,03865	
7,540	-0,3277	158,46	150,02	0,03875	
7,560	-0,3277	158,56	150,02	0,03885	
7,580	-0,3277	158,63	150,02	0,03884	
7,600	-0,3277	158,58	150,02	0,03872	
7,620	-0,3277	158,52	150,02	0,03863	
7,640	-0,3277	158,53	150,02	0,03857	
7,660	-0,3277	158,60	150,02	0,03861	
7,680	-0,3277	158,60	150,02	0,03875	
7,700	-0,3277	158,54	150,02	0,03884	
7,720	-0,3277	158,54	150,02	0,03882	
7,740	-0,3277	158,58	150,02	0,03873	
7,760	-0,3276	158,56	150,02	0,03860	
7,780	-0,3276	158,59	150,02	0,03850	
7,800	-0,3276	158,57	150,02	0,03852	
7,820	-0,3276	158,50	150,02	0,03866	
7,840	-0,3277	158,48	150,02	0,03877	
7,860	-0,3276	158,56	150,02	0,03882	
7,880	-0,3276	158,59	150,02	0,03885	
7,900	-0,3276	158,56	150,02	0,03872	
7,920	-0,3276	158,58	150,02	0,03858	
7,940	-0,3276	158,58	150,02	0,03857	
7,960	-0,3276	158,52	150,02	0,03866	
7,980	-0,3276	158,51	150,02	0,03874	
8,000	-0,3277	158,50	150,02	0,03877	
8,020	-0,3277	158,52	150,02	0,03876	
8,040	-0,3277	158,55	150,02	0,03865	
8,060	-0,3277	158,54	150,02	0,03855	
8,080	-0,3277	158,53	150,02	0,03848	
8,100	-0,3276	158,52	150,02	0,03854	
8,120	-0,3276	158,52	150,02	0,03867	
8,140	-0,3276	158,55	150,02	0,03882	
8,160	-0,3276	158,56	150,02	0,03892	
8,180	-0,3276	158,58	150,02	0,03883	
8,200	-0,3276	158,60	150,02	0,03867	
8,220	-0,3277	158,60	150,02	0,03861	
8,240	-0,3277	158,60	150,02	0,03863	
8,260	-0,3277	158,61	150,02	0,03872	
8,280	-0,3277	158,63	150,02	0,03886	
8,300	-0,3277	158,65	150,02	0,03891	
8,320	-0,3277	158,60	150,02	0,03887	
8,340	-0,3277	158,57	150,02	0,03875	
8,360	-0,3277	158,63	150,02	0,03862	
8,380	-0,3277	158,63	150,02	0,03855	
8,400	-0,3277	158,61	150,02	0,03863	
8,420	-0,3277	158,58	150,02	0,03871	
8,440	-0,3277	158,57	150,02	0,03874	
8,460	-0,3277	158,54	150,02	0,03878	
8,480	-0,3277	158,50	150,02	0,03876	
8,500	-0,3277	158,46	150,02	0,03868	
8,520	-0,3277	158,44	150,02	0,03861	
8,540	-0,3277	158,44	150,02	0,03861	
8,560	-0,3277	158,44	150,02	0,03872	
8,580	-0,3277	158,43	150,02	0,03882	
8,600	-0,3277	158,48	150,02	0,03885	
8,620	-0,3277	158,52	150,02	0,03881	
8,640	-0,3276	158,55	150,02	0,03908	
8,660	-0,3276	158,52	150,02	0,03971	
8,680	-0,3276	158,48	150,02	0,04014	
8,700	-0,3277	158,51	150,02	0,04034	
8,720	-0,3276	158,52	150,02	0,04042	
8,740	-0,3276	158,56	150,02	0,04046	
8,760	-0,3276	158,56	150,02	0,04035	
8,780	-0,3276	158,53	150,02	0,04018	
8,800	-0,3277	158,55	150,02	0,04015	
8,820	-0,3277	158,60	150,02	0,04020	
8,840	-0,3277	158,61	150,02	0,04024	
8,860	-0,3277	158,60	150,02	0,04030	
8,880	-0,3277	158,61	150,02	0,03972	
8,900	-0,3277	158,65	150,02	0,03901	
8,920	-0,3277	158,63	150,02	0,03870	
8,940	-0,3277	158,65	150,02	0,03862	
8,960	-0,3277	158,69	150,02	0,03859	
8,980	-0,3277	158,64	150,02	0,03870	
9,000	-0,3276	158,64	150,02	0,03882	
9,020	-0,3276	158,67	150,02	0,03886	
9,040	-0,3276	158,69	150,02	0,03887	
9,060	-0,3277	158,62	150,02	0,03877	
9,080	-0,3277	158,56	150,02	0,03856	
9,100	-0,3277	158,58	150,02	0,03851	
9,120	-0,3277	158,54	150,02	0,03861	
9,140	-0,3277	158,57	150,02	0,03874	
9,160	-0,3276	158,65	150,02	0,03887	
9,180	-0,3276	158,65	150,02	0,03885	
9,200	-0,3277	158,80	150,03	0,03872	
9,220	-0,3282	160,84	150,15	0,03807	
9,240	-0,3275	136,40	149,99	0,03708	
9,260	-0,3273	90,79	149,94	0,03720	
9,280	-0,3275	48,43	149,99	0,03774	
9,300	-0,3271	16,60	150,02	0,03804	
9,320	-0,3239	-4,059	150,03	0,03816	
9,340	-0,3178	3,398	150,02	0,03816	
9,360	-0,3118	41,41	150,02	0,03800	
9,380	-0,3076	82,58	150,02	0,03793	
9,400	-0,3051	115,24	150,02	0,03792	
9,420	-0,3036	137,16	150,02	0,03803	
9,440	-0,3030	150,33	150,02	0,03813	
9,460	-0,3028	157,40	150,02	0,03823	
9,480	-0,3028	160,86	150,02	0,03822	
9,500	-0,3028	161,97	150,02	0,03809	
9,520	-0,3028	162,11	150,02	0,03803	
9,540	-0,3028	162,00	150,02	0,03803	
9,560	-0,3028	161,98	150,02	0,03811	
9,580	-0,3028	161,98	150,02	0,03821	
9,600	-0,3029	161,91	150,03	0,03829	
9,620	-0,3031	161,90	150,02	0,03833	
9,640	-0,3034	161,94	150,02	0,03825	
9,660	-0,3035	161,96	150,02	0,03819	
9,680	-0,3035	162,04	150,02	0,03811	
9,700	-0,3035	162,06	150,02	0,03810	
9,720	-0,3035	162,02	150,02	0,03818	
9,740	-0,3035	162,00	150,02	0,03827	
9,760	-0,3036	161,99	150,02	0,03833	
9,780	-0,3039	162,04	150,02	0,03820	
9,800	-0,3041	162,14	150,02	0,03807	
9,820	-0,3041	162,12	150,02	0,03807	
9,840	-0,3041	162,07	150,02	0,03812	
9,860	-0,3042	162,06	150,02	0,03818	
9,880	-0,3042	161,35	150,02	0,03829	
9,900	-0,3042	159,82	150,02	0,03842	
9,920	-0,3042	158,92	150,02	0,03842	
9,940	-0,3042	158,66	150,02	0,03825	
9,960	-0,3043	158,63	150,02	0,03812	
9,980	-0,3046	158,58	150,02	0,03809	
10,00	-0,3048	158,56	150,03	0,03811	
10,02	-0,3048	158,52	150,02	0,03820	
10,04	-0,3048	158,72	150,02	0,03834	
10,06	-0,3048	159,89	150,02	0,03833	
10,08	-0,3048	159,99	150,02	0,03824	
10,10	-0,3048	159,20	150,02	0,03815	
10,12	-0,3048	158,77	150,02	0,03811	
10,14	-0,3048	158,62	150,02	0,03819	
10,16	-0,3048	158,53	150,02	0,03829	
10,18	-0,3048	158,57	150,02	0,03839	
10,20	-0,3048	158,63	150,02	0,03846	
10,22	-0,3048	158,58	150,02	0,03839	
10,24	-0,3048	158,60	150,02	0,03824	
10,26	-0,3048	158,67	150,02	0,03811	
10,28	-0,3048	158,75	150,02	0,03810	
10,30	-0,3048	158,73	150,02	0,03819	
10,32	-0,3051	158,76	150,02	0,03832	
10,34	-0,3054	158,78	150,02	0,03839	
10,36	-0,3055	158,70	150,02	0,03838	
10,38	-0,3055	158,66	150,02	0,03825	
10,40	-0,3055	158,76	150,02	0,03806	
10,42	-0,3055	158,74	150,02	0,03808	
10,44	-0,3055	158,71	150,02	0,03820	
10,46	-0,3055	158,78	150,02	0,03839	
10,48	-0,3055	158,84	150,02	0,03848	
10,50	-0,3055	158,82	150,02	0,03838	
10,52	-0,3055	158,79	150,02	0,03821	
10,54	-0,3055	158,76	150,02	0,03812	
10,56	-0,3055	158,71	150,02	0,03811	
10,58	-0,3055	158,73	150,02	0,03812	
10,60	-0,3055	158,73	150,02	0,03819	
10,62	-0,3055	158,77	150,02	0,03831	
10,64	-0,3055	158,83	150,02	0,03835	
10,66	-0,3055	158,88	150,02	0,03830	
10,68	-0,3055	158,82	150,02	0,03816	
10,70	-0,3055	158,76	150,02	0,03813	
10,72	-0,3055	158,78	150,02	0,03812	
10,74	-0,3055	158,78	150,02	0,03817	
10,76	-0,3055	158,73	150,02	0,03831	
10,78	-0,3055	158,68	150,02	0,03836	
10,80	-0,3055	158,72	150,03	0,03834	
10,82	-0,3055	158,76	150,03	0,03824	
10,84	-0,3055	158,77	150,02	0,03812	
10,86	-0,3055	158,79	150,02	0,03814	
10,88	-0,3058	158,75	150,02	0,03823	
10,90	-0,3060	158,71	150,02	0,03832	
10,92	-0,3061	158,74	150,02	0,03839	
10,94	-0,3061	158,68	150,02	0,03833	
10,96	-0,3061	158,65	150,02	0,03816	
10,98	-0,3061	158,67	150,02	0,03810	
11,00	-0,3061	158,68	150,02	0,03806	
11,02	-0,3061	158,67	150,02	0,03817	
11,04	-0,3061	158,61	150,02	0,03832	
11,06	-0,3062	158,60	150,02	0,03836	
11,08	-0,3062	158,65	150,02	0,03837	
11,10	-0,3062	158,67	150,02	0,03823	
11,12	-0,3062	158,58	150,02	0,03810	
11,14	-0,3062	158,56	150,03	0,03810	
11,16	-0,3061	158,57	150,02	0,03824	
11,18	-0,3061	158,58	150,02	0,03830	
11,20	-0,3061	158,58	150,02	0,03837	
11,22	-0,3061	158,54	150,02	0,03840	
11,24	-0,3061	158,51	150,02	0,03828	
11,26	-0,3062	158,53	150,02	0,03816	
11,28	-0,3062	158,58	150,02	0,03809	
11,30	-0,3062	158,54	150,02	0,03803	
11,32	-0,3061	158,52	150,02	0,03811	
11,34	-0,3061	158,57	150,02	0,03830	
11,36	-0,3061	158,56	150,02	0,03841	
11,38	-0,3061	158,56	150,02	0,03831	
11,40	-0,3061	158,61	150,02	0,03813	
11,42	-0,3061	158,61	150,02	0,03810	
11,44	-0,3061	158,62	150,02	0,03815	
11,46	-0,3061	158,59	150,02	0,03821	
11,48	-0,3061	158,52	150,02	0,03830	
11,50	-0,3061	158,59	150,02	0,03837	
11,52	-0,3061	158,64	150,02	0,03833	
11,54	-0,3061	158,61	150,02	0,03821	
11,56	-0,3061	158,63	150,02	0,03815	
11,58	-0,3061	158,65	150,02	0,03812	
11,60	-0,3061	158,63	150,02	0,03824	
11,62	-0,3061	158,67	150,02	0,03837	
11,64	-0,3063	158,59	150,02	0,03842	
11,66	-0,3066	158,50	150,02	0,03845	
11,68	-0,3068	158,54	150,02	0,03835	
11,70	-0,3068	158,64	150,02	0,03821	
11,72	-0,3069	158,73	150,02	0,03819	
11,74	-0,3069	158,77	150,02	0,03828	
11,76	-0,3069	158,71	150,02	0,03839	
11,78	-0,3068	158,62	150,02	0,03843	
11,80	-0,3068	158,58	150,02	0,03845	
11,82	-0,3068	158,58	150,02	0,03842	
11,84	-0,3068	158,58	150,02	0,03827	
11,86	-0,3068	158,60	150,02	0,03813	
11,88	-0,3068	158,71	150,02	0,03813	
11,90	-0,3068	158,78	150,02	0,03825	
11,92	-0,3069	158,84	150,02	0,03844	
11,94	-0,3069	158,81	150,02	0,03857	
11,96	-0,3069	158,70	150,02	0,03852	
11,98	-0,3068	158,65	150,02	0,03838	
12,00	-0,3068	158,69	150,02	0,03820	
12,02	-0,3068	158,59	150,02	0,03818	
12,04	-0,3068	158,58	150,02	0,03828	
12,06	-0,3069	158,68	150,02	0,03840	
12,08	-0,3069	158,65	150,02	0,03853	
12,10	-0,3068	158,60	150,02	0,03858	
12,12	-0,3068	158,65	150,02	0,03842	
12,14	-0,3068	158,73	150,02	0,03828	
12,16	-0,3068	158,67	150,02	0,03824	
12,18	-0,3069	158,56	150,02	0,03828	
12,20	-0,3069	158,57	150,02	0,03832	
12,22	-0,3069	158,57	150,02	0,03829	
12,24	-0,3069	158,58	150,02	0,03834	
12,26	-0,3068	158,57	150,02	0,03835	
12,28	-0,3068	158,61	150,02	0,03825	
12,30	-0,3068	158,70	150,02	0,03820	
12,32	-0,3068	158,65	150,02	0,03819	
12,34	-0,3068	158,65	150,02	0,03828	
12,36	-0,3068	158,65	150,02	0,03842	
12,38	-0,3068	158,59	150,02	0,03848	
12,40	-0,3068	158,58	150,02	0,03843	
12,42	-0,3068	158,67	150,02	0,03826	
12,44	-0,3068	158,69	150,02	0,03814	
12,46	-0,3068	158,68	150,02	0,03817	
12,48	-0,3069	158,70	150,02	0,03826	
12,50	-0,3071	158,68	150,02	0,03831	
12,52	-0,3074	158,64	150,02	0,03836	
12,54	-0,3075	158,63	150,02	0,03839	
12,56	-0,3075	158,59	150,02	0,03838	
12,58	-0,3075	158,54	150,02	0,03828	
12,60	-0,3075	158,55	150,02	0,03819	
12,62	-0,3075	158,65	150,03	0,03820	
12,64	-0,3075	158,76	150,02	0,03825	
12,66	-0,3075	158,76	150,02	0,03834	
12,68	-0,3076	158,76	150,02	0,03840	
12,70	-0,3075	158,71	150,02	0,03833	
12,72	-0,3075	158,69	150,02	0,03813	
12,74	-0,3075	158,78	150,02	0,03812	
12,76	-0,3075	158,81	150,02	0,03827	
12,78	-0,3075	158,77	150,02	0,03840	
12,80	-0,3075	158,71	150,02	0,03848	
12,82	-0,3075	158,66	150,02	0,03850	
12,84	-0,3075	158,63	150,02	0,03835	
12,86	-0,3075	158,69	150,02	0,03816	
12,88	-0,3075	158,81	150,02	0,03810	
12,90	-0,3075	158,78	150,02	0,03818	
12,92	-0,3075	158,75	150,02	0,03834	
12,94	-0,3075	158,71	150,02	0,03838	
12,96	-0,3075	158,63	150,02	0,03840	
12,98	-0,3075	158,59	150,02	0,03834	
13,00	-0,3075	158,52	150,02	0,03820	
13,02	-0,3075	158,49	150,02	0,03813	
13,04	-0,3075	158,52	150,02	0,03817	
13,06	-0,3075	158,58	150,02	0,03825	
13,08	-0,3075	158,67	150,02	0,03833	
13,10	-0,3075	158,64	150,02	0,03841	
13,12	-0,3075	158,56	150,02	0,03848	
13,14	-0,3075	158,58	150,02	0,03842	
13,16	-0,3075	158,58	150,02	0,03829	
13,18	-0,3075	158,56	150,02	0,03822	
13,20	-0,3075	158,55	150,02	0,03815	
13,22	-0,3075	158,61	150,02	0,03823	
13,24	-0,3075	158,69	150,02	0,03842	
13,26	-0,3075	158,67	150,02	0,03847	
13,28	-0,3075	158,63	150,02	0,03834	
13,30	-0,3075	158,62	150,02	0,03822	
13,32	-0,3075	158,64	150,02	0,03817	
13,34	-0,3075	158,66	150,02	0,03820	
13,36	-0,3075	158,56	150,02	0,03830	
13,38	-0,3076	158,56	150,02	0,03841	
13,40	-0,3078	158,59	150,02	0,03842	
13,42	-0,3081	158,58	150,02	0,03832	
13,44	-0,3082	158,53	150,02	0,03822	
13,46	-0,3082	158,49	150,02	0,03817	
13,48	-0,3082	158,50	150,02	0,03815	
13,50	-0,3082	158,49	150,02	0,03822	
13,52	-0,3082	158,48	150,02	0,03831	
13,54	-0,3082	158,53	150,02	0,03841	
13,56	-0,3082	158,57	150,02	0,03835	
13,58	-0,3082	158,57	150,03	0,03824	
13,60	-0,3082	158,60	150,02	0,03820	
13,62	-0,3082	158,72	150,02	0,03821	
13,64	-0,3082	158,76	150,02	0,03828	
13,66	-0,3082	158,61	150,02	0,03840	
13,68	-0,3082	158,52	150,02	0,03854	
13,70	-0,3082	158,58	150,02	0,03845	
13,72	-0,3082	158,60	150,02	0,03826	
13,74	-0,3082	158,67	150,02	0,03820	
13,76	-0,3082	158,75	150,02	0,03822	
13,78	-0,3082	158,74	150,02	0,03831	
13,80	-0,3082	158,71	150,02	0,03840	
13,82	-0,3082	158,74	150,02	0,03843	
13,84	-0,3082	158,77	150,02	0,03839	
13,86	-0,3082	158,76	150,02	0,03828	
13,88	-0,3082	158,74	150,02	0,03823	
13,90	-0,3082	158,74	150,02	0,03822	
13,92	-0,3082	158,70	150,02	0,03827	
13,94	-0,3082	158,68	150,02	0,03832	
13,96	-0,3082	158,67	150,02	0,03838	
13,98	-0,3082	158,69	150,02	0,03842	
14,00	-0,3082	158,70	150,02	0,03833	
14,02	-0,3082	158,62	150,02	0,03820	
14,04	-0,3082	158,60	150,02	0,03811	
14,06	-0,3082	158,62	150,02	0,03817	
14,08	-0,3082	158,58	150,02	0,03839	
14,10	-0,3082	158,59	150,02	0,03852	
14,12	-0,3082	158,60	150,02	0,03844	
14,14	-0,3082	158,58	150,02	0,03837	
14,16	-0,3082	158,57	150,02	0,03824	
14,18	-0,3082	158,60	150,02	0,03815	
14,20	-0,3082	158,59	150,02	0,03824	
14,22	-0,3082	158,61	150,02	0,03836	
14,24	-0,3082	158,66	150,02	0,03841	
14,26	-0,3082	158,66	150,02	0,03849	
14,28	-0,3082	158,59	150,02	0,03850	
14,30	-0,3082	158,55	150,02	0,03841	
14,32	-0,3082	158,57	150,02	0,03828	
14,34	-0,3082	158,65	150,02	0,03828	
14,36	-0,3082	158,81	150,02	0,03835	
14,38	-0,3082	158,85	150,02	0,03840	
14,40	-0,3082	158,82	150,02	0,03846	
14,42	-0,3082	158,80	150,02	0,03841	
14,44	-0,3082	158,72	150,02	0,03828	
14,46	-0,3082	158,67	150,02	0,03819	
14,48	-0,3082	158,72	150,02	0,03816	
14,50	-0,3082	158,75	150,02	0,03823	
14,52	-0,3082	158,71	150,02	0,03836	
14,54	-0,3082	158,68	150,02	0,03843	
14,56	-0,3082	158,65	150,02	0,03846	
14,58	-0,3082	158,57	150,02	0,03838	
14,60	-0,3082	158,56	150,02	0,03829	
14,62	-0,3082	158,64	150,02	0,03823	
14,64	-0,3082	158,69	150,02	0,03824	
14,66	-0,3082	158,66	150,02	0,03830	
14,68	-0,3082	158,63	150,03	0,03839	
14,70	-0,3083	158,57	150,03	0,03839	
14,72	-0,3086	158,57	150,02	0,03835	
14,74	-0,3088	158,61	150,02	0,03826	
14,76	-0,3089	158,58	150,02	0,03820	
14,78	-0,3089	158,63	150,02	0,03821	
14,80	-0,3088	158,67	150,02	0,03833	
14,82	-0,3089	158,72	150,02	0,03848	
14,84	-0,3089	158,77	150,02	0,03851	
14,86	-0,3089	158,73	150,02	0,03843	
14,88	-0,3089	158,67	150,02	0,03826	
14,90	-0,3089	158,61	150,02	0,03817	
14,92	-0,3089	158,58	150,02	0,03821	
14,94	-0,3089	158,53	150,02	0,03833	
14,96	-0,3089	158,49	150,02	0,03844	
14,98	-0,3089	158,54	150,02	0,03846	
15,00	-0,3088	158,53	150,02	0,03842	
15,02	-0,3089	158,48	150,02	0,03831	
15,04	-0,3089	158,48	150,02	0,03823	
15,06	-0,3089	158,45	150,02	0,03821	
15,08	-0,3089	158,51	150,02	0,03826	
15,10	-0,3089	158,61	150,02	0,03835	
15,12	-0,3089	158,68	150,02	0,03840	
15,14	-0,3089	158,71	150,02	0,03841	
15,16	-0,3089	158,68	150,02	0,03833	
15,18	-0,3089	158,55	150,02	0,03823	
15,20	-0,3089	158,51	150,02	0,03819	
15,22	-0,3089	158,57	150,02	0,03819	
15,24	-0,3089	158,56	150,02	0,03829	
15,26	-0,3089	158,48	150,02	0,03844	
15,28	-0,3089	158,45	150,02	0,03856	
15,30	-0,3089	158,51	150,02	0,03850	
15,32	-0,3089	158,51	150,02	0,03832	
15,34	-0,3089	158,56	150,02	0,03817	
15,36	-0,3089	158,67	150,02	0,03816	
15,38	-0,3089	158,66	150,02	0,03826	
15,40	-0,3089	158,62	150,02	0,03845	
15,42	-0,3089	158,60	150,02	0,03853	
15,44	-0,3089	158,62	150,02	0,03840	
15,46	-0,3089	158,63	150,02	0,03828	
15,48	-0,3089	158,62	150,02	0,03826	
15,50	-0,3089	158,59	150,02	0,03828	
15,52	-0,3089	158,57	150,03	0,03834	
15,54	-0,3089	158,56	150,02	0,03840	
15,56	-0,3089	158,57	150,02	0,03844	
15,58	-0,3089	158,60	150,02	0,03845	
15,60	-0,3089	158,57	150,02	0,03829	
15,62	-0,3089	158,54	150,02	0,03812	
15,64	-0,3089	158,54	150,02	0,03811	
15,66	-0,3089	158,51	150,02	0,03823	
15,68	-0,3089	158,48	150,02	0,03839	
15,70	-0,3089	158,53	150,02	0,03845	
15,72	-0,3089	158,58	150,02	0,03841	
15,74	-0,3089	158,53	150,02	0,03832	
15,76	-0,3089	158,53	150,02	0,03825	
15,78	-0,3090	158,54	150,02	0,03819	
15,80	-0,3093	158,56	150,02	0,03820	
15,82	-0,3095	158,57	150,02	0,03829	
15,84	-0,3095	158,55	150,02	0,03840	
15,86	-0,3095	158,56	150,02	0,03847	
15,88	-0,3096	158,59	150,02	0,03848	
15,90	-0,3096	158,59	150,02	0,03836	
15,92	-0,3096	158,65	150,02	0,03824	
15,94	-0,3095	158,68	150,02	0,03822	
15,96	-0,3095	158,60	150,02	0,03827	
15,98	-0,3096	158,51	150,02	0,03837	
16,00	-0,3095	158,49	150,02	0,03849	
16,02	-0,3095	158,60	150,02	0,03855	
16,04	-0,3095	158,62	150,02	0,03847	
16,06	-0,3096	158,57	150,02	0,03835	
16,08	-0,3095	158,55	150,02	0,03826	
16,10	-0,3096	158,57	150,02	0,03827	
16,12	-0,3095	158,59	150,02	0,03834	
16,14	-0,3095	158,61	150,02	0,03843	
16,16	-0,3095	158,59	150,02	0,03847	
16,18	-0,3095	158,66	150,02	0,03841	
16,20	-0,3095	158,68	150,02	0,03829	
16,22	-0,3095	158,63	150,02	0,03822	
16,24	-0,3095	158,64	150,02	0,03822	
16,26	-0,3095	158,60	150,02	0,03832	
16,28	-0,3095	158,60	150,02	0,03841	
16,30	-0,3095	158,58	150,02	0,03846	
16,32	-0,3095	158,58	150,02	0,03839	
16,34	-0,3095	158,61	150,02	0,03829	
16,36	-0,3095	158,64	150,02	0,03827	
16,38	-0,3095	158,64	150,02	0,03826	
16,40	-0,3095	158,60	150,02	0,03827	
16,42	-0,3095	158,56	150,02	0,03836	
16,44	-0,3096	158,56	150,02	0,03841	
16,46	-0,3096	158,56	150,02	0,03842	
16,48	-0,3096	158,57	150,02	0,03834	
16,50	-0,3095	158,59	150,01	0,03822	
16,52	-0,3095	158,55	150,02	0,03822	
16,54	-0,3095	158,45	150,02	0,03837	
16,56	-0,3096	158,49	150,02	0,03845	
16,58	-0,3096	158,61	150,02	0,03845	
16,60	-0,3096	158,65	150,02	0,03850	
16,62	-0,3095	158,63	150,02	0,03847	
16,64	-0,3095	158,56	150,02	0,03831	
16,66	-0,3095	158,53	150,02	0,03821	
16,68	-0,3095	158,55	150,02	0,03824	
16,70	-0,3096	158,52	150,02	0,03839	
16,72	-0,3096	158,53	150,02	0,03850	
16,74	-0,3096	158,60	150,02	0,03852	
16,76	-0,3095	158,59	150,02	0,03838	
16,78	-0,3095	158,61	150,02	0,03826	
16,80	-0,3095	158,57	150,02	0,03826	
16,82	-0,3096	158,56	150,02	0,03826	
16,84	-0,3096	158,61	150,02	0,03831	
16,86	-0,3095	158,57	150,02	0,03842	
16,88	-0,3095	158,57	150,02	0,03845	
16,90	-0,3095	158,59	150,02	0,03835	
16,92	-0,3095	158,48	150,02	0,03823	
16,94	-0,3096	158,48	150,02	0,03826	
16,96	-0,3096	158,56	150,02	0,03829	
16,98	-0,3096	158,54	150,02	0,03831	
17,00	-0,3096	158,56	150,02	0,03841	
17,02	-0,3098	158,56	150,02	0,03842	
17,04	-0,3101	158,53	150,02	0,03834	
17,06	-0,3102	158,54	150,02	0,03822	
17,08	-0,3102	158,60	150,02	0,03820	
17,10	-0,3102	158,60	150,02	0,03823	
17,12	-0,3102	158,58	150,02	0,03828	
17,14	-0,3102	158,49	150,02	0,03838	
17,16	-0,3102	158,43	150,02	0,03842	
17,18	-0,3102	158,44	150,02	0,03834	
17,20	-0,3102	158,53	150,02	0,03823	
17,22	-0,3102	158,56	150,02	0,03818	
17,24	-0,3102	158,56	150,02	0,03817	
17,26	-0,3102	158,62	150,02	0,03830	
17,28	-0,3102	158,58	150,02	0,03840	
17,30	-0,3102	158,47	150,02	0,03844	
17,32	-0,3102	158,44	150,02	0,03845	
17,34	-0,3102	158,48	150,02	0,03836	
17,36	-0,3102	158,50	150,02	0,03827	
17,38	-0,3102	158,50	150,02	0,03826	
17,40	-0,3102	158,60	150,02	0,03836	
17,42	-0,3102	158,58	150,02	0,03846	
17,44	-0,3102	158,56	150,02	0,03852	
17,46	-0,3102	158,55	150,02	0,03844	
17,48	-0,3102	158,56	150,02	0,03831	
17,50	-0,3102	158,57	150,02	0,03819	
17,52	-0,3102	158,61	150,02	0,03817	
17,54	-0,3102	158,58	150,02	0,03828	
17,56	-0,3102	158,56	150,02	0,03842	
17,58	-0,3102	158,59	150,02	0,03848	
17,60	-0,3102	158,60	150,02	0,03845	
17,62	-0,3102	158,59	150,02	0,03837	
17,64	-0,3102	158,57	150,02	0,03827	
17,66	-0,3102	158,56	150,02	0,03824	
17,68	-0,3102	158,56	150,02	0,03829	
17,70	-0,3102	158,61	150,02	0,03837	
17,72	-0,3102	158,66	150,02	0,03841	
17,74	-0,3102	158,57	150,02	0,03843	
17,76	-0,3102	158,47	150,02	0,03832	
17,78	-0,3102	158,44	150,02	0,03819	
17,80	-0,3102	158,49	150,02	0,03819	
17,82	-0,3102	158,57	150,02	0,03833	
17,84	-0,3102	158,57	150,02	0,03847	
17,86	-0,3102	158,62	150,02	0,03852	
17,88	-0,3102	158,64	150,02	0,03845	
17,90	-0,3102	158,67	150,02	0,03831	
17,92	-0,3102	158,75	150,02	0,03822	
17,94	-0,3102	158,76	150,02	0,03823	
17,96	-0,3102	158,71	150,02	0,03829	
17,98	-0,3102	158,67	150,02	0,03833	
18,00	-0,3102	158,60	150,02	0,03836	
18,02	-0,3102	158,52	150,02	0,03836	
18,04	-0,3102	158,56	150,02	0,03826	
18,06	-0,3102	158,62	150,02	0,03818	
18,08	-0,3102	158,63	150,02	0,03818	
18,10	-0,3102	158,67	150,02	0,03823	
18,12	-0,3102	158,70	150,02	0,03836	
18,14	-0,3102	158,61	150,02	0,03842	
18,16	-0,3102	158,56	150,02	0,03839	
18,18	-0,3102	158,55	150,02	0,03836	
18,20	-0,3102	158,54	150,02	0,03826	
18,22	-0,3102	158,55	150,02	0,03817	
18,24	-0,3102	158,68	150,02	0,03823	
18,26	-0,3102	158,68	150,02	0,03836	
18,28	-0,3102	158,60	150,02	0,03844	
18,30	-0,3102	158,57	150,02	0,03845	
18,32	-0,3102	158,56	150,02	0,03839	
18,34	-0,3104	159,33	150,05	0,03826	
18,36	-0,3104	157,25	150,06	0,03810	
18,38	-0,3103	148,04	150,04	0,03803	
18,40	-0,3102	135,37	150,02	0,03810	
18,42	-0,3102	122,04	150,02	0,03823	
18,44	-0,3101	108,69	150,02	0,03838	
18,46	-0,3094	97,58	150,02	0,03848	
18,48	-0,3082	92,49	150,02	0,03842	
18,50	-0,3069	89,99	150,02	0,03828	
18,52	-0,3055	87,27	150,02	0,03823	
18,54	-0,3042	84,73	150,02	0,03824	
18,56	-0,3029	83,06	150,02	0,03826	
18,58	-0,3015	83,59	150,02	0,03834	
18,60	-0,2999	85,65	150,02	0,03847	
18,62	-0,2983	88,63	150,02	0,03842	
18,64	-0,2968	91,80	150,02	0,03827	
18,66	-0,2954	94,43	150,02	0,03813	
18,68	-0,2941	96,60	150,02	0,03812	
18,70	-0,2929	97,67	150,02	0,03824	
18,72	-0,2918	97,32	150,02	0,03836	
18,74	-0,2907	95,79	150,02	0,03843	
18,76	-0,2894	94,74	150,02	0,03846	
18,78	-0,2881	94,54	150,02	0,03843	
18,80	-0,2868	94,60	150,02	0,03834	
18,82	-0,2854	94,55	150,02	0,03824	
18,84	-0,2841	94,50	150,02	0,03825	
18,86	-0,2828	94,52	150,02	0,03832	
18,88	-0,2818	94,48	150,02	0,03841	
18,90	-0,2807	94,47	150,02	0,03847	
18,92	-0,2794	94,54	150,02	0,03843	
18,94	-0,2780	94,58	150,02	0,03832	
18,96	-0,2767	94,58	150,02	0,03820	
18,98	-0,2753	94,53	150,02	0,03822	
19,00	-0,2740	94,47	150,02	0,03836	
19,02	-0,2726	94,45	150,02	0,03852	
19,04	-0,2713	94,56	150,02	0,03855	
19,06	-0,2699	94,64	150,02	0,03846	
19,08	-0,2686	94,61	150,02	0,03833	
19,10	-0,2672	94,54	150,02	0,03824	
19,12	-0,2659	94,39	150,02	0,03825	
19,14	-0,2646	93,25	150,02	0,03833	
19,16	-0,2632	91,86	150,02	0,03845	
19,18	-0,2619	91,29	150,02	0,03855	
19,20	-0,2605	91,25	150,02	0,03855	
19,22	-0,2592	91,28	150,02	0,03843	
19,24	-0,2578	91,26	150,02	0,03827	
19,26	-0,2565	91,27	150,02	0,03824	
19,28	-0,2551	91,29	150,02	0,03835	
19,30	-0,2538	91,25	150,02	0,03846	
19,32	-0,2525	91,21	150,02	0,03854	
19,34	-0,2511	91,21	150,02	0,03852	
19,36	-0,2498	91,23	150,02	0,03842	
19,38	-0,2484	91,26	150,02	0,03831	
19,40	-0,2471	91,29	150,02	0,03819	
19,42	-0,2458	91,28	150,02	0,03818	
19,44	-0,2444	91,26	150,02	0,03831	
19,46	-0,2431	91,34	150,01	0,03843	
19,48	-0,2417	91,37	150,01	0,03847	
19,50	-0,2404	91,32	150,01	0,03842	
19,52	-0,2391	91,27	150,01	0,03830	
19,54	-0,2377	90,75	150,02	0,03821	
19,56	-0,2364	89,24	150,02	0,03832	
19,58	-0,2350	88,18	150,02	0,03843	
19,60	-0,2337	87,92	150,02	0,03846	
19,62	-0,2323	87,90	150,02	0,03844	
19,64	-0,2310	87,90	150,02	0,03834	
19,66	-0,2295	87,90	150,02	0,03826	
19,68	-0,2279	87,92	150,02	0,03827	
19,70	-0,2264	87,92	150,02	0,03825	
19,72	-0,2250	87,91	150,02	0,03834	
19,74	-0,2236	87,87	150,02	0,03842	
19,76	-0,2223	87,84	150,02	0,03845	
19,78	-0,2209	87,86	150,02	0,03839	
19,80	-0,2196	87,88	150,02	0,03832	
19,82	-0,2180	87,96	150,02	0,03825	
19,84	-0,2164	88,00	150,02	0,03821	
19,86	-0,2149	88,03	150,02	0,03825	
19,88	-0,2135	87,97	150,02	0,03833	
19,90	-0,2122	87,92	150,02	0,03843	
19,92	-0,2109	87,82	150,02	0,03849	
19,94	-0,2095	86,69	150,02	0,03841	
19,96	-0,2081	85,37	150,02	0,03830	
19,98	-0,2064	85,84	150,02	0,03829	
20,00	-0,2049	87,12	150,02	0,03831	
20,02	-0,2035	87,70	150,02	0,03838	
20,04	-0,2021	87,78	150,02	0,03849	
20,06	-0,2008	87,71	150,01	0,03854	
20,08	-0,1992	86,59	150,01	0,03846	
20,10	-0,1976	85,22	150,01	0,03825	
20,12	-0,1961	84,57	150,02	0,03812	
20,14	-0,1947	84,42	150,02	0,03816	
20,16	-0,1934	84,46	150,02	0,03833	
20,18	-0,1918	84,50	150,02	0,03845	
20,20	-0,1902	84,50	150,01	0,03844	
20,22	-0,1887	84,44	150,01	0,03839	
20,24	-0,1873	84,44	150,01	0,03830	
20,26	-0,1857	84,50	150,01	0,03819	
20,28	-0,1841	84,56	150,02	0,03816	
20,30	-0,1826	84,58	150,02	0,03824	
20,32	-0,1813	84,50	150,02	0,03835	
20,34	-0,1797	84,47	150,02	0,03844	
20,36	-0,1781	84,48	150,02	0,03846	
20,38	-0,1766	84,52	150,02	0,03836	
20,40	-0,1752	84,46	150,02	0,03824	
20,42	-0,1736	83,30	150,02	0,03821	
20,44	-0,1720	81,74	150,02	0,03825	
20,46	-0,1705	81,03	150,02	0,03838	
20,48	-0,1691	80,90	150,18	0,03847	
20,50	-0,1674	81,00	151,40	0,03846	
20,52	-0,1659	81,08	153,76	0,03838	
20,54	-0,1645	81,08	156,39	0,03829	
20,56	-0,1629	81,09	158,56	0,03822	
20,58	-0,1613	81,10	160,03	0,03822	
20,60	-0,1598	81,11	160,72	0,03830	
20,62	-0,1582	81,03	161,24	0,03840	
20,64	-0,1566	80,97	161,90	0,03843	
20,66	-0,1550	81,00	162,89	0,03838	
20,68	-0,1533	81,04	163,97	0,03833	
20,70	-0,1518	81,05	165,50	0,03828	
20,72	-0,1503	81,03	167,27	0,03824	
20,74	-0,1486	81,05	168,83	0,03825	
20,76	-0,1471	81,11	170,33	0,03832	
20,78	-0,1454	81,04	171,78	0,03838	
20,80	-0,1438	79,86	173,07	0,03840	
20,82	-0,1423	78,42	174,61	0,03832	
20,84	-0,1408	77,79	176,16	0,03821	
20,86	-0,1391	77,75	177,46	0,03819	
20,88	-0,1376	77,82	178,89	0,03829	
20,90	-0,1359	77,86	180,32	0,03844	
20,92	-0,1342	77,80	181,49	0,03845	
20,94	-0,1325	77,72	182,55	0,03832	
20,96	-0,1309	77,65	183,41	0,03819	
20,98	-0,1293	77,68	184,39	0,03814	
21,00	-0,1276	77,73	185,76	0,03824	
21,02	-0,1260	77,68	187,28	0,03844	
21,04	-0,1243	77,71	188,67	0,03855	
21,06	-0,1226	77,79	190,00	0,03856	
21,08	-0,1209	77,75	191,43	0,03855	
21,10	-0,1192	77,67	192,89	0,03842	
21,12	-0,1176	77,71	194,24	0,03823	
21,14	-0,1159	77,71	195,38	0,03821	
21,16	-0,1142	77,69	196,53	0,03832	
21,18	-0,1126	77,60	197,80	0,03840	
21,20	-0,1109	76,41	199,14	0,03847	
21,22	-0,1092	74,97	200,60	0,03852	
21,24	-0,1075	74,34	202,10	0,03847	
21,26	-0,1058	74,28	203,54	0,03830	
21,28	-0,1042	74,30	204,89	0,03825	
21,30	-0,1025	73,80	206,29	0,03827	
21,32	-0,1007	72,36	207,72	0,03833	
21,34	-0,09895	71,35	209,10	0,03847	
21,36	-0,09727	71,06	210,39	0,03858	
21,38	-0,09555	71,06	211,70	0,03853	
21,40	-0,09378	71,10	213,12	0,03838	
21,42	-0,09208	71,13	214,57	0,03831	
21,44	-0,09037	71,07	215,98	0,03831	
21,46	-0,08861	71,09	217,38	0,03837	
21,48	-0,08682	71,13	218,80	0,03844	
21,50	-0,08502	71,10	220,19	0,03850	
21,52	-0,08324	71,09	221,59	0,03846	
21,54	-0,08146	71,11	223,00	0,03828	
21,56	-0,07967	71,10	224,40	0,03813	
21,58	-0,07788	71,07	225,78	0,03811	
21,60	-0,07612	71,08	227,15	0,03828	
21,62	-0,07446	71,12	228,52	0,03848	
21,64	-0,07267	71,13	229,92	0,03859	
21,66	-0,07079	71,09	231,35	0,03856	
21,68	-0,06894	70,93	232,81	0,03843	
21,70	-0,06712	69,76	234,28	0,03826	
21,72	-0,06533	68,36	235,73	0,03821	
21,74	-0,06355	67,78	237,13	0,03825	
21,76	-0,06177	67,71	238,52	0,03835	
21,78	-0,05989	67,76	239,90	0,03843	
21,80	-0,05801	67,77	241,33	0,03849	
21,82	-0,05617	67,69	242,79	0,03846	
21,84	-0,05437	67,75	244,28	0,03833	
21,86	-0,05249	67,85	245,71	0,03823	
21,88	-0,05061	67,88	247,12	0,03820	
21,90	-0,04877	67,85	248,53	0,03829	
21,92	-0,04699	67,83	249,94	0,03843	
21,94	-0,04513	67,80	251,39	0,03849	
21,96	-0,04323	67,77	252,84	0,03840	
21,98	-0,04139	67,82	254,24	0,03826	
22,00	-0,03961	67,70	255,65	0,03824	
22,02	-0,03782	66,57	257,12	0,03832	
22,04	-0,03600	65,16	258,61	0,03840	
22,06	-0,03408	64,51	260,52	0,03847	
22,08	-0,03211	64,41	263,91	0,03852	
22,10	-0,03024	64,40	268,22	0,03846	
22,12	-0,02834	64,41	271,35	0,03835	
22,14	-0,02646	64,47	273,24	0,03828	
22,16	-0,02461	64,49	274,71	0,03822	
22,18	-0,02269	64,44	276,17	0,03828	
22,20	-0,02070	64,41	277,74	0,03839	
22,22	-0,01870	64,46	279,31	0,03849	
22,24	-0,01680	64,48	280,73	0,03850	
22,26	-0,01491	64,01	282,18	0,03836	
22,28	-0,01294	62,54	283,70	0,03825	
22,30	-0,01095	61,42	285,25	0,03823	
22,32	-0,00901	60,89	286,72	0,03833	
22,34	-0,00705	60,46	288,05	0,03845	
22,36	-0,00507	63,26	288,89	0,03848	
22,38	-0,00316	72,65	289,17	0,03831	
22,40	-0,00127	86,45	289,14	0,03816	
22,42	0,00066	99,58	289,11	0,03815	
22,44	0,00237	109,72	289,45	0,03821	
22,46	0,00356	114,26	290,27	0,03832	
22,48	0,00422	113,29	291,04	0,03842	
22,50	0,00480	111,70	291,57	0,03847	
22,52	0,00567	110,80	292,31	0,03843	
22,54	0,00689	110,29	293,25	0,03840	
22,56	0,00806	113,58	293,95	0,03832	
22,58	0,00887	119,42	294,28	0,03825	
22,60	0,00964	120,88	294,76	0,03826	
22,62	0,01056	117,40	295,70	0,03836	
22,64	0,01143	113,44	296,79	0,03844	
22,66	0,01200	110,63	297,50	0,03843	
22,68	0,01252	108,26	297,90	0,03837	
22,70	0,01337	105,82	298,34	0,03828	
22,72	0,01438	104,28	299,11	0,03821	
22,74	0,01529	102,45	300,04	0,03830	
22,76	0,01582	101,22	300,70	0,03838	
22,78	0,01645	99,00	301,19	0,03843	
22,80	0,01741	95,61	301,84	0,03852	
22,82	0,01843	93,02	302,66	0,03845	
22,84	0,01930	93,25	303,38	0,03826	
22,86	0,02005	93,25	304,01	0,03822	
22,88	0,02071	91,84	304,59	0,03832	
22,90	0,02150	90,52	305,20	0,03841	
22,92	0,02243	89,25	305,96	0,03850	
22,94	0,02336	87,55	306,79	0,03858	
22,96	0,02410	85,68	307,51	0,03852	
22,98	0,02476	84,32	308,09	0,03831	
23,00	0,02569	82,99	308,76	0,03818	
23,02	0,02664	82,55	309,42	0,03821	
23,04	0,02744	83,10	310,06	0,03830	
23,06	0,02832	82,74	310,81	0,03840	
23,08	0,02921	81,18	311,56	0,03849	
23,10	0,03004	81,23	312,13	0,03856	
23,12	0,03073	82,76	312,70	0,03841	
23,14	0,03172	80,99	313,59	0,03828	
23,16	0,03277	78,82	314,55	0,03831	
23,18	0,03353	80,37	315,14	0,03838	
23,20	0,03421	83,07	315,49	0,03844	
23,22	0,03512	82,59	316,13	0,03848	
23,24	0,03629	80,47	317,14	0,03851	
23,26	0,03722	80,79	317,95	0,03840	
23,28	0,03785	82,65	318,43	0,03827	
23,30	0,03855	82,62	318,91	0,03822	
23,32	0,03960	80,88	319,67	0,03827	
23,34	0,04053	81,50	320,47	0,03841	
23,36	0,04120	84,74	321,05	0,03847	
23,38	0,04192	85,86	321,63	0,03847	
23,40	0,04285	82,72	322,46	0,03833	
23,42	0,04378	81,79	323,24	0,03822	
23,44	0,04450	85,25	323,81	0,03826	
23,46	0,04519	86,11	324,41	0,03834	
23,48	0,04600	83,85	325,16	0,03843	
23,50	0,04688	82,84	325,88	0,03849	
23,52	0,04754	85,06	326,45	0,03848	
23,54	0,04823	83,79	327,18	0,03831	
23,56	0,04901	79,29	328,03	0,03822	
23,58	0,04953	78,79	328,67	0,03824	
23,60	0,05001	79,85	329,22	0,03831	
23,62	0,05065	76,91	329,96	0,03839	
23,64	0,05138	72,87	330,77	0,03849	
23,66	0,05196	73,61	331,36	0,03849	
23,68	0,05259	74,35	331,94	0,03837	
23,70	0,05336	71,48	332,77	0,03825	
23,72	0,05402	69,86	333,53	0,03820	
23,74	0,05465	71,39	334,12	0,03828	
23,76	0,05532	71,41	334,71	0,03839	
23,78	0,05605	70,10	335,34	0,03850	
23,80	0,05680	70,27	336,04	0,03855	
23,82	0,05746	69,81	336,82	0,03850	
23,84	0,05805	68,63	337,53	0,03832	
23,86	0,05868	67,28	338,19	0,03823	
23,88	0,05933	66,35	338,80	0,03830	
23,90	0,06000	66,57	339,44	0,03841	
23,92	0,06072	66,51	340,21	0,03852	
23,94	0,06144	66,31	340,99	0,03855	
23,96	0,06211	67,31	341,61	0,03837	
23,98	0,06289	68,52	342,21	0,03820	
24,00	0,06371	67,84	342,94	0,03818	
24,02	0,06441	67,54	343,67	0,03828	
24,04	0,06501	69,51	344,28	0,03836	
24,06	0,06568	69,41	344,94	0,03842	
24,08	0,06641	67,58	345,73	0,03853	
24,10	0,06707	67,81	346,48	0,03856	
24,12	0,06771	69,72	347,09	0,03843	
24,14	0,06834	70,64	347,66	0,03832	
24,16	0,06905	69,63	348,40	0,03833	
24,18	0,06982	68,54	349,26	0,03836	
24,20	0,07049	69,68	349,93	0,03848	
24,22	0,07101	72,98	350,38	0,03857	
24,24	0,07171	73,43	351,10	0,03858	
24,26	0,07269	69,96	352,09	0,03848	
24,28	0,07345	70,52	352,80	0,03833	
24,30	0,07392	73,22	353,22	0,03828	
24,32	0,07446	72,51	353,80	0,03835	
24,34	0,07532	69,40	354,63	0,03847	
24,36	0,07614	69,70	355,46	0,03856	
24,38	0,07668	72,12	356,04	0,03860	
24,40	0,07727	73,32	356,52	0,03853	
24,42	0,07807	71,72	357,28	0,03838	
24,44	0,07889	70,38	358,20	0,03829	
24,46	0,07939	71,74	358,87	0,03831	
24,48	0,07981	73,30	359,28	0,03843	
24,50	0,08047	71,43	359,95	0,03848	
24,52	0,08133	66,77	360,98	0,03842	
24,54	0,08191	65,98	361,79	0,03832	
24,56	0,08228	67,92	362,21	0,03818	
24,58	0,08277	67,65	362,70	0,03815	
24,60	0,08353	64,23	363,56	0,03824	
24,62	0,08423	63,73	364,38	0,03838	
24,64	0,08468	65,82	364,95	0,03844	
24,66	0,08521	64,18	365,54	0,03847	
24,68	0,08580	60,58	366,23	0,03838	
24,70	0,08634	60,24	366,93	0,03823	
24,72	0,08693	60,80	367,62	0,03820	
24,74	0,08740	59,93	368,24	0,03822	
24,76	0,08793	59,10	368,91	0,03823	
24,78	0,08854	57,58	369,67	0,03834	
24,80	0,08898	57,45	370,31	0,03846	
24,82	0,08950	58,37	370,93	0,03846	
24,84	0,09012	56,05	371,73	0,03838	
24,86	0,09069	53,68	372,50	0,03824	
24,88	0,09118	55,27	373,08	0,03821	
24,90	0,09164	56,34	373,65	0,03830	
24,92	0,09232	52,89	374,46	0,03840	
24,94	0,09299	51,18	375,24	0,03849	
24,96	0,09358	52,96	375,84	0,03849	
24,98	0,09408	53,31	376,43	0,03842	
25,00	0,09467	51,30	377,16	0,03836	
25,02	0,09527	50,46	377,91	0,03831	
25,04	0,09572	52,18	378,55	0,03830	
25,06	0,09631	51,53	379,26	0,03838	
25,08	0,09698	49,75	379,98	0,03851	
25,10	0,09760	50,68	380,63	0,03851	
25,12	0,09814	51,88	381,29	0,03844	
25,14	0,09870	51,19	381,94	0,03838	
25,16	0,09934	50,72	382,62	0,03836	
25,18	0,09990	51,41	383,31	0,03841	
25,20	0,1004	50,88	384,03	0,03851	
25,22	0,1010	50,14	384,72	0,03855	
25,24	0,1016	51,04	385,33	0,03854	
25,26	0,1022	51,20	386,06	0,03846	
25,28	0,1028	50,34	386,81	0,03837	
25,30	0,1033	52,27	387,43	0,03829	
25,32	0,1039	53,26	388,09	0,03832	
25,34	0,1045	51,47	388,83	0,03841	
25,36	0,1050	51,16	389,52	0,03851	
25,38	0,1057	52,18	390,20	0,03855	
25,40	0,1062	52,03	390,87	0,03852	
25,42	0,1067	52,14	391,52	0,03840	
25,44	0,1074	52,59	392,21	0,03834	
25,46	0,1080	52,93	392,91	0,03832	
25,48	0,1085	53,74	393,57	0,03840	
25,50	0,1090	54,17	394,26	0,03847	
25,52	0,1096	53,73	394,98	0,03853	
25,54	0,1101	53,37	395,68	0,03857	
25,56	0,1107	53,10	396,39	0,03841	
25,58	0,1113	52,60	397,05	0,03825	
25,60	0,1118	53,44	397,71	0,03821	
25,62	0,1124	53,59	398,42	0,03830	
25,64	0,1130	53,89	399,08	0,03849	
25,66	0,1135	55,04	399,74	0,03863	
25,68	0,1141	54,89	400,48	0,03859	
25,70	0,1147	54,36	401,16	0,03842	
25,72	0,1152	55,92	401,79	0,03835	
25,74	0,1157	56,19	402,48	0,03834	
25,76	0,1164	55,50	403,20	0,03834	
25,78	0,1169	56,47	403,89	0,03844	
25,80	0,1175	57,21	404,56	0,03851	
25,82	0,1180	56,98	405,24	0,03846	
25,84	0,1185	57,81	405,90	0,03837	
25,86	0,1191	59,23	406,56	0,03825	
25,88	0,1196	59,17	407,27	0,03824	
25,90	0,1202	59,34	407,99	0,03834	
25,92	0,1208	60,60	408,66	0,03842	
25,94	0,1214	60,65	409,35	0,03847	
25,96	0,1219	60,56	410,04	0,03852	
25,98	0,1224	61,97	410,67	0,03847	
26,00	0,1230	62,98	411,35	0,03835	
26,02	0,1235	62,70	412,07	0,03829	
26,04	0,1239	62,43	412,78	0,03838	
26,06	0,1243	63,40	413,46	0,03843	
26,08	0,1248	64,18	414,16	0,03847	
26,10	0,1254	65,07	414,83	0,03854	
26,12	0,1259	66,40	415,47	0,03849	
26,14	0,1263	65,69	416,19	0,03837	
26,16	0,1269	64,85	416,90	0,03825	
26,18	0,1274	65,49	417,57	0,03826	
26,20	0,1279	65,88	418,29	0,03843	
26,22	0,1285	65,99	418,96	0,03854	
26,24	0,1290	67,71	419,58	0,03861	
26,26	0,1295	68,15	420,29	0,03856	
26,28	0,1300	66,75	421,02	0,03837	
26,30	0,1305	67,44	421,70	0,03823	
26,32	0,1310	69,14	422,36	0,03828	
26,34	0,1315	69,45	423,00	0,03840	
26,36	0,1320	70,30	423,70	0,03855	
26,38	0,1324	71,37	424,45	0,03859	
26,40	0,1329	72,14	425,14	0,03854	
26,42	0,1333	73,28	425,76	0,03840	
26,44	0,1337	73,17	426,45	0,03831	
26,46	0,1343	73,04	427,14	0,03833	
26,48	0,1348	73,98	427,81	0,03837	
26,50	0,1353	74,10	428,50	0,03845	
26,52	0,1358	73,79	429,15	0,03851	
26,54	0,1362	74,23	429,83	0,03846	
26,56	0,1367	73,87	430,58	0,03841	
26,58	0,1371	74,05	431,26	0,03829	
26,60	0,1375	75,01	431,93	0,03825	
26,62	0,1380	74,46	432,65	0,03834	
26,64	0,1386	74,26	433,31	0,03844	
26,66	0,1391	75,46	433,95	0,03853	
26,68	0,1395	75,44	434,63	0,03855	
26,70	0,1400	74,22	435,34	0,03843	
26,72	0,1404	73,51	436,06	0,03830	
26,74	0,1409	73,07	436,74	0,03825	
26,76	0,1413	72,74	437,39	0,03825	
26,78	0,1418	72,42	438,08	0,03838	
26,80	0,1422	72,38	438,79	0,03854	
26,82	0,1427	73,52	439,45	0,03853	
26,84	0,1431	74,23	440,13	0,03835	
26,86	0,1437	73,97	440,81	0,03828	
26,88	0,1442	74,10	441,49	0,03834	
26,90	0,1447	74,33	442,18	0,03838	
26,92	0,1451	73,89	442,87	0,03844	
26,94	0,1456	73,97	443,55	0,03852	
26,96	0,1460	74,17	444,26	0,03856	
26,98	0,1465	73,79	444,96	0,03847	
27,00	0,1469	73,51	445,60	0,03828	
27,02	0,1474	73,19	446,28	0,03820	
27,04	0,1478	72,54	446,96	0,03826	
27,06	0,1483	72,74	447,64	0,03843	
27,08	0,1489	72,96	448,38	0,03854	
27,10	0,1494	72,64	449,07	0,03853	
27,12	0,1498	73,15	449,73	0,03853	
27,14	0,1503	72,89	450,47	0,03845	
27,16	0,1507	72,86	451,15	0,03834	
27,18	0,1512	74,44	451,76	0,03830	
27,20	0,1517	75,03	452,42	0,03835	
27,22	0,1522	74,30	453,09	0,03845	
27,24	0,1527	74,29	453,79	0,03854	
27,26	0,1532	72,88	454,55	0,03855	
27,28	0,1536	71,56	455,24	0,03843	
27,30	0,1541	72,86	455,89	0,03828	
27,32	0,1545	73,65	456,58	0,03822	
27,34	0,1550	73,60	457,27	0,03828	
27,36	0,1556	74,53	457,90	0,03844	
27,38	0,1561	74,59	458,57	0,03861	
27,40	0,1566	72,53	459,34	0,03866	
27,42	0,1570	72,76	460,04	0,03856	
27,44	0,1574	74,79	460,66	0,03837	
27,46	0,1579	74,49	461,37	0,03823	
27,48	0,1583	73,46	462,06	0,03832	
27,50	0,1588	74,27	462,73	0,03847	
27,52	0,1592	74,11	463,44	0,03856	
27,54	0,1597	73,49	464,09	0,03859	
27,56	0,1601	74,44	464,74	0,03853	
27,58	0,1606	74,80	465,47	0,03846	
27,60	0,1611	74,13	466,16	0,03842	
27,62	0,1616	74,33	466,81	0,03833	
27,64	0,1621	74,18	467,49	0,03835	
27,66	0,1626	72,98	468,19	0,03846	
27,68	0,1630	72,80	468,87	0,03857	
27,70	0,1635	73,35	469,54	0,03854	
27,72	0,1639	73,48	470,24	0,03835	
27,74	0,1644	73,48	470,92	0,03827	
27,76	0,1648	73,51	471,60	0,03829	
27,78	0,1653	73,38	472,30	0,03836	
27,80	0,1657	72,72	472,98	0,03840	
27,82	0,1662	72,40	473,66	0,03844	
27,84	0,1666	72,34	474,35	0,03841	
27,86	0,1671	72,18	475,05	0,03832	
27,88	0,1676	72,35	475,71	0,03828	
27,90	0,1680	72,46	476,37	0,03831	
27,92	0,1684	71,68	477,10	0,03837	
27,94	0,1689	71,61	477,79	0,03840	
27,96	0,1693	72,19	478,44	0,03844	
27,98	0,1698	71,22	479,17	0,03840	
28,00	0,1703	69,71	479,88	0,03832	
28,02	0,1708	70,27	480,52	0,03836	
28,04	0,1713	70,50	481,19	0,03844	
28,06	0,1718	69,67	481,88	0,03842	
28,08	0,1723	70,17	482,54	0,03846	
28,10	0,1727	70,50	483,27	0,03856	
28,12	0,1732	69,72	483,97	0,03857	
28,14	0,1736	70,44	484,62	0,03842	
28,16	0,1741	70,38	485,35	0,03833	
28,18	0,1745	69,52	486,02	0,03832	
28,20	0,1749	70,38	486,64	0,03843	
28,22	0,1754	71,14	487,36	0,03848	
28,24	0,1759	70,79	488,03	0,03852	
28,26	0,1764	71,40	488,68	0,03857	
28,28	0,1769	70,74	489,46	0,03853	
28,30	0,1773	70,17	490,13	0,03836	
28,32	0,1778	70,86	490,77	0,03828	
28,34	0,1783	69,53	491,53	0,03834	
28,36	0,1788	68,19	492,20	0,03849	
28,38	0,1792	69,52	492,80	0,03863	
28,40	0,1796	69,33	493,49	0,03864	
28,42	0,1801	68,25	494,19	0,03855	
28,44	0,1805	69,47	494,86	0,03840	
28,46	0,1810	70,02	495,53	0,03827	
28,48	0,1815	68,98	496,20	0,03826	
28,50	0,1821	68,93	496,94	0,03839	
28,52	0,1826	69,18	497,68	0,03856	
28,54	0,1830	69,86	498,30	0,03859	
28,56	0,1835	70,59	499,01	0,03855	
28,58	0,1841	69,98	499,75	0,03837	
28,60	0,1845	70,63	500,35	0,03826	
28,62	0,1850	71,22	501,02	0,03833	
28,64	0,1855	69,08	501,77	0,03840	
28,66	0,1859	68,97	502,43	0,03850	
28,68	0,1864	70,45	503,09	0,03860	
28,70	0,1868	69,81	503,79	0,03856	
28,72	0,1873	69,75	504,46	0,03841	
28,74	0,1877	71,00	505,13	0,03824	
28,76	0,1882	71,02	505,83	0,03818	
28,78	0,1887	70,95	506,49	0,03824	
28,80	0,1892	71,56	507,17	0,03835	
28,82	0,1897	71,13	507,87	0,03850	
28,84	0,1902	70,86	508,56	0,03857	
28,86	0,1906	70,88	509,28	0,03851	
28,88	0,1911	70,58	509,94	0,03837	
28,90	0,1915	71,04	510,59	0,03824	
28,92	0,1920	71,36	511,31	0,03823	
28,94	0,1924	71,38	512,00	0,03833	
28,96	0,1928	72,03	512,64	0,03849	
28,98	0,1933	71,09	513,38	0,03855	
29,00	0,1937	70,21	514,06	0,03855	
29,02	0,1941	71,88	514,70	0,03842	
29,04	0,1947	72,16	515,43	0,03834	
29,06	0,1952	71,15	516,09	0,03840	
29,08	0,1957	72,05	516,76	0,03846	
29,10	0,1962	72,04	517,52	0,03852	
29,12	0,1967	71,54	518,15	0,03852	
29,14	0,1971	72,92	518,81	0,03852	
29,16	0,1976	72,12	519,58	0,03844	
29,18	0,1980	70,83	520,21	0,03832	
29,20	0,1985	71,39	520,87	0,03829	
29,22	0,1990	69,84	521,65	0,03831	
29,24	0,1994	68,79	522,29	0,03839	
29,26	0,1999	70,32	522,93	0,03847	
29,28	0,2005	69,20	523,66	0,03848	
29,30	0,2009	67,52	524,31	0,03834	
29,32	0,2013	68,42	524,95	0,03821	
29,34	0,2018	68,18	525,64	0,03822	
29,36	0,2024	67,20	526,30	0,03831	
29,38	0,2029	67,49	527,02	0,03842	
29,40	0,2034	67,34	527,76	0,03852	
29,42	0,2038	67,73	528,38	0,03855	
29,44	0,2044	68,34	529,09	0,03854	
29,46	0,2049	67,62	529,84	0,03846	
29,48	0,2054	68,05	530,44	0,03841	
29,50	0,2060	68,03	531,15	0,03841	
29,52	0,2065	65,65	531,89	0,03845	
29,54	0,2069	65,58	532,52	0,03850	
29,56	0,2074	66,12	533,26	0,03847	
29,58	0,2079	64,36	533,91	0,03834	
29,60	0,2083	64,61	534,45	0,03822	
29,62	0,2089	64,66	535,24	0,03820	
29,64	0,2095	62,25	536,01	0,03832	
29,66	0,2100	62,75	536,62	0,03846	
29,68	0,2105	62,37	537,38	0,03850	
29,70	0,2111	60,03	538,04	0,03845	
29,72	0,2116	60,22	538,61	0,03840	
29,74	0,2122	59,71	539,37	0,03832	
29,76	0,2128	57,95	540,05	0,03821	
29,78	0,2133	58,81	540,64	0,03825	
29,80	0,2139	57,19	541,45	0,03838	
29,82	0,2145	53,48	542,19	0,03847	
29,84	0,2149	54,19	542,79	0,03853	
29,86	0,2155	53,83	543,45	0,03854	
29,88	0,2161	51,00	544,07	0,03843	
29,90	0,2167	50,53	544,75	0,03833	
29,92	0,2173	49,66	545,55	0,03828	
29,94	0,2178	48,36	546,16	0,03834	
29,96	0,2184	48,86	546,78	0,03841	
29,98	0,2192	46,64	547,69	0,03840	
30,00	0,2198	44,02	548,48	0,03838	
30,02	0,2203	44,26	549,03	0,03829	
30,04	0,2209	42,71	549,60	0,03822	
30,06	0,2215	39,08	550,26	0,03828	
30,08	0,2222	38,17	550,92	0,03837	
30,10	0,2228	38,89	551,59	0,03845	
30,12	0,2236	36,17	552,33	0,03851	
30,14	0,2242	34,26	552,91	0,03850	
30,16	0,2248	34,43	553,52	0,03839	
30,18	0,2255	31,59	554,47	0,03828	
30,20	0,2262	28,40	555,34	0,03823	
30,22	0,2268	28,83	555,89	0,03831	
30,24	0,2275	26,81	556,47	0,03846	
30,26	0,2282	22,66	557,08	0,03859	
30,28	0,2290	21,40	557,70	0,03860	
30,30	0,2299	19,44	558,52	0,03839	
30,32	0,2306	14,99	559,29	0,03825	
30,34	0,2312	12,86	559,89	0,03831	
30,36	0,2319	11,14	560,54	0,03838	
30,38	0,2326	8,344	561,20	0,03847	
30,40	0,2334	6,923	561,86	0,03852	
30,42	0,2343	5,840	562,59	0,03853	
30,44	0,2351	3,201	563,26	0,03841	
30,46	0,2359	1,761	563,88	0,03829	
30,48	0,2367	-0,1518	564,66	0,03828	
30,50	0,2375	-2,926	565,40	0,03832	
30,52	0,2384	-4,447	565,95	0,03845	
30,54	0,2392	-6,325	566,61	0,03855	
30,56	0,2401	-11,13	567,46	0,03862	
30,58	0,2409	-14,10	568,02	0,03855	
30,60	0,2417	-13,16	568,39	0,03833	
30,62	0,2426	-16,03	569,27	0,03819	
30,64	0,2438	-21,98	570,46	0,03824	
30,66	0,2447	-24,58	571,11	0,03841	
30,68	0,2453	-23,01	571,24	0,03852	
30,70	0,2463	-25,60	571,77	0,03856	
30,72	0,2474	-31,79	572,95	0,03852	
30,74	0,2486	-36,16	573,99	0,03833	
30,76	0,2494	-36,40	574,34	0,03814	
30,78	0,2503	-38,05	574,63	0,03816	
30,80	0,2514	-43,33	575,55	0,03831	
30,82	0,2526	-47,87	576,62	0,03848	
30,84	0,2536	-47,87	577,06	0,03858	
30,86	0,2545	-47,36	577,17	0,03854	
30,88	0,2557	-51,38	577,80	0,03838	
30,90	0,2570	-55,72	579,10	0,03828	
30,92	0,2583	-59,57	580,45	0,03833	
30,94	0,2592	-61,83	581,09	0,03842	
30,96	0,2601	-64,57	581,23	0,03844	
30,98	0,2612	-67,07	581,57	0,03846	
31,00	0,2626	-69,09	582,47	0,03844	
31,02	0,2640	-69,82	583,44	0,03834	
31,04	0,2652	-69,79	583,92	0,03824	
31,06	0,2663	-71,75	584,28	0,03827	
31,08	0,2674	-74,22	585,08	0,03836	
31,10	0,2687	-77,17	586,15	0,03847	
31,12	0,2699	-76,84	586,78	0,03853	
31,14	0,2712	-76,99	587,13	0,03849	
31,16	0,2726	-79,87	587,85	0,03839	
31,18	0,2740	-83,00	588,78	0,03826	
31,20	0,2753	-81,76	589,34	0,03824	
31,22	0,2765	-80,15	589,79	0,03836	
31,24	0,2780	-83,86	590,71	0,03846	
31,26	0,2794	-87,56	591,62	0,03847	
31,28	0,2806	-85,83	592,00	0,03843	
31,30	0,2815	-83,60	592,25	0,03841	
31,32	0,2829	-85,62	593,07	0,03835	
31,34	0,2846	-88,58	594,38	0,03829	
31,36	0,2859	-88,69	595,37	0,03831	
31,38	0,2868	-85,31	595,71	0,03833	
31,40	0,2880	-84,14	596,17	0,03837	
31,42	0,2898	-87,18	597,06	0,03841	
31,44	0,2913	-85,59	597,73	0,03832	
31,46	0,2923	-80,47	598,04	0,03824	
31,48	0,2934	-80,01	598,60	0,03823	
31,50	0,2948	-83,21	599,75	0,03823	
31,52	0,2962	-82,80	600,82	0,03829	
31,54	0,2975	-77,10	601,16	0,03833	
31,56	0,2986	-70,76	601,30	0,03837	
31,58	0,3000	-69,04	602,12	0,03836	
31,60	0,3016	-69,78	603,42	0,03826	
31,62	0,3027	-66,72	604,26	0,03823	
31,64	0,3036	-61,23	604,55	0,03829	
31,66	0,3048	-60,45	605,07	0,03845	
31,68	0,3062	-60,31	605,82	0,03857	
31,70	0,3073	-52,95	606,41	0,03854	
31,72	0,3083	-46,81	607,10	0,03842	
31,74	0,3096	-47,41	607,84	0,03827	
31,76	0,3106	-45,19	608,45	0,03825	
31,78	0,3117	-39,28	609,15	0,03829	
31,80	0,3127	-35,24	609,88	0,03835	
31,82	0,3137	-30,39	610,49	0,03846	
31,84	0,3147	-24,74	611,22	0,03848	
31,86	0,3157	-21,20	611,94	0,03847	
31,88	0,3167	-16,72	612,57	0,03833	
31,90	0,3176	-11,90	613,27	0,03820	
31,92	0,3186	-8,810	613,97	0,03821	
31,94	0,3194	-3,977	614,59	0,03829	
31,96	0,3203	1,051	615,28	0,03845	
31,98	0,3213	3,750	615,97	0,03860	
32,00	0,3221	7,278	616,64	0,03864	
32,02	0,3229	10,26	617,37	0,03845	
32,04	0,3237	12,33	618,05	0,03827	
32,06	0,3245	15,90	618,70	0,03828	
32,08	0,3253	19,54	619,40	0,03835	
32,10	0,3260	22,22	620,07	0,03844	
32,12	0,3268	25,63	620,73	0,03849	
32,14	0,3276	28,45	621,42	0,03846	
32,16	0,3283	29,83	622,11	0,03834	
32,18	0,3290	31,89	622,76	0,03823	
32,20	0,3296	34,66	623,43	0,03816	
32,22	0,3303	35,85	624,19	0,03824	
32,24	0,3310	36,65	624,89	0,03844	
32,26	0,3316	39,07	625,50	0,03858	
32,28	0,3323	39,82	626,26	0,03858	
32,30	0,3330	40,36	626,97	0,03843	
32,32	0,3335	43,21	627,58	0,03827	
32,34	0,3341	44,28	628,34	0,03824	
32,36	0,3347	44,01	629,02	0,03829	
32,38	0,3353	46,16	629,63	0,03834	
32,40	0,3360	47,39	630,38	0,03842	
32,42	0,3367	47,04	631,06	0,03847	
32,44	0,3373	48,22	631,69	0,03842	
32,46	0,3379	48,28	632,43	0,03826	
32,48	0,3384	47,65	633,08	0,03823	
32,50	0,3390	49,14	633,72	0,03831	
32,52	0,3397	48,89	634,48	0,03847	
32,54	0,3404	48,93	635,12	0,03857	
32,56	0,3409	51,06	635,77	0,03855	
32,58	0,3416	50,93	636,57	0,03848	
32,60	0,3421	50,17	637,23	0,03830	
32,62	0,3427	51,30	637,89	0,03819	
32,64	0,3433	51,03	638,63	0,03820	
32,66	0,3438	50,33	639,21	0,03829	
32,68	0,3443	51,42	639,87	0,03836	
32,70	0,3451	50,01	640,71	0,03847	
32,72	0,3457	48,60	641,39	0,03844	
32,74	0,3461	49,88	641,97	0,03829	
32,76	0,3468	49,38	642,64	0,03819	
32,78	0,3474	47,98	643,34	0,03822	
32,80	0,3481	47,94	644,04	0,03827	
32,82	0,3486	47,19	644,70	0,03840	
32,84	0,3491	46,44	645,33	0,03849	
32,86	0,3498	46,62	646,05	0,03849	
32,88	0,3505	46,51	646,76	0,03840	
32,90	0,3511	46,60	647,40	0,03827	
32,92	0,3518	45,86	648,13	0,03821	
32,94	0,3524	44,66	648,81	0,03827	
32,96	0,3529	46,06	649,39	0,03836	
32,98	0,3535	46,05	650,18	0,03846	
33,00	0,3542	44,07	650,95	0,03849	
33,02	0,3548	45,35	651,53	0,03839	
33,04	0,3555	45,88	652,26	0,03827	
33,06	0,3562	43,34	652,93	0,03823	
33,08	0,3568	42,91	653,54	0,03828	
33,10	0,3574	42,50	654,32	0,03832	
33,12	0,3579	40,39	655,01	0,03846	
33,14	0,3585	41,17	655,61	0,03853	
33,16	0,3592	40,50	656,40	0,03849	
33,18	0,3599	38,29	657,11	0,03837	
33,20	0,3605	39,13	657,71	0,03824	
33,22	0,3612	38,45	658,42	0,03822	
33,24	0,3618	36,04	659,05	0,03827	
33,26	0,3625	36,43	659,71	0,03836	
33,28	0,3632	35,73	660,53	0,03850	
33,30	0,3639	34,02	661,16	0,03852	
33,32	0,3644	34,59	661,79	0,03838	
33,34	0,3651	33,39	662,59	0,03825	
33,36	0,3658	32,65	663,22	0,03828	
33,38	0,3664	34,27	663,85	0,03836	
33,40	0,3670	33,16	664,60	0,03850	
33,42	0,3676	31,87	665,19	0,03856	
33,44	0,3683	33,11	665,86	0,03850	
33,46	0,3691	32,29	666,66	0,03835	
33,48	0,3698	31,60	667,28	0,03821	
33,50	0,3705	32,75	667,92	0,03821	
33,52	0,3712	30,57	668,72	0,03831	
33,54	0,3718	28,61	669,37	0,03838	
33,56	0,3725	29,23	670,04	0,03843	
33,58	0,3732	27,22	670,75	0,03843	
33,60	0,3738	25,94	671,34	0,03835	
33,62	0,3745	26,53	672,05	0,03827	
33,64	0,3753	24,42	672,87	0,03826	
33,66	0,3759	24,33	673,48	0,03827	
33,68	0,3766	25,54	674,12	0,03832	
33,70	0,3773	23,65	674,79	0,03842	
33,72	0,3779	22,57	675,40	0,03853	
33,74	0,3786	23,25	676,15	0,03848	
33,76	0,3794	21,34	676,91	0,03836	
33,78	0,3801	20,88	677,51	0,03830	
33,80	0,3809	21,32	678,24	0,03833	
33,82	0,3817	20,07	678,95	0,03837	
33,84	0,3823	20,21	679,54	0,03844	
33,86	0,3830	20,21	680,28	0,03857	
33,88	0,3838	18,32	681,00	0,03860	
33,90	0,3845	19,00	681,57	0,03842	
33,92	0,3854	18,78	682,36	0,03833	
33,94	0,3861	15,85	683,19	0,03835	
33,96	0,3867	16,90	683,75	0,03839	
33,98	0,3873	17,85	684,34	0,03846	
34,00	0,3882	14,76	685,11	0,03853	
34,02	0,3890	13,95	685,75	0,03854	
34,04	0,3897	16,87	686,27	0,03842	
34,06	0,3905	15,90	687,07	0,03827	
34,08	0,3914	12,53	687,96	0,03823	
34,10	0,3921	14,32	688,57	0,03835	
34,12	0,3927	14,90	689,18	0,03855	
34,14	0,3936	11,38	689,86	0,03857	
34,16	0,3943	10,30	690,50	0,03848	
34,18	0,3951	11,01	691,23	0,03843	
34,20	0,3959	9,313	691,90	0,03835	
34,22	0,3966	9,315	692,46	0,03829	
34,24	0,3974	9,239	693,24	0,03830	
34,26	0,3983	6,245	694,15	0,03839	
34,28	0,3991	5,582	694,76	0,03850	
34,30	0,3998	6,666	695,21	0,03853	
34,32	0,4006	4,026	695,96	0,03845	
34,34	0,4016	0,7536	696,86	0,03832	
34,36	0,4024	2,175	697,48	0,03823	
34,38	0,4031	3,491	698,05	0,03825	
34,40	0,4040	1,632	698,74	0,03835	
34,42	0,4049	1,097	699,33	0,03847	
34,44	0,4058	3,771	699,69	0,03851	
34,46	0,4066	6,218	699,80	0,03845	
34,48	0,4074	10,47	699,69	0,03833	
34,50	0,4082	18,15	699,52	0,03828	
34,52	0,4090	24,37	699,52	0,03834	
34,54	0,4099	27,88	699,66	0,03841	
34,56	0,4106	32,67	699,66	0,03846	
34,58	0,4111	39,17	699,52	0,03854	
34,60	0,4118	43,45	699,53	0,03850	
34,62	0,4126	47,17	699,70	0,03835	
34,64	0,4133	55,00	699,74	0,03827	
34,66	0,4137	64,54	699,61	0,03830	
34,68	0,4142	70,36	699,50	0,03834	
34,70	0,4148	73,21	699,56	0,03838	
34,72	0,4154	76,70	699,66	0,03840	
34,74	0,4157	81,44	699,63	0,03842	
34,76	0,4160	85,43	699,49	0,03838	
34,78	0,4164	87,41	699,52	0,03827	
34,80	0,4170	88,68	699,72	0,03820	
34,82	0,4173	92,89	699,78	0,03830	
34,84	0,4176	98,48	699,65	0,03845	
34,86	0,4178	101,35	699,52	0,03849	
34,88	0,4182	102,63	699,53	0,03844	
34,90	0,4186	104,50	699,65	0,03836	
34,92	0,4188	107,09	699,66	0,03826	
34,94	0,4190	110,00	699,55	0,03825	
34,96	0,4192	112,31	699,47	0,03832	
34,98	0,4196	113,11	699,60	0,03842	
35,00	0,4199	114,68	699,77	0,03853	
35,02	0,4200	117,85	699,73	0,03855	
35,04	0,4200	121,13	699,57	0,03846	
35,06	0,4203	122,72	699,48	0,03831	
35,08	0,4205	123,11	699,54	0,03823	
35,10	0,4207	123,42	699,64	0,03826	
35,12	0,4208	123,72	699,62	0,03838	
35,14	0,4210	124,70	699,51	0,03854	
35,16	0,4212	125,12	699,50	0,03857	
35,18	0,4214	124,85	699,68	0,03849	
35,20	0,4217	126,93	699,79	0,03833	
35,22	0,4218	130,14	699,69	0,03831	
35,24	0,4218	132,54	699,53	0,03831	
35,26	0,4219	132,57	699,53	0,03835	
35,28	0,4223	132,57	699,62	0,03846	
35,30	0,4226	133,79	699,62	0,03856	
35,32	0,4226	134,97	699,51	0,03852	
35,34	0,4225	134,36	699,48	0,03841	
35,36	0,4227	132,50	699,67	0,03826	
35,38	0,4227	133,77	699,81	0,03824	
35,40	0,4227	136,75	699,72	0,03835	
35,42	0,4229	138,60	699,55	0,03842	
35,44	0,4231	138,80	699,50	0,03844	
35,46	0,4233	139,14	699,60	0,03846	
35,48	0,4234	139,75	699,66	0,03837	
35,50	0,4233	140,90	699,56	0,03834	
35,52	0,4232	140,98	699,46	0,03832	
35,54	0,4235	139,20	699,61	0,03834	
35,56	0,4239	139,18	699,78	0,03848	
35,58	0,4239	142,36	699,71	0,03858	
35,60	0,4239	144,35	699,54	0,03853	
35,62	0,4239	141,78	699,57	0,03839	
35,64	0,4240	140,03	699,66	0,03826	
35,66	0,4239	142,52	699,57	0,03823	
35,68	0,4239	143,56	699,51	0,03827	
35,70	0,4240	140,10	699,63	0,03835	
35,72	0,4244	139,01	699,68	0,03847	
35,74	0,4245	143,27	699,56	0,03846	
35,76	0,4246	145,43	699,50	0,03841	
35,78	0,4247	143,26	699,64	0,03835	
35,80	0,4247	143,49	699,68	0,03833	
35,82	0,4246	146,24	699,58	0,03837	
35,84	0,4246	146,24	699,54	0,03837	
35,86	0,4246	144,57	699,59	0,03841	
35,88	0,4247	145,40	699,63	0,03853	
35,90	0,4247	148,90	699,55	0,03856	
35,92	0,4249	150,87	699,42	0,03846	
35,94	0,4252	148,39	699,73	0,03833	
35,96	0,4254	145,78	700,18	0,03831	
35,98	0,4254	147,27	700,22	0,03838	
36,00	0,4253	149,34	699,98	0,03849	
36,02	0,4253	150,57	699,68	0,03857	
36,04	0,4252	152,57	699,50	0,03848	
36,06	0,4253	153,52	699,55	0,03831	
36,08	0,4254	151,01	699,68	0,03822	
36,10	0,4254	149,31	699,65	0,03834	
36,12	0,4252	150,28	699,50	0,03845	
36,14	0,4253	149,80	699,55	0,03852	
36,16	0,4254	149,52	699,74	0,03851	
36,18	0,4254	153,07	699,73	0,03844	
36,20	0,4252	155,98	699,57	0,03835	
36,22	0,4254	154,35	699,54	0,03832	
36,24	0,4259	152,23	699,63	0,03832	
36,26	0,4260	154,02	699,60	0,03836	
36,28	0,4259	156,40	699,50	0,03848	
36,30	0,4259	155,07	699,55	0,03858	
36,32	0,4260	152,66	699,70	0,03852	
36,34	0,4260	154,14	699,68	0,03837	
36,36	0,4259	157,12	699,51	0,03825	
36,38	0,4259	156,56	699,52	0,03820	
36,40	0,4260	153,72	699,75	0,03825	
36,42	0,4261	154,14	699,82	0,03840	
36,44	0,4259	156,14	699,65	0,03852	
36,46	0,4259	155,38	699,49	0,03856	
36,48	0,4259	152,77	699,56	0,03847	
36,50	0,4261	151,15	699,74	0,03832	
36,52	0,4260	151,29	699,72	0,03824	
36,54	0,4259	151,73	699,54	0,03826	
36,56	0,4259	150,18	699,52	0,03839	
36,58	0,4261	148,58	699,69	0,03851	
36,60	0,4261	150,10	699,74	0,03854	
36,62	0,4259	152,07	699,60	0,03844	
36,64	0,4260	151,55	699,49	0,03829	
36,66	0,4263	149,35	699,58	0,03820	
36,68	0,4266	148,22	699,69	0,03821	
36,70	0,4267	149,70	699,63	0,03833	
36,72	0,4266	150,71	699,47	0,03848	
36,74	0,4266	149,14	699,54	0,03848	
36,76	0,4267	147,19	699,75	0,03838	
36,78	0,4267	148,34	699,75	0,03830	
36,80	0,4266	150,69	699,58	0,03828	
36,82	0,4266	149,43	699,50	0,03832	
36,84	0,4267	146,60	699,60	0,03868	
36,86	0,4267	146,33	699,68	0,03945	
36,88	0,4266	147,89	699,57	0,04004	
36,90	0,4265	148,02	699,46	0,04022	
36,92	0,4268	145,66	699,62	0,04008	
36,94	0,4272	144,00	699,82	0,03988	
36,96	0,4273	145,79	699,77	0,03981	
36,98	0,4272	147,90	699,57	0,03985	
37,00	0,4272	147,12	699,50	0,03998	
37,02	0,4273	145,28	699,62	0,04006	
37,04	0,4274	144,62	699,66	0,04007	
37,06	0,4273	145,18	699,54	0,03996	
37,08	0,4272	144,61	699,49	0,03924	
37,10	0,4273	142,37	699,66	0,03847	
37,12	0,4274	142,39	699,78	0,03825	
37,14	0,4273	145,64	699,67	0,03842	
37,16	0,4274	146,94	699,52	0,03856	
37,18	0,4277	144,73	699,52	0,03858	
37,20	0,4280	143,53	699,65	0,03848	
37,22	0,4280	144,15	699,68	0,03835	
37,24	0,4279	145,22	699,54	0,03826	
37,26	0,4279	144,50	699,48	0,03829	
37,28	0,4280	142,24	699,65	0,03839	
37,30	0,4281	142,41	699,73	0,03852	
37,32	0,4280	145,59	699,60	0,03849	
37,34	0,4279	145,89	699,47	0,03842	
37,36	0,4283	142,66	699,60	0,03837	
37,38	0,4287	141,67	699,78	0,03824	
37,40	0,4287	143,68	699,74	0,03824	
37,42	0,4286	145,04	699,55	0,03835	
37,44	0,4285	143,99	699,47	0,03849	
37,46	0,4287	141,90	699,68	0,03853	
37,48	0,4288	141,88	699,88	0,03847	
37,50	0,4287	142,93	699,79	0,03834	
37,52	0,4286	143,27	699,57	0,03822	
37,54	0,4289	143,14	699,50	0,03817	
37,56	0,4293	142,91	699,61	0,03826	
37,58	0,4294	142,86	699,69	0,03838	
37,60	0,4293	143,55	699,57	0,03844	
37,62	0,4292	142,86	699,52	0,03849	
37,64	0,4294	140,15	699,67	0,03845	
37,66	0,4294	141,14	699,72	0,03832	
37,68	0,4293	145,35	699,56	0,03825	
37,70	0,4292	145,49	699,49	0,03828	
37,72	0,4296	141,57	699,66	0,03836	
37,74	0,4299	141,04	699,78	0,03843	
37,76	0,4300	143,59	699,67	0,03843	
37,78	0,4299	144,24	699,50	0,03842	
37,80	0,4299	142,04	699,55	0,03834	
37,82	0,4301	141,03	699,71	0,03825	
37,84	0,4301	142,83	699,70	0,03822	
37,86	0,4299	144,66	699,54	0,03830	
37,88	0,4300	143,07	699,52	0,03842	
37,90	0,4302	141,39	699,63	0,03848	
37,92	0,4305	142,92	699,60	0,03844	
37,94	0,4306	144,63	699,49	0,03830	
37,96	0,4307	141,60	699,59	0,03821	
37,98	0,4308	138,03	699,78	0,03821	
38,00	0,4307	139,91	699,77	0,03830	
38,02	0,4306	143,86	699,58	0,03843	
38,04	0,4306	144,66	699,48	0,03848	
38,06	0,4307	142,71	699,60	0,03846	
38,08	0,4307	142,01	699,70	0,03836	
38,10	0,4307	142,52	699,59	0,03825	
38,12	0,4308	141,33	699,50	0,03826	
38,14	0,4312	138,49	699,63	0,03840	
38,16	0,4314	138,69	699,73	0,03854	
38,18	0,4313	142,32	699,62	0,03856	
38,20	0,4312	143,88	699,48	0,03854	
38,22	0,4313	141,08	699,60	0,03842	
38,24	0,4314	138,70	699,78	0,03828	
38,26	0,4313	140,43	699,71	0,03825	
38,28	0,4313	142,21	699,53	0,03834	
38,30	0,4316	140,35	699,54	0,03848	
38,32	0,4320	137,97	699,67	0,03856	
38,34	0,4321	139,90	699,65	0,03854	
38,36	0,4319	142,00	699,50	0,03846	
38,38	0,4320	139,80	699,52	0,03838	
38,40	0,4321	136,42	699,74	0,03835	
38,42	0,4321	137,26	699,80	0,03838	
38,44	0,4320	140,46	699,64	0,03838	
38,46	0,4321	141,18	699,51	0,03845	
38,48	0,4325	139,74	699,56	0,03859	
38,50	0,4327	139,87	699,62	0,03864	
38,52	0,4327	140,39	699,56	0,03854	
38,54	0,4326	139,49	699,49	0,03837	
38,56	0,4327	136,82	699,63	0,03826	
38,58	0,4328	136,06	699,77	0,03830	
38,60	0,4327	139,06	699,67	0,03847	
38,62	0,4326	141,47	699,49	0,03857	
38,64	0,4329	139,52	699,56	0,03861	
38,66	0,4333	136,91	699,81	0,03853	
38,68	0,4334	137,71	699,85	0,03839	
38,70	0,4333	139,22	699,65	0,03830	
38,72	0,4333	139,13	699,49	0,03839	
38,74	0,4334	136,83	699,59	0,03850	
38,76	0,4334	135,90	699,70	0,03853	
38,78	0,4334	137,46	699,62	0,03858	
38,80	0,4334	137,74	699,46	0,03856	
38,82	0,4338	134,53	699,57	0,03842	
38,84	0,4341	132,81	699,80	0,03832	
38,86	0,4341	135,22	699,79	0,03840	
38,88	0,4339	137,92	699,59	0,03854	
38,90	0,4340	136,41	699,52	0,03862	
38,92	0,4344	134,11	699,63	0,03864	
38,94	0,4346	135,64	699,63	0,03859	
38,96	0,4346	137,77	699,50	0,03842	
38,98	0,4346	136,00	699,48	0,03831	
39,00	0,4347	132,34	699,65	0,03828	
39,02	0,4348	133,32	699,73	0,03834	
39,04	0,4347	136,85	699,61	0,03842	
39,06	0,4346	137,94	699,48	0,03848	
39,08	0,4350	136,23	699,57	0,03845	
39,10	0,4354	135,60	699,71	0,03832	
39,12	0,4354	137,42	699,63	0,03825	
39,14	0,4353	138,01	699,49	0,03824	
39,16	0,4354	135,31	699,60	0,03835	
39,18	0,4355	133,40	699,81	0,03852	
39,20	0,4354	135,40	699,78	0,03853	
39,22	0,4353	138,00	699,60	0,03839	
39,24	0,4356	137,93	699,51	0,03825	
39,26	0,4359	136,99	699,55	0,03819	
39,28	0,4361	137,20	699,60	0,03822	
39,30	0,4360	136,84	699,53	0,03828	
39,32	0,4360	134,93	699,48	0,03839	
39,34	0,4361	131,43	699,71	0,03853	
39,36	0,4365	130,13	699,93	0,03857	
39,38	0,4367	133,19	699,85	0,03842	
39,40	0,4366	137,27	699,60	0,03828	
39,42	0,4366	138,05	699,47	0,03825	
39,44	0,4367	135,90	699,64	0,03824	
39,46	0,4368	133,65	699,81	0,03829	
39,48	0,4367	132,33	699,75	0,03834	
39,50	0,4368	131,86	699,58	0,03832	
39,52	0,4371	132,04	699,50	0,03823	
39,54	0,4373	133,79	699,54	0,03819	
39,56	0,4374	135,43	699,58	0,03820	
39,58	0,4374	134,67	699,58	0,03820	
39,60	0,4374	133,20	699,55	0,03828	
39,62	0,4374	133,63	699,54	0,03841	
39,64	0,4374	134,85	699,56	0,03846	
39,66	0,4377	136,32	699,57	0,03838	
39,68	0,4380	136,26	699,57	0,03828	
39,70	0,4380	135,48	699,56	0,03820	
39,72	0,4380	135,04	699,56	0,03820	
39,74	0,4380	135,00	699,57	0,03833	
39,76	0,4380	135,06	699,57	0,03844	
39,78	0,4381	135,02	699,58	0,03849	
39,80	0,4381	134,93	699,58	0,03857	
39,82	0,4381	135,03	699,56	0,03857	
39,84	0,4382	135,23	699,54	0,03850	
39,86	0,4385	135,20	699,55	0,03847	
39,88	0,4387	135,04	699,59	0,03860	
39,90	0,4387	135,03	699,59	0,03880	
39,92	0,4387	135,23	699,55	0,03898	
39,94	0,4387	135,49	699,51	0,03905	
39,96	0,4387	134,99	699,58	0,03901	
39,98	0,4388	133,42	699,66	0,03887	
40,00	0,4387	133,92	699,58	0,03882	
40,02	0,4387	135,01	699,48	0,03891	
40,04	0,4391	132,67	699,64	0,03902	
40,06	0,4394	129,74	699,85	0,03909	
40,08	0,4394	130,80	699,82	0,03907	
40,10	0,4393	133,22	699,61	0,03898	
40,12	0,4393	132,61	699,49	0,03888	
40,14	0,4394	131,50	699,57	0,03886	
40,16	0,4394	131,86	699,64	0,03893	
40,18	0,4394	132,32	699,54	0,03903	
40,20	0,4395	132,19	699,45	0,03907	
40,22	0,4399	129,98	699,66	0,03910	
40,24	0,4401	129,29	699,85	0,03902	
40,26	0,4401	132,17	699,75	0,03889	
40,28	0,4400	134,64	699,56	0,03880	
40,30	0,4400	133,89	699,51	0,03879	
40,32	0,4401	133,09	699,59	0,03890	
40,34	0,4401	134,07	699,62	0,03904	
40,36	0,4402	134,45	699,53	0,03908	
40,38	0,4405	132,63	699,51	0,03895	
40,40	0,4408	131,08	699,63	0,03878	
40,42	0,4408	132,25	699,67	0,03873	
40,44	0,4407	135,77	699,55	0,03879	
40,46	0,4407	136,60	699,47	0,03890	
40,48	0,4408	133,84	699,65	0,03890	
40,50	0,4408	132,75	699,83	0,03893	
40,52	0,4408	135,44	699,76	0,03892	
40,54	0,4408	137,43	699,56	0,03888	
40,56	0,4411	135,98	699,51	0,03879	
40,58	0,4414	134,66	699,61	0,03870	
40,60	0,4415	135,27	699,62	0,03870	
40,62	0,4414	135,55	699,51	0,03879	
40,64	0,4414	133,08	699,52	0,03892	
40,66	0,4415	129,71	699,69	0,03896	
40,68	0,4415	130,83	699,72	0,03878	
40,70	0,4414	135,30	699,56	0,03855	
40,72	0,4417	135,87	699,49	0,03848	
40,74	0,4421	132,30	699,67	0,03859	
40,76	0,4422	131,29	699,80	0,03867	
40,78	0,4421	133,57	699,68	0,03866	
40,80	0,4420	134,56	699,50	0,03863	
40,82	0,4421	133,04	699,54	0,03851	
40,84	0,4422	132,29	699,71	0,03826	
40,86	0,4422	133,73	699,70	0,03806	
40,88	0,4421	135,14	699,53	0,03803	
40,90	0,4423	133,98	699,50	0,03804	
40,92	0,4427	131,24	699,73	0,03804	
40,94	0,4429	131,24	699,82	0,03806	
40,96	0,4427	133,82	699,66	0,03798	
40,98	0,4427	134,49	699,52	0,03781	
41,00	0,4428	132,89	699,56	0,03768	
41,02	0,4428	132,40	699,65	0,03764	
41,04	0,4428	134,05	699,58	0,03759	
41,06	0,4429	134,64	699,46	0,03756	
41,08	0,4432	132,63	699,58	0,03764	
41,10	0,4435	130,82	699,82	0,03764	
41,12	0,4435	133,24	699,82	0,03747	
41,14	0,4434	136,95	699,61	0,03734	
41,16	0,4434	136,90	699,51	0,03738	
41,18	0,4435	134,55	699,65	0,03748	
41,20	0,4435	134,81	699,74	0,03757	
41,22	0,4434	137,12	699,61	0,03753	
41,24	0,4435	136,44	699,47	0,03742	
41,26	0,4439	133,24	699,60	0,03732	
41,28	0,4442	132,42	699,77	0,03718	
41,30	0,4441	135,32	699,69	0,03701	
41,32	0,4440	136,59	699,50	0,03693	
41,34	0,4441	134,06	699,54	0,03669	
41,36	0,4442	131,27	699,77	0,03594	
41,38	0,4442	132,39	699,82	0,03476	
41,40	0,4441	134,42	699,66	0,03324	
41,42	0,4442	134,20	699,47	0,03164	
41,44	0,4445	132,58	699,54	0,03048	
41,46	0,4448	131,29	699,77	0,02986	
41,48	0,4449	131,27	699,80	0,02980	
41,50	0,4448	132,03	699,62	0,03018	
41,52	0,4447	131,60	699,51	0,03070	
41,54	0,4448	131,14	699,57	0,03101	
41,56	0,4448	132,67	699,62	0,03112	
41,58	0,4448	134,43	699,53	0,03125	
41,60	0,4451	133,65	699,48	0,03136	
41,62	0,4454	130,43	699,65	0,03141	
41,64	0,4456	129,37	699,79	0,03149	
41,66	0,4455	132,39	699,68	0,03175	
41,68	0,4454	134,90	699,51	0,03187	
41,70	0,4455	133,86	699,54	0,03151	
41,72	0,4456	132,13	699,68	0,03093	
41,74	0,4455	133,09	699,66	0,03013	
41,76	0,4454	134,80	699,50	0,02924	
41,78	0,4457	133,11	699,51	0,02831	
41,80	0,4461	129,82	699,72	0,02611	
41,82	0,4462	130,51	699,79	0,02374	
41,84	0,4461	133,71	699,65	0,02258	
41,86	0,4460	134,06	699,51	0,02232	
41,88	0,4461	132,74	699,51	0,02229	
41,90	0,4462	132,91	699,62	0,02229	
41,92	0,4462	132,69	699,65	0,02236	
41,94	0,4463	132,33	699,55	0,02235	
41,96	0,4465	132,88	699,45	0,02227	
41,98	0,4468	132,43	699,59	0,02214	
42,00	0,4469	131,73	699,77	0,02200	
42,02	0,4468	133,96	699,71	0,02193	
42,04	0,4467	136,85	699,54	0,02201	
42,06	0,4467	135,21	699,55	0,02212	
42,08	0,4470	133,14	699,66	0,02222	
42,10	0,4473	134,45	699,63	0,02219	
42,12	0,4474	135,80	699,49	0,02205	
42,14	0,4474	133,33	699,53	0,02194	
42,16	0,4476	130,53	699,70	0,02188	
42,18	0,4475	132,46	699,67	0,02195	
42,20	0,4474	135,29	699,50	0,02204	
42,22	0,4474	131,75	699,64	0,02215	
42,24	0,4476	127,71	699,92	0,02217	
42,26	0,4476	129,63	699,88	0,02207	
42,28	0,4477	132,94	699,64	0,02189	
42,30	0,4480	131,76	699,51	0,02180	
42,32	0,4482	129,09	699,59	0,02185	
42,34	0,4482	129,59	699,61	0,02200	
42,36	0,4481	131,33	699,50	0,02215	
42,38	0,4481	129,36	699,56	0,02222	
42,40	0,4484	125,63	699,75	0,02211	
42,42	0,4487	127,44	699,78	0,02193	
42,44	0,4488	132,46	699,65	0,02187	
42,46	0,4488	134,62	699,51	0,02190	
42,48	0,4488	135,64	699,47	0,02191	
42,50	0,4489	136,16	699,60	0,02196	
42,52	0,4489	135,60	699,66	0,02204	
42,54	0,4488	135,54	699,54	0,02206	
42,56	0,4488	135,38	699,46	0,02200	
42,58	0,4492	133,35	699,64	0,02196	
42,60	0,4495	132,72	699,78	0,02192	
42,62	0,4495	135,73	699,66	0,02203	
42,64	0,4494	137,60	699,49	0,02214	
42,66	0,4495	135,62	699,57	0,02214	
42,68	0,4496	133,65	699,73	0,02209	
42,70	0,4495	135,49	699,68	0,02200	
42,72	0,4494	136,58	699,50	0,02192	
42,74	0,4496	134,23	699,53	0,02191	
42,76	0,4500	131,36	699,76	0,02191	
42,78	0,4502	132,47	699,76	0,02196	
42,80	0,4501	134,54	699,56	0,02204	
42,82	0,4501	131,35	699,63	0,02204	
42,84	0,4503	127,76	699,87	0,02198	
42,86	0,4502	129,61	699,89	0,02187	
42,88	0,4501	132,80	699,69	0,02184	
42,90	0,4502	133,28	699,51	0,02195	
42,92	0,4506	132,16	699,56	0,02211	
42,94	0,4509	131,43	699,65	0,02215	
42,96	0,4508	131,79	699,58	0,02208	
42,98	0,4507	132,13	699,46	0,02202	
43,00	0,4508	129,79	699,55	0,02196	
43,02	0,4509	127,83	699,74	0,02187	
43,04	0,4508	130,22	699,70	0,02183	
43,06	0,4508	133,55	699,53	0,02193	
43,08	0,4511	132,15	699,53	0,02209	
43,10	0,4515	129,35	699,69	0,02218	
43,12	0,4516	130,41	699,71	0,02207	
43,14	0,4515	132,89	699,57	0,02191	
43,16	0,4514	132,45	699,48	0,02183	
43,18	0,4516	130,49	699,61	0,02183	
43,20	0,4519	130,84	699,73	0,02188	
43,22	0,4521	133,56	699,64	0,02199	
43,24	0,4521	134,74	699,47	0,02211	
43,26	0,4522	132,26	699,56	0,02211	
43,28	0,4523	130,08	699,79	0,02189	
43,30	0,4522	131,98	699,78	0,02173	
43,32	0,4521	133,98	699,59	0,02177	
43,34	0,4521	132,48	699,51	0,02192	
43,36	0,4523	130,25	699,62	0,02203	
43,38	0,4527	131,09	699,72	0,02210	
43,40	0,4528	133,80	699,63	0,02211	
43,42	0,4528	134,69	699,48	0,02196	
43,44	0,4528	133,05	699,52	0,02182	
43,46	0,4529	131,69	699,63	0,02178	
43,48	0,4528	133,28	699,54	0,02183	
43,50	0,4528	133,25	699,49	0,02192	
43,52	0,4530	127,99	699,77	0,02201	
43,54	0,4533	125,48	699,98	0,02206	
43,56	0,4535	128,80	699,87	0,02198	
43,58	0,4534	132,13	699,62	0,02184	
43,60	0,4534	132,08	699,48	0,02182	
43,62	0,4535	130,94	699,55	0,02194	
43,64	0,4536	129,16	699,68	0,02198	
43,66	0,4535	127,80	699,65	0,02202	
43,68	0,4535	128,23	699,51	0,02200	
43,70	0,4538	128,65	699,47	0,02196	
43,72	0,4541	128,68	699,55	0,02189	
43,74	0,4542	129,66	699,65	0,02184	
43,76	0,4542	131,11	699,61	0,02181	
43,78	0,4541	132,19	699,47	0,02185	
43,80	0,4542	131,22	699,56	0,02200	
43,82	0,4546	129,12	699,86	0,02208	
43,84	0,4548	130,44	699,91	0,02198	
43,86	0,4548	133,50	699,70	0,02178	
43,88	0,4547	134,00	699,49	0,02177	
43,90	0,4548	132,56	699,56	0,02185	
43,92	0,4549	131,37	699,79	0,02198	
43,94	0,4549	131,67	699,79	0,02209	
43,96	0,4548	133,80	699,60	0,02207	
43,98	0,4549	134,43	699,51	0,02201	
44,00	0,4553	132,94	699,63	0,02196	
44,02	0,4555	134,02	699,66	0,02194	
44,04	0,4554	136,38	699,51	0,02190	
44,06	0,4554	133,92	699,52	0,02189	
44,08	0,4556	129,28	699,73	0,02200	
44,10	0,4556	130,14	699,77	0,02211	
44,12	0,4555	134,14	699,59	0,02209	
44,14	0,4555	133,79	699,46	0,02198	
44,16	0,4559	130,08	699,70	0,02192	
44,18	0,4562	128,67	699,99	0,02198	
44,20	0,4562	130,26	699,92	0,02204	
44,22	0,4561	132,09	699,63	0,02202	
44,24	0,4561	131,63	699,51	0,02197	
44,26	0,4562	129,48	699,66	0,02191	
44,28	0,4562	129,74	699,70	0,02179	
44,30	0,4562	131,33	699,56	0,02177	
44,32	0,4564	130,49	699,47	0,02185	
44,34	0,4568	127,30	699,66	0,02188	
44,36	0,4570	127,19	699,85	0,02194	
44,38	0,4569	129,84	699,79	0,02205	
44,40	0,4568	131,93	699,61	0,02204	
44,42	0,4568	132,65	699,49	0,02199	
44,44	0,4571	133,50	699,53	0,02197	
44,46	0,4575	133,59	699,61	0,02194	
44,48	0,4575	132,67	699,60	0,02202	
44,50	0,4575	132,05	699,51	0,02211	
44,52	0,4575	131,42	699,48	0,02208	
44,54	0,4576	130,30	699,64	0,02207	
44,56	0,4576	129,84	699,74	0,02203	
44,58	0,4575	132,53	699,63	0,02193	
44,60	0,4575	134,16	699,51	0,02187	
44,62	0,4578	132,38	699,56	0,02191	
44,64	0,4582	131,09	699,64	0,02198	
44,66	0,4582	132,93	699,57	0,02205	
44,68	0,4581	134,05	699,46	0,02208	
44,70	0,4582	131,08	699,58	0,02202	
44,72	0,4583	127,94	699,78	0,02196	
44,74	0,4583	129,77	699,75	0,02409	
44,76	0,4582	133,43	699,55	0,03423	
44,78	0,4584	133,58	699,48	0,05767	
44,80	0,4588	131,21	699,66	0,08243	
44,82	0,4590	130,59	699,79	0,09767	
44,84	0,4589	131,51	699,69	0,1093	
44,86	0,4588	132,36	699,50	0,1152	
44,88	0,4588	132,21	699,50	0,1184	
44,90	0,4589	131,57	699,73	0,1211	
44,92	0,4591	132,68	699,81	0,1310	
44,94	0,4593	134,78	699,62	0,1397	
44,96	0,4594	134,11	699,50	0,1487	
44,98	0,4596	130,62	699,65	0,1583	
45,00	0,4596	130,48	699,78	0,1662	
45,02	0,4595	133,37	699,68	0,1728	
45,04	0,4594	134,46	699,49	0,1764	
45,06	0,4596	131,70	699,53	0,1776	
45,08	0,4601	129,37	699,77	0,1779	
45,10	0,4602	130,08	699,85	0,1781	
45,12	0,4602	131,66	699,66	0,1782	
45,14	0,4601	132,79	699,52	0,1783	
45,16	0,4602	132,01	699,60	0,1783	
45,18	0,4602	132,83	699,64	0,1783	
45,20	0,4601	134,65	699,51	0,1784	
45,22	0,4601	133,07	699,51	0,1785	
45,24	0,4604	127,92	699,74	0,1786	
45,26	0,4607	127,07	699,84	0,1787	
45,28	0,4608	131,56	699,66	0,1787	
45,30	0,4608	133,52	699,49	0,1786	
45,32	0,4608	130,65	699,62	0,1786	
45,34	0,4609	129,23	699,80	0,1786	
45,36	0,4609	131,22	699,75	0,1786	
45,38	0,4608	132,43	699,54	0,1788	
45,40	0,4610	131,70	699,46	0,1789	
45,42	0,4615	129,67	699,83	0,1789	
45,44	0,4616	129,76	700,20	0,1788	
45,46	0,4616	130,85	700,25	0,1787	
45,48	0,4615	131,01	700,06	0,1785	
45,50	0,4615	132,85	699,77	0,1786	
45,52	0,4614	138,08	699,52	0,1787	
45,54	0,4618	139,32	699,51	0,1788	
45,56	0,4622	134,52	699,64	0,1788	
45,58	0,4623	130,20	699,65	0,1787	
45,60	0,4622	130,15	699,51	0,1786	
45,62	0,4621	129,93	699,52	0,1785	
45,64	0,4623	129,44	699,75	0,1784	
45,66	0,4623	132,49	699,86	0,1784	
45,68	0,4622	136,67	699,73	0,1785	
45,70	0,4622	138,66	699,54	0,1785	
45,72	0,4624	138,16	699,50	0,1785	
45,74	0,4628	138,02	699,54	0,1785	
45,76	0,4629	137,63	699,55	0,1783	
45,78	0,4628	135,55	699,56	0,1780	
45,80	0,4629	132,32	699,62	0,1779	
45,82	0,4629	131,17	699,61	0,1779	
45,84	0,4628	133,81	699,51	0,1779	
45,86	0,4629	134,75	699,60	0,1779	
45,88	0,4631	133,01	699,84	0,1778	
45,90	0,4634	133,95	699,85	0,1776	
45,92	0,4635	137,14	699,65	0,1774	
45,94	0,4635	137,91	699,53	0,1774	
45,96	0,4636	136,50	699,57	0,1775	
45,98	0,4636	136,62	699,62	0,1777	
46,00	0,4636	137,15	699,57	0,1779	
46,02	0,4635	136,42	699,49	0,1779	
46,04	0,4635	134,83	699,56	0,1779	
46,06	0,4638	134,45	699,72	0,1778	
46,08	0,4640	137,05	699,70	0,1778	
46,10	0,4641	140,84	699,52	0,1779	
46,12	0,4641	141,38	699,48	0,1782	
46,14	0,4643	138,16	699,69	0,1783	
46,16	0,4643	137,75	699,81	0,1785	
46,18	0,4642	140,34	699,66	0,1785	
46,20	0,4641	140,77	699,50	0,1784	
46,22	0,4642	137,81	699,60	0,1784	
46,24	0,4643	136,24	699,76	0,1784	
46,26	0,4642	138,61	699,70	0,1786	
46,28	0,4641	140,00	699,48	0,1786	
46,30	0,4645	136,33	699,60	0,1786	
46,32	0,4649	133,25	700,03	0,1786	
46,34	0,4650	134,85	700,23	0,1785	
46,36	0,4649	136,05	700,12	0,1784	
46,38	0,4649	135,99	699,85	0,1783	
46,40	0,4648	138,82	699,59	0,1784	
46,42	0,4648	142,08	699,49	0,1785	
46,44	0,4649	140,93	699,55	0,1786	
46,46	0,4649	137,65	699,59	0,1785	
46,48	0,4649	135,81	699,54	0,1785	
46,50	0,4652	134,38	699,57	0,1784	
46,52	0,4655	133,39	699,67	0,1784	
46,54	0,4656	136,51	699,62	0,1784	
46,56	0,4655	141,87	699,45	0,1784	
46,58	0,4655	142,67	699,47	0,1784	
46,60	0,4656	137,74	699,92	0,1782	
46,62	0,4657	135,07	700,23	0,1780	
46,64	0,4656	135,21	700,11	0,1779	
46,66	0,4655	135,86	699,76	0,1779	
46,68	0,4658	135,80	699,58	0,1777	
46,70	0,4662	135,02	699,63	0,1775	
46,72	0,4662	135,09	699,59	0,1776	
46,74	0,4661	134,71	699,47	0,1777	
46,76	0,4662	130,74	699,61	0,1778	
46,78	0,4663	127,51	699,87	0,1776	
46,80	0,4663	130,84	699,88	0,1774	
46,82	0,4662	136,39	699,66	0,1772	
46,84	0,4664	138,74	699,50	0,1773	
46,86	0,4668	137,81	699,59	0,1773	
46,88	0,4670	137,48	699,68	0,1774	
46,90	0,4669	138,63	699,52	0,1775	
46,92	0,4668	138,15	699,43	0,1776	
46,94	0,4670	132,49	699,87	0,1776	
46,96	0,4671	129,73	700,30	0,1776	
46,98	0,4670	132,11	700,30	0,1776	
47,00	0,4671	133,23	700,00	0,1776	
47,02	0,4673	134,03	699,67	0,1778	
47,04	0,4676	135,60	699,62	0,1780	
47,06	0,4677	136,00	699,64	0,1780	
47,08	0,4676	135,93	699,54	0,1780	
47,10	0,4675	134,84	699,47	0,1779	
47,12	0,4676	131,36	699,62	0,1778	
47,14	0,4678	130,32	699,73	0,1779	
47,16	0,4680	134,48	699,62	0,1779	
47,18	0,4681	137,53	699,46	0,1780	
47,20	0,4682	135,66	699,62	0,1782	
47,22	0,4684	133,40	699,90	0,1783	
47,24	0,4683	135,22	699,91	0,1782	
47,26	0,4682	137,74	699,70	0,1781	
47,28	0,4682	138,41	699,49	0,1782	
47,30	0,4685	138,24	699,53	0,1783	
47,32	0,4689	137,85	699,71	0,1784	
47,34	0,4690	138,17	699,69	0,1784	
47,36	0,4689	138,49	699,52	0,1785	
47,38	0,4689	135,71	699,54	0,1784	
47,40	0,4690	133,22	699,72	0,1783	
47,42	0,4690	135,74	699,76	0,1782	
47,44	0,4689	139,47	699,58	0,1781	
47,46	0,4689	139,32	699,45	0,1781	
47,48	0,4692	136,42	699,59	0,1781	
47,50	0,4696	134,79	699,76	0,1782	
47,52	0,4696	135,54	699,71	0,1784	
47,54	0,4696	135,23	699,57	0,1783	
47,56	0,4695	134,22	699,50	0,1780	
47,58	0,4696	135,18	699,52	0,1777	
47,60	0,4697	135,82	699,71	0,1775	
47,62	0,4697	134,16	699,81	0,1775	
47,64	0,4698	134,13	699,68	0,1775	
47,66	0,4700	136,58	699,50	0,1776	
47,68	0,4702	137,62	699,51	0,1775	
47,70	0,4704	137,43	699,63	0,1774	
47,72	0,4704	137,54	699,69	0,1773	
47,74	0,4703	137,57	699,59	0,1773	
47,76	0,4702	137,26	699,46	0,1774	
47,78	0,4704	137,18	699,55	0,1775	
47,80	0,4708	137,72	699,71	0,1777	
47,82	0,4709	140,18	699,58	0,1777	
47,84	0,4709	139,95	699,58	0,1776	
47,86	0,4710	134,27	699,93	0,1774	
47,88	0,4710	133,18	700,08	0,1774	
47,90	0,4709	137,76	699,82	0,1776	
47,92	0,4709	139,05	699,62	0,1779	
47,94	0,4711	134,02	699,88	0,1782	
47,96	0,4714	132,70	700,13	0,1782	
47,98	0,4715	134,57	699,97	0,1781	
48,00	0,4715	135,77	699,66	0,1780	
48,02	0,4716	133,61	699,60	0,1780	
48,04	0,4717	133,43	699,63	0,1781	
48,06	0,4716	135,65	699,57	0,1782	
48,08	0,4715	136,10	699,46	0,1783	
48,10	0,4717	133,54	699,46	0,1784	
48,12	0,4721	130,51	699,62	0,1783	
48,14	0,4724	130,11	699,78	0,1781	
48,16	0,4724	131,29	699,74	0,1780	
48,18	0,4722	133,77	699,56	0,1779	
48,20	0,4722	135,21	699,50	0,1779	
48,22	0,4723	134,95	699,67	0,1780	
48,24	0,4724	135,42	699,76	0,1780	
48,26	0,4724	137,65	699,61	0,1781	
48,28	0,4726	137,81	699,45	0,1781	
48,30	0,4729	134,14	699,67	0,1778	
48,32	0,4731	132,42	699,99	0,1777	
48,34	0,4731	134,32	700,02	0,1776	
48,36	0,4729	135,75	699,78	0,1775	
48,38	0,4730	135,94	699,56	0,1776	
48,40	0,4734	136,14	699,53	0,1776	
48,42	0,4736	137,12	699,58	0,1775	
48,44	0,4737	136,63	699,61	0,1774	
48,46	0,4736	135,80	699,53	0,1773	
48,48	0,4735	135,86	699,44	0,1773	
48,50	0,4737	135,77	699,66	0,1773	
48,52	0,4738	136,05	699,92	0,1774	
48,54	0,4737	138,77	699,86	0,1776	
48,56	0,4737	141,68	699,61	0,1777	
48,58	0,4740	141,82	699,50	0,1776	
48,60	0,4743	139,74	699,62	0,1775	
48,62	0,4744	138,98	699,68	0,1774	
48,64	0,4743	139,13	699,56	0,1775	
48,66	0,4742	138,27	699,47	0,1778	
48,68	0,4743	134,87	699,64	0,1780	
48,70	0,4744	134,29	699,79	0,1781	
48,72	0,4745	138,12	699,71	0,1781	
48,74	0,4747	141,37	699,53	0,1780	
48,76	0,4749	141,06	699,46	0,1780	
48,78	0,4750	138,99	699,65	0,1780	
48,80	0,4751	137,94	699,87	0,1781	
48,82	0,4750	138,45	699,77	0,1783	
48,84	0,4749	139,06	699,55	0,1784	
48,86	0,4750	137,32	699,58	0,1784	
48,88	0,4754	136,14	699,73	0,1782	
48,90	0,4756	138,68	699,68	0,1781	
48,92	0,4755	140,82	699,49	0,1780	
48,94	0,4756	137,90	699,53	0,1780	
48,96	0,4757	134,11	699,85	0,1780	
48,98	0,4758	135,03	700,09	0,1781	
49,00	0,4757	137,37	699,98	0,1781	
49,02	0,4756	139,05	699,72	0,1779	
49,04	0,4757	140,02	699,55	0,1777	
49,06	0,4760	142,26	699,44	0,1777	
49,08	0,4763	141,16	699,61	0,1778	
49,10	0,4765	135,73	699,97	0,1778	
49,12	0,4765	132,29	700,09	0,1779	
49,14	0,4764	132,93	699,91	0,1780	
49,16	0,4762	136,79	699,62	0,1780	
49,18	0,4762	139,49	699,51	0,1780	
49,20	0,4764	139,62	699,61	0,1779	
49,22	0,4767	137,67	699,67	0,1779	
49,24	0,4769	137,61	699,54	0,1779	
49,26	0,4769	137,67	699,47	0,1779	
49,28	0,4771	135,24	699,68	0,1780	
49,30	0,4771	135,04	699,87	0,1780	
49,32	0,4770	138,44	699,79	0,1779	
49,34	0,4769	141,66	699,57	0,1778	
49,36	0,4771	141,82	699,53	0,1777	
49,38	0,4775	141,05	699,70	0,1777	
49,40	0,4777	142,63	699,72	0,1777	
49,42	0,4776	144,70	699,54	0,1778	
49,44	0,4776	142,59	699,51	0,1779	
49,46	0,4777	138,80	699,69	0,1780	
49,48	0,4778	139,66	699,78	0,1778	
49,50	0,4777	143,28	699,62	0,1777	
49,52	0,4776	143,61	699,46	0,1776	
49,54	0,4777	140,45	699,63	0,1777	
49,56	0,4781	138,98	699,93	0,1778	
49,58	0,4784	140,36	699,93	0,1779	
49,60	0,4783	141,42	699,67	0,1779	
49,62	0,4783	140,48	699,51	0,1778	
49,64	0,4784	139,34	699,66	0,1777	
49,66	0,4785	140,10	699,82	0,1776	
49,68	0,4784	141,54	699,71	0,1777	
49,70	0,4783	142,18	699,53	0,1778	
49,72	0,4784	139,81	699,58	0,1779	
49,74	0,4787	138,95	699,67	0,1780	
49,76	0,4789	142,10	699,54	0,1779	
49,78	0,4789	142,61	699,51	0,1777	
49,80	0,4791	138,24	699,69	0,1776	
49,82	0,4791	137,26	699,74	0,1776	
49,84	0,4790	141,27	699,59	0,1777	
49,86	0,4789	142,78	699,44	0,1778	
49,88	0,4790	139,08	699,62	0,1779	
49,90	0,4791	137,57	699,85	0,1779	
49,92	0,4791	139,79	699,77	0,1777	
49,94	0,4791	140,54	699,54	0,1777	
49,96	0,4794	137,18	699,58	0,1777	
49,98	0,4797	134,54	699,73	0,1778	
50,00	0,4797	137,31	699,71	0,1779	
50,02	0,4797	138,74	699,58	0,1779	
50,04	0,4796	137,46	699,46	0,1779	
50,06	0,4797	136,94	699,54	0,1779	
50,08	0,4798	137,35	699,69	0,1778	
50,10	0,4798	138,57	699,62	0,1777	
50,12	0,4800	139,61	699,51	0,1777	
50,14	0,4803	137,07	699,63	0,1778	
50,16	0,4805	136,12	699,75	0,1779	
50,18	0,4804	140,67	699,64	0,1779	
50,20	0,4803	143,83	699,48	0,1778	
50,22	0,4804	140,41	699,66	0,1777	
50,24	0,4805	138,36	699,84	0,1776	
50,26	0,4804	141,58	699,69	0,1776	
50,28	0,4804	141,90	699,58	0,1777	
50,30	0,4808	137,32	699,69	0,1779	
50,32	0,4810	137,75	699,70	0,1780	
50,34	0,4810	143,17	699,54	0,1779	
50,36	0,4810	143,57	699,51	0,1778	
50,38	0,4811	139,64	699,65	0,1777	
50,40	0,4811	139,97	699,67	0,1776	
50,42	0,4810	143,41	699,53	0,1776	
50,44	0,4810	143,62	699,44	0,1777	
50,46	0,4814	140,24	699,73	0,1778	
50,48	0,4817	138,83	700,12	0,1779	
50,50	0,4818	140,33	700,09	0,1778	
50,52	0,4816	142,01	699,78	0,1777	
50,54	0,4816	142,55	699,55	0,1776	
50,56	0,4816	142,88	699,52	0,1777	
50,58	0,4817	143,13	699,60	0,1777	
50,60	0,4817	141,56	699,54	0,1778	
50,62	0,4816	139,00	699,51	0,1779	
50,64	0,4819	134,77	699,85	0,1780	
50,66	0,4822	134,28	700,06	0,1779	
50,68	0,4823	138,06	699,91	0,1777	
50,70	0,4823	141,28	699,63	0,1776	
50,72	0,4823	140,96	699,52	0,1777	
50,74	0,4824	140,36	699,62	0,1778	
50,76	0,4824	140,91	699,67	0,1779	
50,78	0,4823	142,04	699,53	0,1779	
50,80	0,4823	140,28	699,52	0,1779	
50,82	0,4826	136,70	699,82	0,1778	
50,84	0,4829	137,15	700,02	0,1777	
50,86	0,4830	140,67	699,89	0,1776	
50,88	0,4830	142,89	699,63	0,1777	
50,90	0,4830	143,60	699,49	0,1778	
50,92	0,4831	143,18	699,59	0,1780	
50,94	0,4831	141,36	699,75	0,1780	
50,96	0,4831	140,23	699,71	0,1778	
50,98	0,4830	141,21	699,54	0,1777	
51,00	0,4831	141,29	699,50	0,1777	
51,02	0,4835	141,16	699,64	0,1777	
51,04	0,4837	142,74	699,67	0,1778	
51,06	0,4837	144,81	699,52	0,1778	
51,08	0,4837	143,63	699,49	0,1779	
51,10	0,4838	140,18	699,69	0,1778	
51,12	0,4838	140,46	699,76	0,1777	
51,14	0,4837	144,42	699,59	0,1775	
51,16	0,4836	145,28	699,49	0,1775	
51,18	0,4838	141,74	699,68	0,1777	
51,20	0,4838	140,83	699,82	0,1778	
51,22	0,4837	143,35	699,70	0,1779	
51,24	0,4838	144,08	699,49	0,1779	
51,26	0,4841	141,29	699,55	0,1778	
51,28	0,4845	138,71	699,76	0,1777	
51,30	0,4845	139,22	699,80	0,1776	
51,32	0,4843	140,14	699,62	0,1776	
51,34	0,4843	138,92	699,54	0,1778	
51,36	0,4844	136,97	699,65	0,1779	
51,38	0,4844	139,22	699,64	0,1779	
51,40	0,4843	142,18	699,47	0,1778	
51,42	0,4845	139,59	699,55	0,1777	
51,44	0,4849	133,78	699,89	0,1776	
51,46	0,4851	134,32	700,00	0,1776	
51,48	0,4851	137,73	699,81	0,1777	
51,50	0,4850	139,16	699,60	0,1778	
51,52	0,4850	139,73	699,50	0,1780	
51,54	0,4851	140,50	699,57	0,1779	
51,56	0,4851	139,76	699,66	0,1778	
51,58	0,4851	139,05	699,60	0,1777	
51,60	0,4853	139,04	699,51	0,1776	
51,62	0,4856	139,74	699,50	0,1776	
51,64	0,4857	140,41	699,62	0,1777	
51,66	0,4858	141,74	699,69	0,1778	
51,68	0,4857	144,06	699,55	0,1778	
51,70	0,4856	144,01	699,49	0,1778	
51,72	0,4858	140,77	699,76	0,1777	
51,74	0,4858	139,30	700,02	0,1776	
51,76	0,4858	141,82	699,93	0,1777	
51,78	0,4858	144,49	699,65	0,1777	
51,80	0,4861	143,90	699,52	0,1778	
51,82	0,4864	141,89	699,60	0,1778	
51,84	0,4865	140,62	699,66	0,1778	
51,86	0,4864	139,83	699,53	0,1777	
51,88	0,4863	138,36	699,45	0,1776	
51,90	0,4864	134,11	699,69	0,1776	
51,92	0,4865	132,89	699,87	0,1777	
51,94	0,4864	135,65	699,76	0,1778	
51,96	0,4865	137,47	699,59	0,1778	
51,98	0,4868	136,55	699,58	0,1777	
52,00	0,4870	137,37	699,58	0,1777	
52,02	0,4870	140,38	699,46	0,1777	
52,04	0,4870	139,62	699,58	0,1776	
52,06	0,4872	135,37	699,89	0,1776	
52,08	0,4871	135,17	699,93	0,1777	
52,10	0,4871	138,94	699,71	0,1777	
52,12	0,4872	141,10	699,55	0,1778	
52,14	0,4876	139,69	699,63	0,1778	
52,16	0,4878	140,44	699,65	0,1776	
52,18	0,4877	142,92	699,52	0,1775	
52,20	0,4877	141,03	699,50	0,1775	
52,22	0,4878	135,84	699,71	0,1776	
52,24	0,4878	135,59	699,81	0,1778	
52,26	0,4877	139,75	699,61	0,1778	
52,28	0,4876	140,81	699,50	0,1777	
52,30	0,4881	136,76	699,78	0,1776	
52,32	0,4884	134,86	700,03	0,1775	
52,34	0,4884	136,57	699,98	0,1776	
52,36	0,4884	137,76	699,75	0,1777	
52,38	0,4883	138,14	699,57	0,1777	
52,40	0,4884	139,91	699,53	0,1778	
52,42	0,4884	140,79	699,54	0,1778	
52,44	0,4884	139,65	699,55	0,1777	
52,46	0,4885	137,35	699,58	0,1776	
52,48	0,4889	135,95	699,60	0,1776	
52,50	0,4891	138,11	699,57	0,1776	
52,52	0,4891	142,26	699,53	0,1777	
52,54	0,4891	144,68	699,54	0,1778	
52,56	0,4891	144,98	699,62	0,1779	
52,58	0,4891	145,06	699,63	0,1778	
52,60	0,4890	146,81	699,50	0,1776	
52,62	0,4890	146,43	699,51	0,1775	
52,64	0,4893	143,28	699,80	0,1775	
52,66	0,4896	142,29	699,93	0,1776	
52,68	0,4897	144,03	699,76	0,1777	
52,70	0,4897	144,89	699,54	0,1778	
52,72	0,4897	143,34	699,52	0,1778	
52,74	0,4898	141,60	699,68	0,1777	
52,76	0,4899	141,32	699,72	0,1775	
52,78	0,4897	142,19	699,56	0,1775	
52,80	0,4897	142,51	699,43	0,1777	
52,82	0,4898	140,48	699,68	0,1778	
52,84	0,4899	138,63	700,06	0,1778	
52,86	0,4900	138,85	700,18	0,1778	
52,88	0,4903	138,96	699,99	0,1777	
52,90	0,4904	139,84	699,70	0,1776	
52,92	0,4903	142,50	699,52	0,1776	
52,94	0,4904	143,66	699,54	0,1776	
52,96	0,4906	141,32	699,61	0,1777	
52,98	0,4905	139,22	699,56	0,1778	
53,00	0,4904	137,94	699,50	0,1778	
53,02	0,4906	135,23	699,68	0,1778	
53,04	0,4909	134,92	699,89	0,1776	
53,06	0,4910	138,30	699,79	0,1775	
53,08	0,4910	141,17	699,62	0,1775	
53,10	0,4911	139,14	699,62	0,1776	
53,12	0,4911	138,88	699,59	0,1777	
53,14	0,4910	141,60	699,53	0,1778	
53,16	0,4911	140,12	699,61	0,1778	
53,18	0,4911	135,71	699,68	0,1776	
53,20	0,4910	137,45	699,53	0,1775	
53,22	0,4906	140,22	699,53	0,1775	
53,24	0,4902	136,97	699,83	0,1776	
53,26	0,4899	136,17	699,97	0,1777	
53,28	0,4898	139,29	699,81	0,1778	
53,30	0,4897	140,49	699,56	0,1778	
53,32	0,4900	138,99	699,47	0,1777	
53,34	0,4903	137,54	699,67	0,1776	
53,36	0,4905	136,42	699,86	0,1775	
53,38	0,4905	136,83	699,79	0,1775	
53,40	0,4904	138,34	699,57	0,1776	
53,42	0,4904	139,00	699,46	0,1778	
53,44	0,4904	138,48	699,58	0,1779	
53,46	0,4906	137,90	699,74	0,1778	
53,48	0,4906	138,19	699,72	0,1776	
53,50	0,4908	138,77	699,60	0,1775	
53,52	0,4910	141,01	699,44	0,1775	
53,54	0,4912	144,16	699,49	0,1775	
53,56	0,4916	145,19	699,82	0,1775	
53,58	0,4919	146,83	700,00	0,1776	
53,60	0,4923	150,73	699,85	0,1776	
53,62	0,4928	157,49	699,59	0,1775	
53,64	0,4934	164,28	699,55	0,1773	
53,66	0,4943	171,57	699,68	0,1770	
53,68	0,4951	180,45	699,69	0,1769	
53,70	0,4958	190,22	699,56	0,1769	
53,72	0,4967	198,88	699,50	0,1768	
53,74	0,4978	207,81	699,55	0,1766	
53,76	0,4988	219,28	699,59	0,1762	
53,78	0,4999	232,43	699,55	0,1759	
53,80	0,5012	244,87	699,53	0,1755	
53,82	0,5026	256,74	699,61	0,1751	
53,84	0,5040	271,24	699,66	0,1748	
53,86	0,5055	289,78	699,57	0,1746	
53,88	0,5071	308,37	699,44	0,1743	
53,90	0,5088	323,40	699,56	0,1738	
53,92	0,5107	337,14	699,90	0,1732	
53,94	0,5125	354,59	700,01	0,1726	
53,96	0,5142	373,78	699,77	0,1721	
53,98	0,5162	392,16	699,59	0,1717	
54,00	0,5184	410,22	699,57	0,1712	
54,02	0,5205	431,67	699,46	0,1707	
54,04	0,5227	450,89	699,58	0,1700	
54,06	0,5251	464,84	700,11	0,1692	
54,08	0,5276	481,77	700,49	0,1684	
54,10	0,5301	505,43	700,42	0,1676	
54,12	0,5324	529,99	700,10	0,1669	
54,14	0,5349	554,81	699,76	0,1660	
54,16	0,5377	581,57	699,51	0,1651	
54,18	0,5407	604,63	699,45	0,1642	
54,20	0,5436	622,12	699,59	0,1631	
54,22	0,5466	639,27	699,74	0,1619	
54,24	0,5495	660,33	699,64	0,1605	
54,26	0,5525	682,71	699,55	0,1591	
54,28	0,5559	704,06	699,65	0,1577	
54,30	0,5591	727,06	699,74	0,1563	
54,32	0,5624	752,30	699,65	0,1548	
54,34	0,5658	774,26	699,49	0,1531	
54,36	0,5693	790,89	699,49	0,1512	
54,38	0,5730	806,06	699,67	0,1491	
54,40	0,5766	823,09	699,71	0,1469	
54,42	0,5802	840,89	699,57	0,1446	
54,44	0,5839	855,62	699,50	0,1423	
54,46	0,5879	867,71	699,65	0,1400	
54,48	0,5920	882,06	699,75	0,1376	
54,50	0,5959	898,26	699,62	0,1350	
54,52	0,5999	909,65	699,51	0,1322	
54,54	0,6040	916,22	699,63	0,1295	
54,56	0,6081	924,86	699,70	0,1269	
54,58	0,6120	935,79	699,57	0,1243	
54,60	0,6160	943,37	699,47	0,1215	
54,62	0,6201	945,44	699,66	0,1186	
54,64	0,6243	948,83	699,88	0,1158	
54,66	0,6283	956,10	699,84	0,1129	
54,68	0,6320	963,44	699,62	0,1099	
54,70	0,6357	968,68	699,51	0,1068	
54,72	0,6397	972,46	699,60	0,1038	
54,74	0,6437	976,56	699,61	0,1009	
54,76	0,6475	980,29	699,44	0,09798	
54,78	0,6516	979,46	699,55	0,09491	
54,80	0,6558	976,21	699,89	0,09174	
54,82	0,6598	979,39	699,91	0,08861	
54,84	0,6637	985,58	699,63	0,08558	
54,86	0,6677	987,10	699,52	0,08264	
54,88	0,6719	986,01	699,71	0,07974	
54,90	0,6759	988,54	699,77	0,07689	
54,92	0,6798	993,11	699,56	0,07403	
54,94	0,6838	993,39	699,48	0,07089	
54,96	0,6880	989,97	699,80	0,06766	
54,98	0,6921	989,88	700,01	0,06461	
55,00	0,6960	992,98	699,84	0,06169	
55,02	0,6999	995,08	699,57	0,05874	
55,04	0,7040	994,76	699,51	0,05570	
55,06	0,7081	995,56	699,59	0,05261	
55,08	0,7121	997,22	699,60	0,04947	
55,10	0,7161	997,10	699,51	0,04623	
55,12	0,7201	994,47	699,53	0,04294	
55,14	0,7243	992,58	699,65	0,03973	
55,16	0,7280	994,98	699,60	0,03665	
55,18	0,7317	998,33	699,49	0,03368	
55,20	0,7357	996,80	699,62	0,03070	
55,22	0,7398	994,33	699,77	0,02760	
55,24	0,7437	997,92	699,65	0,02439	
55,26	0,7476	1002,0	699,47	0,02113	
55,28	0,7517	998,76	699,64	0,01796	
55,30	0,7559	995,40	699,90	0,01497	
55,32	0,7599	997,53	699,84	0,01201	
55,34	0,7638	999,49	699,62	0,00894	
55,36	0,7677	998,84	699,46	0,00572	
55,38	0,7719	997,89	699,58	0,00244	
55,40	0,7760	997,54	699,77	-0,00090	
55,42	0,7800	998,09	699,70	-0,00415	
55,44	0,7839	998,89	699,50	-0,00733	
55,46	0,7880	997,97	699,55	-0,01054	
55,48	0,7921	996,40	699,76	-0,01372	
55,50	0,7961	998,30	699,74	-0,01683	
55,52	0,8000	1001,0	699,54	-0,02005	
55,54	0,8040	999,28	699,54	-0,02341	
55,56	0,8082	996,59	699,71	-0,02677	
55,58	0,8122	998,16	699,71	-0,03003	
55,60	0,8161	1001,0	699,52	-0,03319	
55,62	0,8201	998,99	699,52	-0,03640	
55,64	0,8243	995,25	699,77	-0,03962	
55,66	0,8283	996,07	699,83	-0,04281	
55,68	0,8320	999,87	699,62	-0,04607	
55,70	0,8357	999,62	699,50	-0,04938	
55,72	0,8397	996,00	699,66	-0,05254	
55,74	0,8438	996,10	699,77	-0,05553	
55,76	0,8477	999,20	699,63	-0,05853	
55,78	0,8517	999,21	699,49	-0,06166	
55,80	0,8558	995,92	699,58	-0,06496	
55,82	0,8600	994,77	699,71	-0,06839	
55,84	0,8639	997,37	699,64	-0,07181	
55,86	0,8678	998,63	699,47	-0,07512	
55,88	0,8719	996,02	699,57	-0,07839	
55,90	0,8761	993,24	699,83	-0,08163	
55,92	0,8801	994,78	699,83	-0,08484	
55,94	0,8840	997,63	699,63	-0,08815	
55,96	0,8880	997,46	699,50	-0,09159	
55,98	0,8921	996,27	699,55	-0,09501	
56,00	0,8962	996,55	699,64	-0,09830	
56,02	0,9002	996,51	699,60	-0,1015	
56,04	0,9041	995,45	699,47	-0,1048	
56,06	0,9082	993,14	699,54	-0,1080	
56,08	0,9122	991,95	699,75	-0,1114	
56,10	0,9159	994,51	699,74	-0,1147	
56,12	0,9196	997,59	699,56	-0,1180	
56,14	0,9236	996,69	699,53	-0,1213	
56,16	0,9278	993,88	699,66	-0,1246	
56,18	0,9318	994,89	699,67	-0,1278	
56,20	0,9357	997,47	699,50	-0,1310	
56,22	0,9397	995,32	699,52	-0,1344	
56,24	0,9439	990,88	699,82	-0,1378	
56,26	0,9480	991,24	699,93	-0,1411	
56,28	0,9519	993,94	699,73	-0,1443	
56,30	0,9558	994,92	699,51	-0,1475	
56,32	0,9599	993,10	699,54	-0,1507	
56,34	0,9640	991,75	699,70	-0,1539	
56,36	0,9680	992,05	699,67	-0,1571	
56,38	0,9719	992,40	699,50	-0,1604	
56,40	0,9760	990,61	699,53	-0,1638	
56,42	0,9802	987,79	699,79	-0,1671	
56,44	0,9842	988,95	699,87	-0,1703	
56,46	0,9881	992,40	699,68	-0,1735	
56,48	0,9920	992,73	699,52	-0,1768	
56,50	0,9961	991,30	699,55	-0,1803	
56,52	1,000	991,40	699,61	-0,1838	
56,54	1,004	992,08	699,57	-0,1871	
56,56	1,008	990,72	699,52	-0,1904	
56,58	1,012	988,14	699,57	-0,1938	
56,60	1,016	987,19	699,67	-0,1970	
56,62	1,020	988,99	699,63	-0,2002	
56,64	1,024	991,28	699,49	-0,2036	
56,66	1,028	991,01	699,55	-0,2072	
56,68	1,032	989,00	699,75	-0,2105	
56,70	1,036	989,81	699,76	-0,2138	
56,72	1,040	992,75	699,57	-0,2170	
56,74	1,044	992,71	699,46	-0,2203	
56,76	1,048	989,77	699,63	-0,2235	
56,78	1,052	988,43	699,79	-0,2269	
56,80	1,056	990,13	699,66	-0,2303	
56,82	1,060	989,89	699,50	-0,2337	
56,84	1,064	985,49	699,65	-0,2371	
56,86	1,068	983,74	699,87	-0,2404	
56,88	1,072	987,06	699,81	-0,2435	
56,90	1,076	989,51	699,60	-0,2468	
56,92	1,080	987,93	699,52	-0,2503	
56,94	1,084	987,39	699,55	-0,2539	
56,96	1,088	988,88	699,57	-0,2573	
56,98	1,092	987,75	699,57	-0,2607	
57,00	1,096	984,69	699,56	-0,2640	
57,02	1,100	983,65	699,55	-0,2672	
57,04	1,104	984,86	699,56	-0,2706	
57,06	1,108	985,30	699,58	-0,2740	
57,08	1,112	985,14	699,57	-0,2776	
57,10	1,116	984,99	699,55	-0,2810	
57,12	1,120	984,85	699,58	-0,2843	
57,14	1,124	984,66	699,64	-0,2877	
57,16	1,128	985,88	699,60	-0,2909	
57,18	1,132	987,89	699,47	-0,2942	
57,20	1,136	987,72	699,52	-0,2977	
57,22	1,140	984,42	699,80	-0,3012	
57,24	1,144	983,62	699,89	-0,3047	
57,26	1,148	986,28	699,70	-0,3081	
57,28	1,152	986,54	699,52	-0,3114	
57,30	1,156	983,67	699,58	-0,3147	
57,32	1,160	982,78	699,65	-0,3181	
57,34	1,164	984,28	699,54	-0,3215	
57,36	1,168	983,40	699,47	-0,3249	
57,38	1,172	979,28	699,67	-0,3283	
57,40	1,176	977,92	699,84	-0,3315	
57,42	1,180	981,05	699,74	-0,3348	
57,44	1,184	983,82	699,52	-0,3381	
57,46	1,188	981,88	699,51	-0,3416	
57,48	1,192	979,18	699,72	-0,3451	
57,50	1,196	979,70	699,78	-0,3485	
57,52	1,200	981,25	699,62	-0,3519	
57,54	1,204	980,85	699,47	-0,3553	
57,56	1,208	979,04	699,56	-0,3586	
57,58	1,212	978,33	699,78	-0,3619	
57,60	1,216	979,82	699,79	-0,3653	
57,62	1,220	981,59	699,60	-0,3687	
57,64	1,224	980,59	699,56	-0,3723	
57,66	1,228	979,12	699,67	-0,3757	
57,68	1,232	981,34	699,64	-0,3790	
57,70	1,236	983,79	699,50	-0,3822	
57,72	1,240	980,81	699,55	-0,3855	
57,74	1,244	976,50	699,75	-0,3889	
57,76	1,248	977,61	699,78	-0,3924	
57,78	1,252	980,79	699,60	-0,3959	
57,80	1,256	980,84	699,49	-0,3993	
57,82	1,260	978,15	699,63	-0,4027	
57,84	1,264	977,61	699,76	-0,4059	
57,86	1,268	979,46	699,65	-0,4092	
57,88	1,272	979,31	699,49	-0,4127	
57,90	1,276	976,67	699,56	-0,4164	
57,92	1,280	975,36	699,73	-0,4198	
57,94	1,284	978,05	699,69	-0,4231	
57,96	1,288	980,46	699,53	-0,4263	
57,98	1,292	978,51	699,52	-0,4296	
58,00	1,296	976,10	699,63	-0,4329	
58,02	1,300	976,63	699,63	-0,4363	
58,04	1,304	978,12	699,49	-0,4398	
58,06	1,308	976,69	699,51	-0,4433	
58,08	1,312	973,10	699,78	-0,4466	
58,10	1,316	973,02	699,89	-0,4498	
58,12	1,320	976,16	699,73	-0,4531	
58,14	1,324	977,83	699,54	-0,4565	
58,16	1,328	976,60	699,51	-0,4599	
58,18	1,332	976,01	699,61	-0,4634	
58,20	1,336	975,81	699,65	-0,4668	
58,22	1,340	975,48	699,54	-0,4701	
58,24	1,344	974,65	699,48	-0,4734	
58,26	1,348	973,02	699,63	-0,4768	
58,28	1,352	973,39	699,76	-0,4802	
58,30	1,356	976,47	699,65	-0,4836	
58,32	1,360	977,78	699,51	-0,4871	
58,34	1,364	975,14	699,57	-0,4906	
58,36	1,368	973,37	699,69	-0,4940	
58,38	1,372	975,22	699,64	-0,4972	
58,40	1,376	976,04	699,49	-0,5003	
58,42	1,380	973,69	699,52	-0,5037	
58,44	1,384	971,98	699,70	-0,5072	
58,46	1,388	973,58	699,72	-0,5107	
58,48	1,392	976,65	699,56	-0,5142	
58,50	1,396	975,77	699,51	-0,5176	
58,52	1,400	972,72	699,64	-0,5209	
58,54	1,404	973,04	699,67	-0,5242	
58,56	1,408	975,73	699,54	-0,5275	
58,58	1,412	974,43	699,52	-0,5310	
58,60	1,416	971,54	699,65	-0,5345	
58,62	1,420	972,62	699,66	-0,5379	
58,64	1,424	975,77	699,51	-0,5412	
58,66	1,428	974,34	699,52	-0,5446	
58,68	1,432	970,62	699,73	-0,5479	
58,70	1,436	971,71	699,78	-0,5512	
58,72	1,440	975,43	699,61	-0,5547	
58,74	1,444	975,02	699,53	-0,5582	
58,76	1,448	972,50	699,63	-0,5618	
58,78	1,452	972,47	699,68	-0,5651	
58,80	1,456	974,27	699,55	-0,5683	
58,82	1,460	973,60	699,47	-0,5717	
58,84	1,464	970,10	699,66	-0,5752	
58,86	1,468	969,64	699,82	-0,5787	
58,88	1,472	972,65	699,72	-0,5821	
58,90	1,476	974,40	699,54	-0,5856	
58,92	1,480	973,12	699,54	-0,5890	
58,94	1,484	972,01	699,64	-0,5923	
58,96	1,488	973,15	699,65	-0,5957	
58,98	1,492	974,63	699,53	-0,5991	
59,00	1,496	974,09	699,45	-0,6025	
59,02	1,500	972,12	699,59	-0,6060	
59,04	1,504	971,48	699,75	-0,6094	
59,06	1,508	973,25	699,68	-0,6128	
59,08	1,512	974,59	699,50	-0,6162	
59,10	1,516	973,37	699,51	-0,6195	
59,12	1,520	971,58	699,76	-0,6229	
59,14	1,524	972,24	699,86	-0,6264	
59,16	1,528	974,27	699,69	-0,6299	
59,18	1,532	974,76	699,56	-0,6333	
59,20	1,536	972,73	699,68	-0,6367	
59,22	1,540	973,02	699,74	-0,6400	
59,24	1,544	976,13	699,61	-0,6434	
59,26	1,548	976,52	699,47	-0,6469	
59,28	1,552	972,88	699,56	-0,6504	
59,30	1,556	971,14	699,72	-0,6539	
59,32	1,560	972,94	699,68	-0,6574	
59,34	1,564	974,26	699,52	-0,6608	
59,36	1,568	972,34	699,53	-0,6641	
59,38	1,572	970,79	699,70	-0,6675	
59,40	1,576	972,49	699,73	-0,6709	
59,42	1,580	975,04	699,57	-0,6744	
59,44	1,584	974,37	699,51	-0,6779	
59,46	1,588	972,09	699,69	-0,6812	
59,48	1,592	972,77	699,81	-0,6846	
59,50	1,596	976,11	699,70	-0,6879	
59,52	1,600	977,88	699,53	-0,6913	
59,54	1,604	976,57	699,52	-0,6948	
59,56	1,608	975,29	699,65	-0,6983	
59,58	1,612	976,37	699,68	-0,7019	
59,60	1,616	978,03	699,53	-0,7054	
59,62	1,620	976,95	699,47	-0,7088	
59,64	1,624	973,38	699,68	-0,7122	
59,66	1,628	972,88	699,89	-0,7156	
59,68	1,632	975,63	699,82	-0,7190	
59,70	1,636	977,11	699,61	-0,7226	
59,72	1,640	976,77	699,53	-0,7261	
59,74	1,644	975,99	699,60	-0,7295	
59,76	1,648	976,71	699,63	-0,7329	
59,78	1,652	976,90	699,54	-0,7362	
59,80	1,656	975,58	699,47	-0,7396	
59,82	1,660	973,43	699,60	-0,7431	
59,84	1,664	973,85	699,72	-0,7467	
59,86	1,668	976,58	699,64	-0,7501	
59,88	1,672	978,38	699,48	-0,7536	
59,90	1,676	977,13	699,58	-0,7571	
59,92	1,680	975,54	699,82	-0,7604	
59,94	1,684	976,55	699,82	-0,7637	
59,96	1,688	978,14	699,62	-0,7672	
59,98	1,692	977,61	699,48	-0,7707	
60,00	1,696	975,69	699,61	-0,7742	
60,02	1,700	975,77	699,74	-0,7776	
60,04	1,704	977,47	699,65	-0,7810	
60,06	1,708	977,48	699,50	-0,7845	
60,08	1,712	975,29	699,57	-0,7879	
60,10	1,716	974,07	699,75	-0,7914	
60,12	1,720	975,94	699,75	-0,7949	
60,14	1,724	978,14	699,59	-0,7984	
60,16	1,728	978,23	699,52	-0,8020	
60,18	1,732	977,43	699,58	-0,8055	
60,20	1,736	978,64	699,58	-0,8089	
60,22	1,740	979,60	699,50	-0,8124	
60,24	1,744	977,09	699,57	-0,8159	
60,26	1,748	973,77	699,67	-0,8193	
60,28	1,752	975,63	699,58	-0,8227	
60,30	1,756	978,50	699,51	-0,8262	
60,32	1,760	975,91	699,68	-0,8295	
60,34	1,764	974,17	699,78	-0,8329	
60,36	1,768	977,38	699,65	-0,8363	
60,38	1,772	979,08	699,51	-0,8397	
60,40	1,776	976,24	699,59	-0,8433	
60,42	1,780	974,67	699,72	-0,8468	
60,44	1,784	976,44	699,66	-0,8503	
60,46	1,788	977,95	699,49	-0,8538	
60,48	1,792	976,51	699,56	-0,8572	
60,50	1,796	974,71	699,81	-0,8606	
60,52	1,800	975,57	699,82	-0,8641	
60,54	1,804	977,72	699,62	-0,8677	
60,56	1,808	977,36	699,54	-0,8713	
60,58	1,812	976,14	699,61	-0,8748	
60,60	1,816	977,90	699,62	-0,8783	
60,62	1,820	979,60	699,50	-0,8818	
60,64	1,824	977,53	699,51	-0,8851	
60,66	1,828	973,36	699,76	-0,8885	
60,68	1,832	973,01	699,87	-0,8920	
60,70	1,836	976,16	699,71	-0,8955	
60,72	1,840	977,84	699,56	-0,8990	
60,74	1,844	976,44	699,61	-0,9025	
60,76	1,848	977,40	699,64	-0,9058	
60,78	1,852	980,27	699,53	-0,9092	
60,80	1,856	979,11	699,54	-0,9128	
60,82	1,860	975,32	699,68	-0,9164	
60,84	1,864	975,90	699,65	-0,9200	
60,86	1,868	979,03	699,51	-0,9235	
60,88	1,872	978,09	699,56	-0,9270	
60,90	1,876	975,98	699,69	-0,9304	
60,92	1,880	977,92	699,64	-0,9339	
60,94	1,884	980,39	699,49	-0,9374	
60,96	1,888	978,48	699,56	-0,9411	
60,98	1,892	976,00	699,77	-0,9447	
61,00	1,896	977,82	699,76	-0,9481	
61,02	1,900	980,31	699,59	-0,9516	
61,04	1,904	978,65	699,54	-0,9551	
61,06	1,908	976,26	699,63	-0,9585	
61,08	1,912	977,71	699,64	-0,9620	
61,10	1,916	980,29	699,50	-0,9655	
61,12	1,920	979,45	699,50	-0,9691	
61,14	1,924	976,30	699,73	-0,9726	
61,16	1,928	976,26	699,84	-0,9759	
61,18	1,932	979,50	699,68	-0,9794	
61,20	1,936	980,71	699,53	-0,9829	
61,22	1,940	978,11	699,60	-0,9864	
61,24	1,944	977,45	699,67	-0,9899	
61,26	1,948	979,78	699,56	-0,9934	
61,28	1,952	979,83	699,48	-0,9968	
61,30	1,956	975,56	699,69	-1,000	
61,32	1,960	973,75	699,90	-1,004	
61,34	1,964	977,01	699,81	-1,007	
61,36	1,968	979,61	699,59	-1,011	
61,38	1,972	978,12	699,54	-1,014	
61,40	1,976	976,58	699,63	-1,018	
61,42	1,980	977,14	699,64	-1,021	
61,44	1,984	978,33	699,51	-1,025	
61,46	1,988	977,03	699,50	-1,028	
61,48	1,992	974,52	699,70	-1,032	
61,50	1,996	975,24	699,78	-1,035	
61,52	2,000	978,23	699,63	-1,039	
61,54	2,004	978,78	699,51	-1,042	
61,56	2,008	976,59	699,57	-1,046	
61,58	2,012	976,51	699,62	-1,049	
61,60	2,016	978,28	699,55	-1,053	
61,62	2,020	977,16	699,51	-1,056	
61,64	2,024	973,53	699,64	-1,060	
61,66	2,028	973,11	699,70	-1,063	
61,68	2,032	977,26	699,57	-1,067	
61,70	2,036	979,11	699,50	-1,070	
61,72	2,040	976,66	699,64	-1,074	
61,74	2,044	975,86	699,72	-1,078	
61,76	2,048	978,07	699,59	-1,081	
61,78	2,052	977,30	699,53	-1,084	
61,80	2,056	974,06	699,65	-1,088	
61,82	2,060	975,04	699,67	-1,092	
61,84	2,064	978,61	699,53	-1,095	
61,86	2,068	977,63	699,52	-1,099	
61,88	2,072	973,91	699,72	-1,102	
61,90	2,076	974,83	699,79	-1,106	
61,92	2,080	978,62	699,65	-1,109	
61,94	2,084	979,17	699,50	-1,113	
61,96	2,088	976,65	699,56	-1,117	
61,98	2,092	975,80	699,66	-1,120	
62,00	2,096	977,31	699,60	-1,124	
62,02	2,100	977,86	699,49	-1,127	
62,04	2,104	974,97	699,60	-1,131	
62,06	2,108	973,50	699,76	-1,134	
62,08	2,112	975,88	699,71	-1,138	
62,10	2,116	977,69	699,56	-1,141	
62,12	2,120	976,55	699,54	-1,145	
62,14	2,124	974,94	699,65	-1,148	
62,16	2,128	975,72	699,65	-1,152	
62,18	2,132	977,28	699,52	-1,155	
62,20	2,136	975,91	699,52	-1,159	
62,22	2,140	973,31	699,70	-1,162	
62,24	2,144	974,47	699,73	-1,166	
62,26	2,148	977,23	699,59	-1,169	
62,28	2,152	977,20	699,52	-1,173	
62,30	2,156	975,42	699,62	-1,177	
62,32	2,160	975,67	699,66	-1,180	
62,34	2,164	977,53	699,54	-1,184	
62,36	2,168	976,82	699,50	-1,187	
62,38	2,172	973,41	699,65	-1,191	
62,40	2,176	972,92	699,73	-1,194	
62,42	2,180	975,99	699,61	-1,198	
62,44	2,184	976,56	699,51	-1,201	
62,46	2,188	973,61	699,61	-1,205	
62,48	2,192	972,96	699,72	-1,208	
62,50	2,196	975,87	699,62	-1,212	
62,52	2,200	976,65	699,49	-1,215	
62,54	2,204	973,78	699,59	-1,219	
62,56	2,208	972,61	699,75	-1,223	
62,58	2,212	974,97	699,68	-1,226	
62,60	2,216	976,14	699,52	-1,230	
62,62	2,220	973,65	699,57	-1,233	
62,64	2,224	971,89	699,71	-1,237	
62,66	2,228	974,19	699,67	-1,241	
62,68	2,232	975,75	699,53	-1,244	
62,70	2,236	973,71	699,53	-1,248	
62,72	2,240	971,97	699,64	-1,251	
62,74	2,244	973,05	699,61	-1,255	
62,76	2,248	974,18	699,50	-1,258	
62,78	2,252	971,72	699,56	-1,262	
62,80	2,256	969,13	699,74	-1,265	
62,82	2,260	971,33	699,73	-1,269	
62,84	2,264	975,39	699,55	-1,272	
62,86	2,268	975,10	699,48	-1,276	
62,88	2,272	972,30	699,74	-1,279	
62,90	2,276	972,05	699,96	-1,283	
62,92	2,280	973,61	699,89	-1,287	
62,94	2,284	975,16	699,66	-1,290	
62,96	2,288	976,05	699,55	-1,294	
62,98	2,292	976,53	699,58	-1,297	
63,00	2,296	977,19	699,53	-1,301	
63,02	2,300	976,02	699,47	-1,305	
63,04	2,304	971,26	699,72	-1,308	
63,06	2,308	967,45	700,00	-1,312	
63,08	2,312	969,62	699,96	-1,315	
63,10	2,316	973,45	699,71	-1,319	
63,12	2,320	974,72	699,52	-1,322	
63,14	2,324	974,28	699,51	-1,326	
63,16	2,328	973,50	699,64	-1,330	
63,18	2,332	971,56	699,69	-1,333	
63,20	2,336	970,89	699,60	-1,337	
63,22	2,340	971,16	699,48	-1,341	
63,24	2,344	971,53	699,55	-1,344	
63,26	2,348	971,54	699,76	-1,348	
63,28	2,352	973,03	699,76	-1,351	
63,30	2,356	974,77	699,57	-1,355	
63,32	2,360	973,42	699,56	-1,358	
63,34	2,364	971,48	699,65	-1,362	
63,36	2,368	973,96	699,60	-1,366	
63,38	2,372	975,70	699,49	-1,369	
63,40	2,376	972,10	699,58	-1,373	
63,42	2,380	968,55	699,75	-1,376	
63,44	2,384	970,52	699,72	-1,380	
63,46	2,388	973,56	699,53	-1,384	
63,48	2,392	972,64	699,53	-1,387	
63,50	2,396	969,96	699,76	-1,391	
63,52	2,400	971,01	699,82	-1,394	
63,54	2,404	973,52	699,65	-1,398	
63,56	2,408	972,75	699,54	-1,402	
63,58	2,412	970,33	699,57	-1,405	
63,60	2,416	971,30	699,57	-1,409	
63,62	2,420	972,55	699,55	-1,413	
63,64	2,424	970,37	699,61	-1,416	
63,66	2,428	967,66	699,65	-1,420	
63,68	2,432	970,21	699,55	-1,424	
63,70	2,436	973,27	699,48	-1,427	
63,72	2,440	971,55	699,66	-1,431	
63,74	2,444	970,31	699,83	-1,434	
63,76	2,448	972,58	699,73	-1,438	
63,78	2,452	974,31	699,55	-1,442	
63,80	2,456	971,98	699,55	-1,445	
63,82	2,460	970,38	699,65	-1,449	
63,84	2,464	972,04	699,60	-1,453	
63,86	2,468	972,25	699,48	-1,456	
63,88	2,472	968,83	699,57	-1,460	
63,90	2,476	966,93	699,77	-1,464	
63,92	2,480	970,11	699,75	-1,467	
63,94	2,484	973,47	699,57	-1,471	
63,96	2,488	971,91	699,54	-1,474	
63,98	2,492	969,26	699,67	-1,478	
64,00	2,496	970,72	699,67	-1,482	
64,02	2,500	972,71	699,53	-1,485	
64,04	2,504	970,76	699,52	-1,489	
64,06	2,508	967,06	699,73	-1,492	
64,08	2,512	967,55	699,81	-1,496	
64,10	2,516	970,33	699,66	-1,500	
64,12	2,520	971,21	699,53	-1,503	
64,14	2,524	969,48	699,57	-1,507	
64,16	2,528	969,07	699,63	-1,511	
64,18	2,532	970,45	699,56	-1,514	
64,20	2,536	970,34	699,48	-1,518	
64,22	2,540	968,01	699,60	-1,522	
64,24	2,544	967,47	699,75	-1,525	
64,26	2,548	970,78	699,67	-1,529	
64,28	2,552	973,27	699,52	-1,532	
64,30	2,556	970,31	699,63	-1,536	
64,32	2,560	967,67	699,80	-1,540	
64,34	2,564	969,34	699,70	-1,543	
64,36	2,568	970,42	699,56	-1,547	
64,38	2,572	966,95	699,62	-1,551	
64,40	2,576	966,05	699,66	-1,554	
64,42	2,580	969,27	699,55	-1,558	
64,44	2,584	969,78	699,52	-1,561	
64,46	2,588	966,15	699,68	-1,565	
64,48	2,592	965,80	699,72	-1,569	
64,50	2,596	969,21	699,57	-1,572	
64,52	2,600	969,98	699,49	-1,576	
64,54	2,604	966,98	699,63	-1,580	
64,56	2,608	966,27	699,75	-1,583	
64,58	2,612	969,25	699,64	-1,587	
64,60	2,616	969,97	699,52	-1,591	
64,62	2,620	967,11	699,59	-1,594	
64,64	2,624	966,52	699,63	-1,598	
64,66	2,628	969,48	699,52	-1,602	
64,68	2,632	969,84	699,51	-1,605	
64,70	2,636	966,14	699,69	-1,609	
64,72	2,640	965,68	699,75	-1,613	
64,74	2,644	969,23	699,60	-1,616	
64,76	2,648	969,86	699,52	-1,620	
64,78	2,652	966,78	699,64	-1,623	
64,80	2,656	966,27	699,68	-1,627	
64,82	2,660	968,96	699,55	-1,631	
64,84	2,664	967,83	699,54	-1,634	
64,86	2,668	964,08	699,69	-1,638	
64,88	2,672	964,99	699,69	-1,642	
64,90	2,676	968,70	699,55	-1,645	
64,92	2,680	967,90	699,55	-1,649	
64,94	2,684	965,28	699,67	-1,652	
64,96	2,688	967,30	699,64	-1,656	
64,98	2,692	970,10	699,51	-1,660	
65,00	2,696	968,03	699,59	-1,663	
65,02	2,700	965,12	699,75	-1,667	
65,04	2,704	967,33	699,68	-1,671	
65,06	2,708	969,79	699,52	-1,674	
65,08	2,712	966,45	699,66	-1,678	
65,10	2,716	963,83	699,87	-1,682	
65,12	2,720	966,25	699,78	-1,685	
65,14	2,724	968,54	699,56	-1,689	
65,16	2,728	966,16	699,61	-1,693	
65,18	2,732	964,07	699,74	-1,696	
65,20	2,736	966,71	699,66	-1,700	
65,22	2,740	968,24	699,53	-1,704	
65,24	2,744	964,83	699,61	-1,707	
65,26	2,748	962,75	699,70	-1,711	
65,28	2,752	966,11	699,59	-1,715	
65,30	2,756	966,92	699,50	-1,718	
65,32	2,760	962,90	699,64	-1,722	
65,34	2,764	962,00	699,75	-1,726	
65,36	2,768	965,45	699,63	-1,730	
65,38	2,772	966,45	699,51	-1,733	
65,40	2,776	962,80	699,64	-1,737	
65,42	2,780	961,93	699,75	-1,741	
65,44	2,784	965,02	699,64	-1,744	
65,46	2,788	965,54	699,53	-1,748	
65,48	2,792	962,42	699,57	-1,752	
65,50	2,796	961,71	699,62	-1,755	
65,52	2,800	964,13	699,55	-1,759	
65,54	2,804	964,25	699,50	-1,762	
65,56	2,809	961,40	699,64	-1,766	
65,58	2,813	960,61	699,75	-1,770	
65,60	2,816	963,94	699,65	-1,773	
65,62	2,820	965,75	699,53	-1,777	
65,64	2,824	963,55	699,60	-1,781	
65,66	2,828	963,01	699,66	-1,785	
65,68	2,832	965,55	699,55	-1,788	
65,70	2,836	965,29	699,50	-1,792	
65,72	2,840	961,03	699,69	-1,796	
65,74	2,844	959,67	699,80	-1,799	
65,76	2,848	963,19	699,66	-1,803	
65,78	2,852	964,49	699,54	-1,807	
65,80	2,856	961,55	699,61	-1,810	
65,82	2,860	961,31	699,64	-1,814	
65,84	2,864	963,71	699,52	-1,818	
65,86	2,868	963,39	699,50	-1,821	
65,88	2,872	959,36	699,70	-1,825	
65,90	2,876	958,81	699,76	-1,829	
65,92	2,880	962,44	699,61	-1,833	
65,94	2,884	963,10	699,55	-1,836	
65,96	2,888	960,42	699,65	-1,840	
65,98	2,892	961,64	699,61	-1,844	
66,00	2,896	964,05	699,55	-1,847	
66,02	2,900	961,36	699,65	-1,851	
66,04	2,905	958,90	699,67	-1,855	
66,06	2,908	962,28	699,53	-1,859	
66,08	2,912	963,29	699,52	-1,862	
66,10	2,916	959,42	699,75	-1,866	
66,12	2,920	958,85	699,82	-1,870	
66,14	2,924	961,88	699,65	-1,873	
66,16	2,928	961,63	699,50	-1,877	
66,18	2,932	958,94	699,61	-1,881	
66,20	2,936	958,58	699,71	-1,885	
66,22	2,940	960,49	699,60	-1,888	
66,24	2,944	960,02	699,54	-1,892	
66,26	2,948	956,70	699,65	-1,896	
66,28	2,952	957,25	699,67	-1,899	
66,30	2,956	961,36	699,53	-1,903	
66,32	2,960	960,79	699,57	-1,907	
66,34	2,964	957,17	699,75	-1,911	
66,36	2,968	958,02	699,74	-1,914	
66,38	2,972	961,85	699,56	-1,918	
66,40	2,976	960,25	699,59	-1,922	
66,42	2,980	956,81	699,78	-1,925	
66,44	2,984	958,26	699,73	-1,929	
66,46	2,988	960,42	699,56	-1,933	
66,48	2,992	958,07	699,55	-1,937	
66,50	2,996	954,95	699,63	-1,940	
66,52	3,000	956,89	699,57	-1,944	
66,54	3,004	958,71	699,50	-1,948	
66,56	3,008	955,91	699,65	-1,952	
66,58	3,012	954,72	699,75	-1,955	
66,60	3,016	958,19	699,62	-1,959	
66,62	3,020	959,30	699,55	-1,963	
66,64	3,024	955,84	699,67	-1,966	
66,66	3,028	955,35	699,70	-1,970	
66,68	3,032	958,76	699,57	-1,974	
66,70	3,036	958,88	699,52	-1,978	
66,72	3,040	955,95	699,63	-1,981	
66,74	3,044	955,83	699,67	-1,985	
66,76	3,048	958,76	699,54	-1,989	
66,78	3,052	957,89	699,53	-1,993	
66,80	3,056	954,68	699,72	-1,996	
66,82	3,060	955,31	699,77	-2,000	
66,84	3,064	959,15	699,60	-2,004	
66,86	3,068	958,71	699,55	-2,008	
66,88	3,072	954,56	699,72	-2,011	
66,90	3,076	955,66	699,72	-2,015	
66,92	3,080	959,39	699,57	-2,019	
66,94	3,084	958,05	699,57	-2,023	
66,96	3,089	954,10	699,65	-2,026	
66,98	3,092	955,03	699,57	-2,030	
67,00	3,096	956,99	699,52	-2,034	
67,02	3,101	953,32	699,71	-2,038	
67,04	3,105	951,64	699,80	-2,042	
67,06	3,109	955,11	699,64	-2,045	
67,08	3,112	956,10	699,56	-2,049	
67,10	3,116	952,60	699,69	-2,053	
67,12	3,120	952,77	699,70	-2,056	
67,14	3,124	955,85	699,57	-2,060	
67,16	3,128	954,41	699,57	-2,064	
67,18	3,132	951,04	699,63	-2,068	
67,20	3,136	953,10	699,56	-2,071	
67,22	3,140	955,80	699,50	-2,075	
67,24	3,144	952,74	699,63	-2,079	
67,26	3,148	950,69	699,71	-2,083	
67,28	3,152	954,14	699,61	-2,087	
67,30	3,156	955,77	699,54	-2,090	
67,32	3,160	953,39	699,59	-2,094	
67,34	3,164	952,89	699,59	-2,098	
67,36	3,168	955,21	699,51	-2,102	
67,38	3,172	954,05	699,59	-2,105	
67,40	3,176	951,14	699,72	-2,109	
67,42	3,180	952,13	699,65	-2,113	
67,44	3,184	955,33	699,52	-2,117	
67,46	3,188	954,08	699,61	-2,120	
67,48	3,192	951,60	699,76	-2,124	
67,50	3,196	953,37	699,68	-2,128	
67,52	3,200	954,71	699,54	-2,131	
67,54	3,204	951,88	699,61	-2,135	
67,56	3,208	950,22	699,67	-2,139	
67,58	3,212	953,76	699,55	-2,143	
67,60	3,216	954,49	699,61	-2,147	
67,62	3,220	950,01	699,92	-2,150	
67,64	3,224	948,87	700,02	-2,154	
67,66	3,228	952,04	699,82	-2,158	
67,68	3,232	954,34	699,59	-2,162	
67,70	3,236	953,41	699,58	-2,166	
67,72	3,240	953,32	699,60	-2,169	
67,74	3,244	954,00	699,50	-2,173	
67,76	3,248	951,45	699,54	-2,177	
67,78	3,252	946,92	699,74	-2,181	
67,80	3,256	947,06	699,78	-2,184	
67,82	3,260	951,62	699,60	-2,188	
67,84	3,264	952,96	699,52	-2,192	
67,86	3,268	950,41	699,64	-2,196	
67,88	3,272	950,78	699,68	-2,199	
67,90	3,276	953,07	699,55	-2,203	
67,92	3,280	951,59	699,47	-2,207	
67,94	3,284	946,98	699,72	-2,211	
67,96	3,288	945,85	699,94	-2,215	
67,98	3,292	948,62	699,85	-2,218	
68,00	3,296	951,03	699,63	-2,222	
68,02	3,300	949,52	699,63	-2,226	
68,04	3,304	949,24	699,63	-2,229	
68,06	3,308	952,00	699,52	-2,233	
68,08	3,312	950,75	699,62	-2,237	
68,10	3,316	945,78	699,83	-2,241	
68,12	3,320	945,18	699,80	-2,245	
68,14	3,324	948,93	699,60	-2,248	
68,16	3,328	948,80	699,59	-2,252	
68,18	3,332	947,32	699,64	-2,256	
68,20	3,336	950,21	699,55	-2,260	
68,22	3,340	951,01	699,51	-2,263	
68,24	3,344	946,20	699,72	-2,267	
68,26	3,348	944,51	699,82	-2,271	
68,28	3,352	948,24	699,65	-2,275	
68,30	3,356	949,56	699,54	-2,279	
68,32	3,360	946,62	699,69	-2,282	
68,34	3,365	945,81	699,83	-2,286	
68,36	3,368	948,27	699,72	-2,290	
68,38	3,372	948,82	699,58	-2,294	
68,40	3,377	946,61	699,63	-2,298	
68,42	3,381	947,45	699,63	-2,301	
68,44	3,384	949,83	699,52	-2,305	
68,46	3,388	947,81	699,57	-2,309	
68,48	3,392	942,76	699,73	-2,313	
68,50	3,396	943,09	699,71	-2,317	
68,52	3,400	947,69	699,55	-2,320	
68,54	3,404	948,01	699,55	-2,324	
68,56	3,408	945,90	699,65	-2,328	
68,58	3,412	947,42	699,60	-2,332	
68,60	3,416	948,83	699,51	-2,336	
68,62	3,420	945,56	699,70	-2,339	
68,64	3,424	943,54	699,85	-2,343	
68,66	3,428	946,72	699,73	-2,347	
68,68	3,432	948,96	699,58	-2,351	
68,70	3,436	946,97	699,56	-2,355	
68,72	3,440	946,32	699,57	-2,359	
68,74	3,444	947,36	699,55	-2,363	
68,76	3,448	945,91	699,55	-2,366	
68,78	3,452	943,41	699,58	-2,370	
68,80	3,456	943,23	699,58	-2,374	
68,82	3,460	944,07	699,57	-2,378	
68,84	3,464	944,44	699,57	-2,381	
68,86	3,468	944,58	699,55	-2,385	
68,88	3,472	944,79	699,53	-2,389	
68,90	3,477	944,18	699,61	-2,393	
68,92	3,481	942,87	699,68	-2,397	
68,94	3,484	944,53	699,59	-2,400	
68,96	3,488	945,93	699,52	-2,404	
68,98	3,492	943,93	699,67	-2,408	
69,00	3,496	943,09	699,73	-2,412	
69,02	3,500	945,69	699,60	-2,416	
69,04	3,504	945,54	699,54	-2,420	
69,06	3,508	942,74	699,61	-2,423	
69,08	3,512	942,69	699,60	-2,427	
69,10	3,516	944,73	699,50	-2,431	
69,12	3,520	943,60	699,58	-2,435	
69,14	3,524	940,37	699,76	-2,439	
69,16	3,528	940,98	699,73	-2,442	
69,18	3,532	943,36	699,55	-2,446	
69,20	3,536	942,40	699,57	-2,450	
69,22	3,540	939,78	699,75	-2,454	
69,24	3,544	940,89	699,73	-2,458	
69,26	3,548	943,34	699,56	-2,461	
69,28	3,552	941,32	699,59	-2,465	
69,30	3,557	938,27	699,71	-2,469	
69,32	3,560	940,33	699,62	-2,473	
69,34	3,564	941,67	699,55	-2,476	
69,36	3,569	937,41	699,68	-2,480	
69,38	3,573	935,75	699,71	-2,484	
69,40	3,577	939,36	699,57	-2,488	
69,42	3,581	940,15	699,54	-2,492	
69,44	3,584	937,21	699,68	-2,496	
69,46	3,588	937,69	699,68	-2,499	
69,48	3,592	940,10	699,53	-2,503	
69,50	3,596	938,11	699,61	-2,507	
69,52	3,600	934,27	699,86	-2,511	
69,54	3,604	935,83	699,85	-2,515	
69,56	3,608	939,47	699,63	-2,518	
69,58	3,612	938,05	699,66	-2,522	
69,60	3,616	935,35	699,83	-2,526	
69,62	3,620	937,54	699,76	-2,530	
69,64	3,624	940,28	699,59	-2,534	
69,66	3,628	936,96	699,66	-2,537	
69,68	3,632	933,53	699,72	-2,541	
69,70	3,636	936,08	699,60	-2,545	
69,72	3,640	935,52	699,63	-2,549	
69,74	3,644	931,33	699,73	-2,553	
69,76	3,648	932,33	699,65	-2,556	
69,78	3,652	935,28	699,53	-2,560	
69,80	3,657	932,95	699,58	-2,564	
69,82	3,661	930,46	699,64	-2,568	
69,84	3,664	932,29	699,55	-2,572	
69,86	3,668	933,12	699,49	-2,575	
69,88	3,672	930,04	699,76	-2,579	
69,90	3,676	929,11	699,98	-2,583	
69,92	3,680	931,76	699,85	-2,587	
69,94	3,684	934,34	699,63	-2,591	
69,96	3,688	932,87	699,74	-2,595	
69,98	3,692	932,38	699,86	-2,598	
70,00	3,696	935,14	699,70	-2,602	
70,02	3,700	935,12	699,58	-2,606	
70,04	3,704	930,01	699,70	-2,610	
70,06	3,708	928,76	699,71	-2,614	
70,08	3,712	931,85	699,57	-2,618	
70,10	3,716	930,72	699,62	-2,622	
70,12	3,720	927,57	699,70	-2,625	
70,14	3,724	929,62	699,59	-2,629	
70,16	3,728	930,71	699,53	-2,633	
70,18	3,732	926,33	699,64	-2,637	
70,20	3,736	924,57	699,67	-2,640	
70,22	3,740	927,80	699,52	-2,644	
70,24	3,744	927,11	699,60	-2,648	
70,26	3,749	922,88	699,97	-2,652	
70,28	3,753	923,57	700,09	-2,656	
70,30	3,757	927,05	699,85	-2,659	
70,32	3,760	927,97	699,64	-2,663	
70,34	3,765	926,23	699,63	-2,667	
70,36	3,768	927,54	699,55	-2,671	
70,38	3,772	928,21	699,57	-2,675	
70,40	3,776	924,37	699,79	-2,678	
70,42	3,780	922,15	699,84	-2,682	
70,44	3,784	924,80	699,65	-2,686	
70,46	3,788	925,64	699,61	-2,690	
70,48	3,792	923,79	699,67	-2,694	
70,50	3,796	925,17	699,59	-2,697	
70,52	3,800	925,77	699,53	-2,701	
70,54	3,804	922,12	699,65	-2,705	
70,56	3,808	920,04	699,67	-2,708	
70,58	3,812	922,83	699,55	-2,709	
70,60	3,816	923,17	699,58	-2,712	
70,62	3,820	920,21	699,72	-2,716	
70,64	3,824	921,00	699,69	-2,720	
70,66	3,828	923,75	699,55	-2,723	
70,68	3,832	921,94	699,57	-2,727	
70,70	3,836	919,84	699,67	-2,731	
70,72	3,840	921,89	699,59	-2,735	
70,74	3,844	922,61	699,53	-2,739	
70,76	3,849	919,11	699,67	-2,742	
70,78	3,853	918,39	699,70	-2,747	
70,80	3,856	921,76	699,58	-2,752	
70,82	3,860	921,38	699,60	-2,758	
70,84	3,864	917,93	699,66	-2,763	
70,86	3,868	919,50	699,57	-2,767	
70,88	3,872	921,09	699,54	-2,770	
70,90	3,876	917,08	699,70	-2,774	
70,92	3,880	915,34	699,73	-2,778	
70,94	3,884	918,38	699,57	-2,782	
70,96	3,888	918,57	699,57	-2,786	
70,98	3,892	915,98	699,75	-2,789	
71,00	3,896	917,06	699,72	-2,793	
71,02	3,900	919,38	699,58	-2,797	
71,04	3,904	916,26	699,66	-2,801	
71,06	3,908	913,52	699,77	-2,805	
71,08	3,912	915,98	699,65	-2,808	
71,10	3,916	917,43	699,58	-2,812	
71,12	3,920	913,54	699,73	-2,816	
71,14	3,924	912,20	699,74	-2,820	
71,16	3,928	914,91	699,58	-2,824	
71,18	3,932	913,90	699,63	-2,828	
71,20	3,937	910,76	699,74	-2,831	
71,22	3,941	912,79	699,65	-2,835	
71,24	3,945	915,04	699,56	-2,839	
71,26	3,949	912,20	699,65	-2,843	
71,28	3,953	911,27	699,64	-2,847	
71,30	3,956	914,03	699,53	-2,851	
71,32	3,960	912,37	699,60	-2,855	
71,34	3,964	909,21	699,70	-2,858	
71,36	3,968	910,66	699,59	-2,862	
71,38	3,972	912,65	699,55	-2,866	
71,40	3,976	909,73	699,75	-2,870	
71,42	3,980	908,63	699,79	-2,874	
71,44	3,984	911,79	699,62	-2,878	
71,46	3,988	911,52	699,60	-2,882	
71,48	3,992	907,96	699,68	-2,885	
71,50	3,996	909,44	699,61	-2,889	
71,52	4,000	911,57	699,54	-2,893	
71,54	4,004	908,40	699,66	-2,897	
71,56	4,008	905,80	699,71	-2,901	
71,58	4,012	908,26	699,58	-2,905	
71,60	4,016	909,04	699,56	-2,909	
71,62	4,021	906,56	699,67	-2,913	
71,64	4,024	907,36	699,63	-2,916	
71,66	4,028	909,20	699,54	-2,920	
71,68	4,033	906,04	699,67	-2,924	
71,70	4,037	903,44	699,72	-2,928	
71,72	4,041	906,32	699,59	-2,932	
71,74	4,045	907,14	699,59	-2,936	
71,76	4,049	903,96	699,69	-2,940	
71,78	4,053	904,53	699,60	-2,943	
71,80	4,056	906,93	699,52	-2,947	
71,82	4,060	904,53	699,66	-2,951	
71,84	4,064	902,37	699,69	-2,955	
71,86	4,068	904,58	699,55	-2,959	
71,88	4,072	902,67	699,68	-2,963	
71,90	4,076	898,59	699,89	-2,967	
71,92	4,080	899,62	699,81	-2,971	
71,94	4,084	902,57	699,59	-2,974	
71,96	4,088	900,93	699,58	-2,978	
71,98	4,092	898,77	699,67	-2,982	
72,00	4,096	900,99	699,58	-2,986	
72,02	4,100	900,63	699,56	-2,990	
72,04	4,104	896,69	699,73	-2,994	
72,06	4,108	896,62	699,73	-2,998	
72,08	4,112	900,72	699,58	-3,001	
72,10	4,116	899,82	699,64	-3,005	
72,12	4,121	896,59	699,80	-3,009	
72,14	4,125	898,64	699,73	-3,013	
72,16	4,128	901,43	699,57	-3,017	
72,18	4,133	898,78	699,63	-3,021	
72,20	4,137	896,63	699,66	-3,024	
72,22	4,140	899,23	699,55	-3,028	
72,24	4,144	898,67	699,57	-3,032	
72,26	4,148	894,19	699,73	-3,036	
72,28	4,152	894,18	699,70	-3,040	
72,30	4,156	897,94	699,55	-3,044	
72,32	4,160	896,57	699,68	-3,048	
72,34	4,164	893,84	699,83	-3,052	
72,36	4,168	896,17	699,70	-3,056	
72,38	4,172	897,91	699,58	-3,060	
72,40	4,176	893,81	699,66	-3,063	
72,42	4,180	892,76	699,63	-3,067	
72,44	4,184	894,95	699,54	-3,071	
72,46	4,188	892,47	699,64	-3,075	
72,48	4,192	889,35	699,73	-3,079	
72,50	4,196	892,11	699,61	-3,083	
72,52	4,200	893,66	699,57	-3,087	
72,54	4,204	889,99	699,77	-3,090	
72,56	4,209	889,69	699,80	-3,094	
72,58	4,212	892,71	699,62	-3,098	
72,60	4,217	891,66	699,63	-3,102	
72,62	4,221	888,66	699,73	-3,106	
72,64	4,225	891,24	699,64	-3,110	
72,66	4,229	892,73	699,56	-3,114	
72,68	4,233	888,96	699,64	-3,118	
72,70	4,237	887,57	699,62	-3,122	
72,72	4,240	890,64	699,53	-3,125	
72,74	4,244	889,61	699,62	-3,129	
72,76	4,248	886,51	699,70	-3,133	
72,78	4,252	888,90	699,58	-3,137	
72,80	4,256	890,13	699,58	-3,141	
72,82	4,260	886,18	699,76	-3,145	
72,84	4,264	885,15	699,70	-3,149	
72,86	4,268	887,56	699,60	-3,152	
72,88	4,272	885,01	699,82	-3,156	
72,90	4,276	882,30	699,94	-3,160	
72,92	4,280	885,19	699,73	-3,164	
72,94	4,284	886,41	699,58	-3,168	
72,96	4,288	882,93	699,67	-3,172	
72,98	4,292	882,97	699,68	-3,176	
73,00	4,296	885,66	699,55	-3,179	
73,02	4,300	884,30	699,56	-3,183	
73,04	4,305	880,49	699,68	-3,187	
73,06	4,309	882,09	699,63	-3,191	
73,08	4,312	885,27	699,54	-3,195	
73,10	4,317	882,57	699,72	-3,199	
73,12	4,321	879,90	699,85	-3,203	
73,14	4,325	882,67	699,71	-3,207	
73,16	4,329	884,68	699,57	-3,211	
73,18	4,332	880,51	699,65	-3,214	
73,20	4,336	879,30	699,64	-3,218	
73,22	4,340	881,63	699,54	-3,222	
73,24	4,344	878,84	699,70	-3,226	
73,26	4,348	875,13	699,85	-3,230	
73,28	4,352	878,13	699,69	-3,234	
73,30	4,356	880,81	699,60	-3,238	
73,32	4,360	877,31	699,82	-3,241	
73,34	4,364	876,51	699,86	-3,245	
73,36	4,368	879,30	699,66	-3,249	
73,38	4,372	878,50	699,59	-3,253	
73,40	4,376	874,41	699,70	-3,257	
73,42	4,380	875,59	699,65	-3,261	
73,44	4,384	877,84	699,56	-3,265	
73,46	4,388	874,76	699,66	-3,268	
73,48	4,392	872,15	699,69	-3,272	
73,50	4,396	875,22	699,55	-3,276	
73,52	4,400	875,14	699,61	-3,280	
73,54	4,405	871,15	699,77	-3,284	
73,56	4,409	872,23	699,69	-3,288	
73,58	4,412	875,18	699,57	-3,292	
73,60	4,417	872,47	699,69	-3,296	
73,62	4,421	870,09	699,75	-3,300	
73,64	4,425	873,08	699,60	-3,303	
73,66	4,428	872,29	699,62	-3,307	
73,68	4,432	867,84	699,76	-3,311	
73,70	4,436	868,86	699,67	-3,315	
73,72	4,440	871,01	699,57	-3,319	
73,74	4,444	867,93	699,70	-3,323	
73,76	4,448	865,30	699,76	-3,327	
73,78	4,452	868,40	699,60	-3,331	
73,80	4,456	868,41	699,60	-3,334	
73,82	4,460	865,06	699,72	-3,338	
73,84	4,464	866,33	699,64	-3,342	
73,86	4,468	868,62	699,58	-3,346	
73,88	4,472	865,66	699,69	-3,350	
73,90	4,476	864,15	699,66	-3,354	
73,92	4,480	867,11	699,54	-3,358	
73,94	4,484	866,02	699,63	-3,362	
73,96	4,488	862,80	699,72	-3,366	
73,98	4,492	865,16	699,60	-3,370	
74,00	4,496	866,64	699,57	-3,374	
74,02	4,501	862,71	699,75	-3,378	
74,04	4,505	861,52	699,72	-3,381	
74,06	4,508	863,92	699,62	-3,385	
74,08	4,513	861,94	699,69	-3,389	
74,10	4,517	860,08	699,64	-3,393	
74,12	4,521	862,09	699,57	-3,397	
74,14	4,525	860,73	699,75	-3,401	
74,16	4,529	857,76	699,83	-3,405	
74,18	4,532	859,55	699,65	-3,409	
74,20	4,536	860,23	699,59	-3,412	
74,22	4,540	856,95	699,70	-3,416	
74,24	4,544	857,31	699,64	-3,420	
74,26	4,548	859,50	699,56	-3,424	
74,28	4,552	856,81	699,66	-3,428	
74,30	4,556	855,04	699,66	-3,432	
74,32	4,560	858,04	699,55	-3,436	
74,34	4,564	857,31	699,67	-3,440	
74,36	4,568	853,88	699,76	-3,444	
74,38	4,572	855,59	699,60	-3,448	
74,40	4,576	856,59	699,61	-3,452	
74,42	4,580	852,92	699,86	-3,456	
74,44	4,584	852,64	699,85	-3,460	
74,46	4,588	855,29	699,65	-3,464	
74,48	4,592	853,84	699,62	-3,467	
74,50	4,597	852,11	699,59	-3,471	
74,52	4,600	854,14	699,50	-3,476	
74,54	4,604	853,25	699,66	-3,479	
74,56	4,608	849,49	699,83	-3,483	
74,58	4,612	849,41	699,72	-3,487	
74,60	4,616	851,53	699,61	-3,491	
74,62	4,620	849,90	699,70	-3,495	
74,64	4,624	849,94	699,69	-3,499	
74,66	4,628	852,79	699,55	-3,503	
74,68	4,632	851,10	699,61	-3,507	
74,70	4,636	847,05	699,79	-3,511	
74,72	4,640	847,37	699,77	-3,515	
74,74	4,644	849,92	699,61	-3,519	
74,76	4,648	848,62	699,77	-3,522	
74,78	4,652	846,57	699,97	-3,527	
74,80	4,656	848,11	699,84	-3,531	
74,82	4,660	849,96	699,65	-3,535	
74,84	4,664	846,95	699,73	-3,538	
74,86	4,668	845,45	699,72	-3,542	
74,88	4,672	847,71	699,60	-3,546	
74,90	4,676	845,54	699,67	-3,550	
74,92	4,680	842,24	699,71	-3,554	
74,94	4,684	844,02	699,60	-3,558	
74,96	4,688	845,29	699,58	-3,562	
74,98	4,692	843,11	699,65	-3,566	
75,00	4,696	843,73	699,58	-3,570	
75,02	4,700	844,72	699,55	-3,574	
75,04	4,705	841,58	699,75	-3,578	
75,06	4,709	840,26	699,81	-3,582	
75,08	4,712	843,97	699,63	-3,586	
75,10	4,717	844,36	699,69	-3,590	
75,12	4,721	840,49	699,97	-3,594	
75,14	4,724	840,01	699,96	-3,598	
75,16	4,728	842,66	699,69	-3,601	
75,18	4,732	841,78	699,67	-3,605	
75,20	4,736	838,16	699,87	-3,609	
75,22	4,740	838,29	699,81	-3,613	
75,24	4,744	840,01	699,63	-3,617	
75,26	4,748	836,88	699,88	-3,621	
75,28	4,752	833,51	700,14	-3,625	
75,30	4,756	835,15	700,02	-3,629	
75,32	4,760	837,66	699,70	-3,633	
75,34	4,764	836,50	699,70	-3,637	
75,36	4,768	834,55	699,87	-3,641	
75,38	4,772	835,56	699,76	-3,645	
75,40	4,776	836,85	699,64	-3,649	
75,42	4,780	833,46	699,93	-3,653	
75,44	4,784	830,47	700,11	-3,657	
75,46	4,788	832,70	699,92	-3,661	
75,48	4,792	834,77	699,65	-3,665	
75,50	4,796	832,35	699,68	-3,668	
75,52	4,800	830,47	699,72	-3,672	
75,54	4,804	832,47	699,59	-3,676	
75,56	4,808	831,40	699,66	-3,680	
75,58	4,812	827,16	699,81	-3,684	
75,60	4,816	828,22	699,68	-3,688	
75,62	4,820	829,18	700,14	-3,692	
75,64	4,824	824,94	700,94	-3,696	
75,66	4,828	823,13	701,17	-3,700	
75,68	4,832	824,77	700,88	-3,704	
75,70	4,836	825,03	700,45	-3,707	
75,72	4,840	825,82	700,00	-3,711	
75,74	4,844	829,13	699,69	-3,715	
75,76	4,848	828,62	699,62	-3,719	
75,78	4,852	826,06	699,57	-3,723	
75,80	4,856	825,87	699,50	-3,727	
75,82	4,860	823,70	699,69	-3,731	
75,84	4,864	820,90	699,86	-3,735	
75,86	4,868	822,85	699,71	-3,739	
75,88	4,872	825,34	699,63	-3,743	
75,90	4,876	823,66	699,74	-3,747	
75,92	4,880	824,24	699,68	-3,751	
75,94	4,884	826,31	699,58	-3,755	
75,96	4,888	823,00	699,71	-3,759	
75,98	4,893	820,26	699,74	-3,763	
76,00	4,896	823,03	699,59	-3,766	
76,02	4,900	823,14	699,62	-3,770	
76,04	4,904	820,28	699,72	-3,774	
76,06	4,908	822,01	699,62	-3,778	
76,08	4,912	823,42	699,56	-3,782	
76,10	4,916	819,57	699,69	-3,786	
76,12	4,920	818,15	699,68	-3,790	
76,14	4,924	820,79	699,57	-3,794	
76,16	4,928	820,16	699,61	-3,798	
76,18	4,932	817,70	699,65	-3,802	
76,20	4,936	819,30	699,54	-3,806	
76,22	4,940	819,45	699,59	-3,810	
76,24	4,944	815,86	699,79	-3,814	
76,26	4,948	815,86	699,78	-3,818	
76,28	4,952	819,05	699,59	-3,822	
76,30	4,956	818,16	699,67	-3,826	
76,32	4,960	814,71	699,86	-3,830	
76,34	4,964	815,59	699,75	-3,833	
76,36	4,968	816,99	699,62	-3,837	
76,38	4,972	812,96	699,86	-3,841	
76,40	4,976	810,56	699,97	-3,845	
76,42	4,980	813,55	699,75	-3,849	
76,44	4,984	814,32	699,63	-3,853	
76,46	4,989	810,29	699,71	-3,857	
76,48	4,993	809,81	699,66	-3,861	
76,50	4,996	811,80	699,59	-3,865	
76,52	5,000	809,76	699,64	-3,869	
76,54	5,004	807,84	699,58	-3,873	
76,56	5,008	809,64	699,53	-3,877	
76,58	5,012	808,17	699,74	-3,881	
76,60	5,016	805,63	699,82	-3,885	
76,62	5,020	808,44	699,64	-3,889	
76,64	5,024	809,59	699,78	-3,893	
76,66	5,028	806,07	700,13	-3,897	
76,68	5,032	805,98	700,12	-3,901	
76,70	5,036	807,97	699,82	-3,905	
76,72	5,040	807,56	699,65	-3,908	
76,74	5,044	804,74	699,80	-3,912	
76,76	5,048	804,91	699,79	-3,916	
76,78	5,052	805,99	699,61	-3,920	
76,80	5,056	802,61	699,77	-3,924	
76,82	5,060	798,36	699,99	-3,928	
76,84	5,064	799,77	699,87	-3,932	
76,86	5,068	802,73	699,64	-3,936	
76,88	5,072	800,16	699,81	-3,940	
76,90	5,077	797,58	700,00	-3,944	
76,92	5,081	799,28	699,85	-3,948	
76,94	5,084	800,55	699,63	-3,952	
76,96	5,088	796,97	699,72	-3,956	
76,98	5,092	794,92	699,75	-3,960	
77,00	5,096	797,95	699,60	-3,964	
77,02	5,100	797,82	699,61	-3,968	
77,04	5,104	793,84	699,70	-3,971	
77,06	5,108	794,44	699,60	-3,975	
77,08	5,112	795,93	699,57	-3,979	
77,10	5,116	792,49	699,74	-3,983	
77,12	5,120	791,16	699,75	-3,987	
77,14	5,124	794,02	699,60	-3,991	
77,16	5,128	793,50	699,61	-3,995	
77,18	5,132	790,75	699,70	-3,999	
77,20	5,136	792,20	699,61	-4,003	
77,22	5,140	792,64	699,57	-4,007	
77,24	5,144	788,84	699,65	-4,011	
77,26	5,148	787,90	699,58	-4,015	
77,28	5,152	790,32	699,54	-4,019	
77,30	5,156	788,47	699,74	-4,023	
77,32	5,160	786,14	699,80	-4,027	
77,34	5,164	788,59	699,64	-4,030	
77,36	5,168	788,58	699,64	-4,034	
77,38	5,172	785,68	699,72	-4,038	
77,40	5,176	786,53	699,61	-4,042	
77,42	5,180	787,81	699,56	-4,046	
77,44	5,185	784,80	699,69	-4,050	
77,46	5,189	783,32	699,68	-4,054	
77,48	5,192	784,79	699,58	-4,058	
77,50	5,196	782,14	699,66	-4,062	
77,52	5,200	780,23	699,66	-4,066	
77,54	5,204	782,65	699,55	-4,070	
77,56	5,208	781,74	699,67	-4,074	
77,58	5,212	778,08	699,78	-4,077	
77,60	5,216	779,22	699,65	-4,081	
77,62	5,220	780,02	699,61	-4,085	
77,64	5,224	776,85	699,70	-4,089	
77,66	5,228	777,05	699,63	-4,093	
77,68	5,232	779,14	699,59	-4,097	
77,70	5,236	776,80	699,76	-4,101	
77,72	5,240	775,25	699,76	-4,105	
77,74	5,244	777,48	699,60	-4,109	
77,76	5,248	776,10	699,65	-4,113	
77,78	5,252	773,22	699,76	-4,117	
77,80	5,256	775,19	699,63	-4,121	
77,82	5,260	775,59	699,65	-4,125	
77,84	5,264	771,22	699,90	-4,128	
77,86	5,268	770,17	699,89	-4,132	
77,88	5,272	773,07	699,65	-4,136	
77,90	5,276	771,86	699,80	-4,140	
77,92	5,280	767,90	700,18	-4,144	
77,94	5,284	768,36	700,19	-4,148	
77,96	5,288	770,24	699,87	-4,152	
77,98	5,292	770,24	699,65	-4,156	
78,00	5,296	767,76	699,74	-4,160	
78,02	5,300	767,90	699,74	-4,164	
78,04	5,304	769,44	699,61	-4,168	
78,06	5,308	766,51	699,72	-4,172	
78,08	5,312	762,54	699,82	-4,176	
78,10	5,316	764,53	699,68	-4,179	
78,12	5,320	766,26	699,62	-4,183	
78,14	5,324	762,50	699,74	-4,187	
78,16	5,328	761,62	699,68	-4,191	
78,18	5,332	764,05	699,59	-4,195	
78,20	5,336	761,81	699,73	-4,199	
78,22	5,340	759,35	699,74	-4,203	
78,24	5,344	761,77	699,61	-4,207	
78,26	5,348	761,30	699,81	-4,211	
78,28	5,352	757,39	700,02	-4,215	
78,30	5,356	758,01	699,87	-4,219	
78,32	5,360	760,87	699,63	-4,223	
78,34	5,364	758,30	699,81	-4,227	
78,36	5,369	756,01	699,99	-4,230	
78,38	5,372	757,69	699,82	-4,234	
78,40	5,376	757,82	699,67	-4,238	
78,42	5,380	753,07	699,94	-4,242	
78,44	5,384	751,38	700,07	-4,246	
78,46	5,388	754,42	699,82	-4,250	
78,48	5,392	755,80	699,69	-4,254	
78,50	5,396	752,03	699,90	-4,258	
78,52	5,400	751,68	699,91	-4,262	
78,54	5,404	754,20	699,68	-4,266	
78,56	5,408	752,04	699,79	-4,270	
78,58	5,412	747,14	700,03	-4,273	
78,60	5,416	747,44	699,93	-4,277	
78,62	5,420	750,01	699,67	-4,281	
78,64	5,424	748,14	699,74	-4,285	
78,66	5,428	745,13	699,83	-4,289	
78,68	5,432	747,10	699,67	-4,293	
78,70	5,436	747,28	699,63	-4,297	
78,72	5,440	743,16	699,74	-4,301	
78,74	5,444	742,57	699,66	-4,305	
78,76	5,448	744,96	699,62	-4,309	
78,78	5,452	742,16	699,78	-4,313	
78,80	5,457	740,04	699,77	-4,317	
78,82	5,460	742,83	699,61	-4,320	
78,84	5,465	742,03	699,68	-4,324	
78,86	5,469	738,95	699,74	-4,328	
78,88	5,472	740,95	699,60	-4,332	
78,90	5,476	741,05	699,65	-4,336	
78,92	5,480	736,79	699,85	-4,340	
78,94	5,484	736,22	699,78	-4,344	
78,96	5,488	739,00	699,62	-4,348	
78,98	5,492	736,43	699,85	-4,352	
79,00	5,496	733,61	700,04	-4,356	
79,02	5,500	735,86	699,86	-4,360	
79,04	5,504	737,09	699,65	-4,364	
79,06	5,508	732,90	699,74	-4,368	
79,08	5,512	731,28	699,75	-4,372	
79,10	5,516	733,98	699,60	-4,376	
79,12	5,520	732,20	699,70	-4,379	
79,14	5,524	727,23	699,80	-4,383	
79,16	5,528	727,92	699,65	-4,387	
79,18	5,532	729,20	699,58	-4,391	
79,20	5,536	726,02	699,68	-4,395	
79,22	5,540	725,52	699,63	-4,399	
79,24	5,544	728,07	699,57	-4,403	
79,26	5,548	725,39	699,75	-4,407	
79,28	5,553	723,28	699,79	-4,411	
79,30	5,556	726,53	699,61	-4,415	
79,32	5,561	726,29	699,73	-4,419	
79,34	5,565	722,56	699,93	-4,423	
79,36	5,568	723,08	699,80	-4,427	
79,38	5,572	725,04	699,63	-4,431	
79,40	5,576	721,89	699,83	-4,435	
79,42	5,580	719,69	699,89	-4,439	
79,44	5,584	722,22	699,67	-4,443	
79,46	5,588	721,00	699,75	-4,447	
79,48	5,592	715,24	700,05	-4,451	
79,50	5,596	714,49	700,00	-4,455	
79,52	5,600	717,24	699,72	-4,458	
79,54	5,604	715,25	699,81	-4,462	
79,56	5,608	711,71	699,99	-4,466	
79,58	5,612	712,88	699,84	-4,470	
79,60	5,616	713,58	699,64	-4,474	
79,62	5,620	709,08	699,77	-4,478	
79,64	5,624	706,93	699,81	-4,482	
79,66	5,628	710,29	699,64	-4,486	
79,68	5,632	709,82	699,76	-4,490	
79,70	5,636	706,00	699,95	-4,494	
79,72	5,640	706,43	699,81	-4,498	
79,74	5,644	708,38	699,66	-4,502	
79,76	5,648	705,21	699,91	-4,506	
79,78	5,653	702,97	700,04	-4,510	
79,80	5,656	705,28	699,80	-4,514	
79,82	5,660	706,00	699,69	-4,518	
79,84	5,665	701,47	700,04	-4,521	
79,86	5,668	700,34	700,21	-4,525	
79,88	5,672	702,72	699,97	-4,529	
79,90	5,676	703,60	699,69	-4,533	
79,92	5,680	700,20	699,83	-4,537	
79,94	5,684	698,91	699,96	-4,541	
79,96	5,688	700,45	699,76	-4,545	
79,98	5,692	700,06	699,67	-4,549	
80,00	5,696	695,44	699,97	-4,553	
80,02	5,700	693,98	700,07	-4,557	
80,04	5,704	696,84	699,79	-4,561	
80,06	5,708	697,22	699,74	-4,565	
80,08	5,712	692,89	700,15	-4,569	
80,10	5,716	692,30	700,29	-4,573	
80,12	5,720	694,36	700,02	-4,577	
80,14	5,724	694,87	699,68	-4,581	
80,16	5,728	692,12	699,83	-4,584	
80,18	5,732	690,84	700,07	-4,588	
80,20	5,736	691,90	699,92	-4,592	
80,22	5,740	692,90	699,69	-4,596	
80,24	5,745	689,47	699,94	-4,600	
80,26	5,749	686,37	700,17	-4,604	
80,28	5,752	687,43	699,96	-4,608	
80,30	5,756	689,18	699,71	-4,612	
80,32	5,760	685,99	700,01	-4,616	
80,34	5,764	682,99	700,28	-4,620	
80,36	5,768	684,08	700,09	-4,624	
80,38	5,772	685,96	699,74	-4,628	
80,40	5,776	682,06	700,10	-4,632	
80,42	5,780	677,42	700,64	-4,636	
80,44	5,784	677,97	700,66	-4,640	
80,46	5,788	678,34	700,29	-4,644	
80,48	5,792	677,65	699,84	-4,648	
80,50	5,796	676,87	700,02	-4,652	
80,52	5,800	675,93	700,49	-4,656	
80,54	5,804	674,25	700,53	-4,659	
80,56	5,808	672,97	700,18	-4,663	
80,58	5,812	673,06	699,76	-4,667	
80,60	5,816	672,74	699,84	-4,671	
80,62	5,820	672,18	700,16	-4,675	
80,64	5,824	672,20	700,12	-4,679	
80,66	5,828	672,76	699,79	-4,683	
80,68	5,832	672,28	699,69	-4,687	
80,70	5,836	669,34	700,00	-4,691	
80,72	5,841	669,77	700,07	-4,695	
80,74	5,844	672,08	699,79	-4,699	
80,76	5,848	670,78	699,86	-4,703	
80,78	5,852	666,45	700,15	-4,707	
80,80	5,856	666,70	700,09	-4,711	
80,82	5,860	669,24	699,75	-4,715	
80,84	5,864	667,66	699,86	-4,719	
80,86	5,868	663,60	700,27	-4,723	
80,88	5,872	663,45	700,26	-4,727	
80,90	5,876	664,59	699,87	-4,731	
80,92	5,880	663,13	699,75	-4,735	
80,94	5,884	659,40	700,01	-4,739	
80,96	5,888	659,64	700,02	-4,743	
80,98	5,892	662,01	699,74	-4,747	
81,00	5,896	660,68	699,87	-4,751	
81,02	5,900	656,47	700,24	-4,755	
81,04	5,904	657,31	700,24	-4,759	
81,06	5,908	659,36	699,90	-4,763	
81,08	5,912	659,44	699,67	-4,767	
81,10	5,916	656,93	699,83	-4,771	
81,12	5,920	656,93	699,87	-4,775	
81,14	5,924	658,87	699,66	-4,779	
81,16	5,928	656,50	699,86	-4,783	
81,18	5,933	650,57	700,31	-4,787	
81,20	5,937	650,26	700,34	-4,791	
81,22	5,940	652,93	699,99	-4,795	
81,24	5,944	653,57	699,70	-4,798	
81,26	5,948	651,28	699,88	-4,802	
81,28	5,952	650,69	700,01	-4,806	
81,30	5,956	651,11	699,78	-4,810	
81,32	5,960	649,92	699,69	-4,814	
81,34	5,964	645,26	700,00	-4,818	
81,36	5,968	643,76	700,10	-4,822	
81,38	5,972	646,84	699,81	-4,826	
81,40	5,976	647,86	699,74	-4,830	
81,42	5,980	643,30	700,12	-4,834	
81,44	5,984	642,19	700,23	-4,838	
81,46	5,988	644,37	699,92	-4,842	
81,48	5,992	645,04	699,70	-4,846	
81,50	5,996	640,78	700,00	-4,850	
81,52	6,000	639,20	700,19	-4,854	
81,54	6,004	640,86	699,95	-4,858	
81,56	6,008	641,51	699,68	-4,862	
81,58	6,012	637,18	699,83	-4,866	
81,60	6,017	635,05	699,95	-4,870	
81,62	6,020	637,30	699,73	-4,874	
81,64	6,024	637,61	699,71	-4,878	
81,66	6,029	633,39	699,99	-4,882	
81,68	6,033	632,72	699,99	-4,886	
81,70	6,036	635,82	699,71	-4,889	
81,72	6,040	634,42	699,85	-4,893	
81,74	6,044	630,16	700,19	-4,897	
81,76	6,048	630,39	700,12	-4,901	
81,78	6,052	632,51	699,77	-4,905	
81,80	6,056	630,86	699,73	-4,909	
81,82	6,060	627,48	699,96	-4,913	
81,84	6,064	628,02	699,89	-4,917	
81,86	6,068	629,37	699,66	-4,921	
81,88	6,072	626,51	699,82	-4,925	
81,90	6,076	623,21	700,03	-4,929	
81,92	6,080	625,06	699,87	-4,933	
81,94	6,084	626,33	699,71	-4,937	
81,96	6,088	622,12	700,02	-4,941	
81,98	6,092	620,30	700,22	-4,945	
82,00	6,096	622,65	699,99	-4,949	
82,02	6,100	623,99	699,71	-4,953	
82,04	6,104	620,55	700,09	-4,957	
82,06	6,109	617,15	700,57	-4,961	
82,08	6,113	617,36	700,49	-4,965	
82,10	6,117	617,77	700,04	-4,969	
82,12	6,120	616,85	699,73	-4,973	
82,14	6,125	614,67	699,98	-4,977	
82,16	6,129	614,39	700,16	-4,980	
82,18	6,133	615,09	699,93	-4,984	
82,20	6,137	615,41	699,68	-4,988	
82,22	6,141	610,71	700,03	-4,992	
82,24	6,144	607,57	700,38	-4,996	
82,26	6,148	608,57	700,25	-5,000	
82,28	6,152	609,44	699,85	-5,004	
82,30	6,156	608,14	699,75	-5,008	
82,32	6,160	606,06	699,94	-5,012	
82,34	6,164	606,92	699,89	-5,016	
82,36	6,168	608,75	699,67	-5,020	
82,38	6,172	606,40	699,84	-5,024	
82,40	6,176	602,72	700,06	-5,028	
82,42	6,180	604,40	699,91	-5,032	
82,44	6,184	607,18	699,69	-5,036	
82,46	6,188	604,04	699,93	-5,040	
82,48	6,192	600,65	700,17	-5,044	
82,50	6,196	602,21	700,01	-5,048	
82,52	6,200	603,70	699,70	-5,052	
82,54	6,204	600,95	699,89	-5,056	
82,56	6,209	597,86	700,25	-5,060	
82,58	6,213	598,66	700,18	-5,064	
82,60	6,216	599,62	699,81	-5,068	
82,62	6,220	598,12	699,76	-5,072	
82,64	6,224	594,74	700,05	-5,076	
82,66	6,228	595,26	700,05	-5,080	
82,68	6,232	596,59	699,74	-5,084	
82,70	6,236	594,81	699,82	-5,088	
82,72	6,240	590,23	700,23	-5,092	
82,74	6,244	590,47	700,26	-5,096	
82,76	6,248	592,35	699,91	-5,100	
82,78	6,252	592,43	699,71	-5,104	
82,80	6,256	589,23	700,02	-5,108	
82,82	6,260	588,71	700,19	-5,112	
82,84	6,264	589,40	699,93	-5,116	
82,86	6,268	589,04	699,72	-5,120	
82,88	6,272	585,08	699,96	-5,124	
82,90	6,276	584,09	700,09	-5,128	
82,92	6,280	586,81	699,84	-5,132	
82,94	6,284	587,56	699,70	-5,136	
82,96	6,288	582,69	700,01	-5,140	
82,98	6,292	580,85	700,12	-5,144	
83,00	6,296	583,00	699,86	-5,148	
83,02	6,300	583,32	699,69	-5,152	
83,04	6,305	578,79	700,03	-5,156	
83,06	6,309	577,39	700,24	-5,160	
83,08	6,313	579,62	699,99	-5,164	
83,10	6,316	580,58	699,70	-5,167	
83,12	6,321	577,20	700,00	-5,171	
83,14	6,325	575,12	700,38	-5,175	
83,16	6,328	575,90	700,30	-5,179	
83,18	6,332	575,95	699,92	-5,183	
83,20	6,336	575,04	699,70	-5,187	
83,22	6,340	571,97	700,22	-5,191	
83,24	6,344	570,16	700,67	-5,195	
83,26	6,348	569,04	700,56	-5,199	
83,28	6,352	568,35	700,13	-5,203	
83,30	6,356	567,63	699,74	-5,207	
83,32	6,360	567,23	699,81	-5,211	
83,34	6,364	567,71	699,94	-5,215	
83,36	6,368	568,52	699,76	-5,219	
83,38	6,372	568,33	699,69	-5,223	
83,40	6,376	563,67	700,05	-5,227	
83,42	6,380	561,78	700,19	-5,231	
83,44	6,384	564,63	699,90	-5,235	
83,46	6,388	565,40	699,77	-5,239	
83,48	6,392	560,93	700,16	-5,243	
83,50	6,397	559,27	700,35	-5,247	
83,52	6,401	560,40	700,10	-5,251	
83,54	6,404	560,63	699,73	-5,255	
83,56	6,409	557,93	699,94	-5,259	
83,58	6,413	555,65	700,42	-5,263	
83,60	6,416	555,34	700,47	-5,267	
83,62	6,420	555,28	700,10	-5,270	
83,64	6,424	555,50	699,72	-5,274	
83,66	6,428	553,58	699,95	-5,278	
83,68	6,432	551,76	700,31	-5,282	
83,70	6,436	551,37	700,24	-5,286	
83,72	6,440	551,81	699,86	-5,290	
83,74	6,444	551,56	699,75	-5,294	
83,76	6,448	549,14	700,17	-5,298	
83,78	6,452	549,43	700,37	-5,302	
83,80	6,456	549,55	700,11	-5,306	
83,82	6,460	549,38	699,73	-5,310	
83,84	6,464	546,66	700,00	-5,314	
83,86	6,468	544,05	700,55	-5,318	
83,88	6,472	544,12	700,61	-5,322	
83,90	6,476	544,71	700,26	-5,326	
83,92	6,480	544,53	699,83	-5,330	
83,94	6,484	544,37	699,71	-5,334	
83,96	6,488	543,89	699,86	-5,338	
83,98	6,492	543,58	699,76	-5,342	
84,00	6,496	543,93	699,66	-5,346	
84,02	6,501	539,85	700,06	-5,350	
84,04	6,505	536,31	700,32	-5,354	
84,06	6,509	537,71	700,13	-5,358	
84,08	6,512	540,09	699,75	-5,362	
84,10	6,516	538,82	699,69	-5,366	
84,12	6,520	536,55	699,90	-5,370	
84,14	6,524	536,93	699,88	-5,374	
84,16	6,528	538,01	699,67	-5,378	
84,18	6,532	535,69	699,60	-5,382	
84,20	6,536	532,47	699,57	-5,386	
84,22	6,540	534,01	699,51	-5,390	
84,24	6,544	532,60	699,85	-5,394	
84,26	6,548	528,13	700,15	-5,398	
84,28	6,552	527,35	700,01	-5,402	
84,30	6,556	530,08	699,68	-5,406	
84,32	6,560	529,17	699,72	-5,410	
84,34	6,564	526,66	699,91	-5,414	
84,36	6,568	527,69	699,78	-5,418	
84,38	6,572	527,98	699,66	-5,422	
84,40	6,576	522,48	699,90	-5,426	
84,42	6,580	518,91	700,04	-5,430	
84,44	6,584	521,14	699,88	-5,434	
84,46	6,588	522,83	699,68	-5,438	
84,48	6,592	519,05	700,11	-5,442	
84,50	6,597	515,73	700,57	-5,446	
84,52	6,601	515,59	700,49	-5,450	
84,54	6,605	515,31	700,06	-5,454	
84,56	6,609	514,67	699,72	-5,458	
84,58	6,612	512,89	699,95	-5,462	
84,60	6,616	511,74	700,22	-5,466	
84,62	6,620	511,24	700,08	-5,470	
84,64	6,624	511,72	699,74	-5,474	
84,66	6,628	509,75	699,91	-5,478	
84,68	6,632	506,52	700,32	-5,482	
84,70	6,636	507,03	700,29	-5,486	
84,72	6,640	508,11	699,90	-5,490	
84,74	6,644	507,98	699,71	-5,494	
84,76	6,648	504,62	700,11	-5,498	
84,78	6,652	503,41	700,36	-5,502	
84,80	6,656	503,75	700,11	-5,506	
84,82	6,660	503,48	699,75	-5,510	
84,84	6,664	499,90	700,01	-5,514	
84,86	6,668	497,62	700,43	-5,518	
84,88	6,672	498,38	700,38	-5,522	
84,90	6,676	498,57	699,97	-5,526	
84,92	6,680	498,29	699,77	-5,530	
84,94	6,685	495,47	700,32	-5,534	
84,96	6,689	493,97	700,74	-5,538	
84,98	6,693	493,87	700,59	-5,542	
85,00	6,696	492,84	700,13	-5,546	
85,02	6,700	492,28	699,73	-5,550	
85,04	6,704	492,38	699,80	-5,554	
85,06	6,708	491,87	700,00	-5,558	
85,08	6,712	491,29	699,87	-5,562	
85,10	6,716	491,31	699,69	-5,566	
85,12	6,720	488,61	700,01	-5,570	
85,14	6,724	486,96	700,28	-5,574	
85,16	6,728	488,86	700,10	-5,578	
85,18	6,732	491,01	699,74	-5,582	
85,20	6,736	488,30	699,95	-5,586	
85,22	6,740	484,80	700,39	-5,590	
85,24	6,744	484,81	700,38	-5,594	
85,26	6,748	484,81	700,00	-5,598	
85,28	6,752	483,43	699,72	-5,602	
85,30	6,756	480,65	699,98	-5,606	
85,32	6,760	479,99	700,18	-5,610	
85,34	6,764	480,55	699,98	-5,614	
85,36	6,768	481,18	699,69	-5,618	
85,38	6,772	478,12	699,90	-5,622	
85,40	6,777	475,40	700,16	-5,626	
85,42	6,781	476,17	699,99	-5,630	
85,44	6,784	477,58	699,73	-5,634	
85,46	6,789	474,61	699,93	-5,638	
85,48	6,793	471,38	700,13	-5,642	
85,50	6,797	472,21	699,94	-5,646	
85,52	6,801	474,01	699,70	-5,650	
85,54	6,805	471,19	700,02	-5,654	
85,56	6,809	467,92	700,31	-5,658	
85,58	6,812	468,03	700,11	-5,662	
85,60	6,816	468,64	699,75	-5,665	
85,62	6,820	465,68	699,99	-5,669	
85,64	6,824	461,85	700,45	-5,673	
85,66	6,828	462,22	700,48	-5,677	
85,68	6,832	463,00	700,08	-5,681	
85,70	6,836	462,49	699,82	-5,685	
85,72	6,840	458,75	700,64	-5,690	
85,74	6,844	455,02	701,48	-5,694	
85,76	6,848	452,46	701,51	-5,698	
85,78	6,852	450,33	701,05	-5,702	
85,80	6,856	447,87	700,55	-5,706	
85,82	6,860	448,19	700,14	-5,709	
85,84	6,864	451,82	699,78	-5,713	
85,86	6,868	453,83	699,61	-5,717	
85,88	6,873	451,93	699,67	-5,721	
85,90	6,877	450,69	699,63	-5,725	
85,92	6,881	451,38	699,58	-5,729	
85,94	6,885	449,05	699,79	-5,733	
85,96	6,889	447,87	699,87	-5,737	
85,98	6,892	451,10	699,66	-5,741	
86,00	6,896	451,94	699,70	-5,745	
86,02	6,900	447,94	700,07	-5,749	
86,04	6,904	446,84	700,10	-5,753	
86,06	6,908	448,71	699,78	-5,758	
86,08	6,912	446,73	699,82	-5,762	
86,10	6,916	441,41	700,20	-5,766	
86,12	6,920	440,99	700,25	-5,770	
86,14	6,924	442,37	699,91	-5,774	
86,16	6,928	442,00	699,71	-5,778	
86,18	6,932	438,00	700,20	-5,782	
86,20	6,936	435,98	700,62	-5,786	
86,22	6,940	435,79	700,50	-5,790	
86,24	6,944	434,92	700,08	-5,794	
86,26	6,948	434,19	699,71	-5,798	
86,28	6,952	432,56	699,99	-5,802	
86,30	6,956	430,89	700,46	-5,806	
86,32	6,961	430,19	700,46	-5,810	
86,34	6,965	429,08	700,08	-5,814	
86,36	6,968	428,40	699,72	-5,818	
86,38	6,973	427,42	699,81	-5,822	
86,40	6,977	426,85	700,02	-5,826	
86,42	6,981	427,15	699,85	-5,830	
86,44	6,984	427,46	699,73	-5,834	
86,46	6,989	423,50	700,28	-5,838	
86,48	6,993	420,44	700,71	-5,842	
86,50	6,996	420,95	700,57	-5,846	
86,52	7,000	420,42	700,14	-5,850	
86,54	7,004	419,30	699,74	-5,854	
86,56	7,008	419,59	699,71	-5,858	
86,58	7,012	418,60	699,86	-5,862	
86,60	7,016	417,82	699,73	-5,866	
86,62	7,020	417,06	699,72	-5,870	
86,64	7,024	413,31	700,01	-5,874	
86,66	7,028	411,30	700,04	-5,878	
86,68	7,032	414,05	699,76	-5,882	
86,70	7,036	413,49	699,87	-5,886	
86,72	7,040	408,36	700,28	-5,890	
86,74	7,044	407,24	700,31	-5,894	
86,76	7,048	408,52	699,95	-5,898	
86,78	7,052	408,25	699,73	-5,902	
86,80	7,056	404,41	700,09	-5,906	
86,82	7,061	402,52	700,34	-5,910	
86,84	7,065	402,43	700,07	-5,914	
86,86	7,068	402,12	699,74	-5,918	
86,88	7,073	398,77	700,13	-5,923	
86,90	7,077	395,48	700,62	-5,927	
86,92	7,081	395,04	700,56	-5,931	
86,94	7,085	394,60	700,13	-5,935	
86,96	7,088	393,85	699,76	-5,938	
86,98	7,092	391,55	699,94	-5,942	
87,00	7,096	390,19	700,20	-5,947	
87,02	7,100	390,12	700,02	-5,951	
87,04	7,104	390,84	699,74	-5,955	
87,06	7,108	388,21	700,13	-5,959	
87,08	7,112	384,60	700,63	-5,963	
87,10	7,116	384,77	700,61	-5,967	
87,12	7,120	384,87	700,23	-5,971	
87,14	7,124	384,56	699,80	-5,975	
87,16	7,128	384,44	699,73	-5,979	
87,18	7,132	384,04	699,86	-5,983	
87,20	7,136	383,89	699,74	-5,987	
87,22	7,140	383,65	699,69	-5,991	
87,24	7,144	379,75	700,06	-5,995	
87,26	7,149	376,29	700,23	-5,999	
87,28	7,152	377,38	699,97	-6,003	
87,30	7,156	379,00	699,74	-6,007	
87,32	7,161	375,49	700,09	-6,011	
87,34	7,165	373,76	700,37	-6,015	
87,36	7,169	374,64	700,19	-6,019	
87,38	7,173	374,66	699,80	-6,023	
87,40	7,177	373,92	699,77	-6,027	
87,42	7,181	371,05	700,33	-6,031	
87,44	7,184	369,51	700,58	-6,035	
87,46	7,188	368,35	700,29	-6,039	
87,48	7,192	367,59	699,82	-6,043	
87,50	7,196	366,48	699,82	-6,047	
87,52	7,200	364,18	700,35	-6,051	
87,54	7,204	362,44	700,57	-6,056	
87,56	7,208	360,93	700,28	-6,060	
87,58	7,212	359,95	699,83	-6,063	
87,60	7,216	357,59	699,93	-6,067	
87,62	7,220	355,80	700,44	-6,072	
87,64	7,224	355,32	700,53	-6,076	
87,66	7,228	354,36	700,16	-6,080	
87,68	7,232	354,08	699,76	-6,084	
87,70	7,236	351,64	700,13	-6,088	
87,72	7,240	348,81	700,79	-6,092	
87,74	7,244	347,05	700,91	-6,096	
87,76	7,248	345,24	700,62	-6,100	
87,78	7,252	343,63	700,19	-6,104	
87,80	7,256	344,35	699,77	-6,108	
87,82	7,261	345,67	699,88	-6,112	
87,84	7,265	343,35	700,27	-6,116	
87,86	7,269	342,15	700,25	-6,120	
87,88	7,273	343,07	699,87	-6,124	
87,90	7,277	342,58	699,82	-6,128	
87,92	7,281	338,15	700,28	-6,132	
87,94	7,284	337,07	700,41	-6,136	
87,96	7,288	337,20	700,09	-6,140	
87,98	7,292	336,15	699,72	-6,144	
88,00	7,296	332,42	699,93	-6,148	
88,02	7,300	329,20	700,38	-6,152	
88,04	7,304	329,05	700,37	-6,156	
88,06	7,308	329,62	699,96	-6,160	
88,08	7,312	328,81	699,74	-6,164	
88,10	7,316	324,78	700,43	-6,169	
88,12	7,320	322,45	701,09	-6,173	
88,14	7,324	321,08	701,11	-6,177	
88,16	7,328	318,84	700,75	-6,181	
88,18	7,332	317,22	700,32	-6,185	
88,20	7,336	319,47	699,90	-6,189	
88,22	7,340	323,58	699,72	-6,193	
88,24	7,344	322,94	699,89	-6,197	
88,26	7,349	320,67	699,87	-6,201	
88,28	7,352	320,36	699,66	-6,205	
88,30	7,356	317,60	700,01	-6,209	
88,32	7,361	311,61	700,54	-6,213	
88,34	7,364	310,01	700,58	-6,217	
88,36	7,368	310,99	700,21	-6,221	
88,38	7,372	310,94	699,81	-6,225	
88,40	7,376	309,25	699,89	-6,229	
88,42	7,380	308,47	700,10	-6,234	
88,44	7,384	307,61	699,95	-6,238	
88,46	7,388	307,14	699,69	-6,242	
88,48	7,392	304,31	699,97	-6,246	
88,50	7,396	300,57	700,39	-6,250	
88,52	7,400	300,15	700,31	-6,254	
88,54	7,404	300,23	699,88	-6,258	
88,56	7,408	298,34	699,87	-6,262	
88,58	7,412	292,90	700,58	-6,267	
88,60	7,416	289,47	700,97	-6,271	
88,62	7,420	287,55	700,74	-6,275	
88,64	7,424	285,20	700,26	-6,278	
88,66	7,428	284,13	699,82	-6,282	
88,68	7,432	285,72	699,73	-6,286	
88,70	7,436	286,58	699,81	-6,290	
88,72	7,440	286,78	699,68	-6,295	
88,74	7,444	285,48	699,74	-6,299	
88,76	7,448	282,14	700,01	-6,303	
88,78	7,452	280,60	699,96	-6,307	
88,80	7,456	282,17	699,70	-6,311	
88,82	7,460	280,61	700,01	-6,315	
88,84	7,464	275,82	700,54	-6,320	
88,86	7,468	274,50	700,58	-6,324	
88,88	7,472	274,02	700,19	-6,327	
88,90	7,476	272,49	699,77	-6,331	
88,92	7,480	270,12	699,89	-6,335	
88,94	7,484	267,70	700,22	-6,339	
88,96	7,488	266,33	700,11	-6,344	
88,98	7,492	265,86	699,78	-6,347	
89,00	7,496	261,96	700,01	-6,352	
89,02	7,500	257,28	700,46	-6,356	
89,04	7,504	257,14	700,48	-6,360	
89,06	7,508	257,31	700,13	-6,364	
89,08	7,512	256,43	699,74	-6,368	
89,10	7,516	254,06	700,01	-6,372	
89,12	7,520	251,70	700,58	-6,376	
89,14	7,524	249,92	700,63	-6,380	
89,16	7,528	248,40	700,23	-6,384	
89,18	7,532	247,32	699,77	-6,388	
89,20	7,536	245,32	700,15	-6,393	
89,22	7,540	241,53	701,06	-6,397	
89,24	7,544	237,89	701,39	-6,402	
89,26	7,548	234,60	701,15	-6,405	
89,28	7,552	231,36	700,71	-6,409	
89,30	7,556	229,90	700,25	-6,413	
89,32	7,560	233,81	699,84	-6,417	
89,34	7,564	237,08	699,66	-6,421	
89,36	7,568	236,62	699,66	-6,425	
89,38	7,572	236,25	699,57	-6,429	
89,40	7,576	234,28	699,72	-6,433	
89,42	7,580	229,53	700,07	-6,438	
89,44	7,584	227,01	700,04	-6,442	
89,46	7,588	228,37	699,74	-6,446	
89,48	7,592	226,28	700,09	-6,450	
89,50	7,596	219,26	700,76	-6,455	
89,52	7,600	215,41	700,89	-6,459	
89,54	7,604	213,15	700,54	-6,463	
89,56	7,608	210,10	700,03	-6,466	
89,58	7,612	208,53	699,82	-6,471	
89,60	7,616	206,43	700,18	-6,475	
89,62	7,620	203,49	700,36	-6,479	
89,64	7,624	200,89	700,07	-6,483	
89,66	7,628	199,22	699,74	-6,487	
89,68	7,632	194,43	700,02	-6,492	
89,70	7,636	189,18	700,39	-6,496	
89,72	7,640	185,86	700,27	-6,500	
89,74	7,644	182,27	699,86	-6,504	
89,76	7,648	177,59	699,81	-6,509	
89,78	7,652	169,85	700,43	-6,513	
89,80	7,656	163,33	700,75	-6,516	
89,82	7,660	156,24	700,48	-6,517	
89,84	7,663	147,49	699,95	-6,518	
89,86	7,665	138,74	699,81	-6,518	
89,88	7,666	128,23	700,66	-6,520	
89,90	7,666	117,29	701,31	-6,521	
89,92	7,666	106,99	701,23	-6,521	
89,94	7,666	97,58	700,79	-6,521	
89,96	7,666	89,20	700,29	-6,521	
89,98	7,666	86,98	699,85	-6,521	
90,00	7,666	88,32	699,71	-6,522	
90,02	7,666	87,14	699,69	-6,522	
90,04	7,666	85,48	699,62	-6,522	
90,06	7,666	82,34	699,81	-6,523	
90,08	7,666	79,10	699,96	-6,523	
90,10	7,666	78,15	699,79	-6,523	
90,12	7,666	79,09	699,73	-6,523	
90,14	7,666	75,68	700,16	-6,524	
90,16	7,667	72,38	700,39	-6,524	
90,18	7,666	72,21	700,16	-6,524	
90,20	7,666	72,40	699,77	-6,524	
90,22	7,666	71,70	699,96	-6,524	
90,24	7,666	70,80	700,56	-6,525	
90,26	7,666	70,78	700,65	-6,525	
90,28	7,666	71,08	700,24	-6,525	
90,30	7,666	71,81	699,82	-6,525	
90,32	7,666	71,39	700,16	-6,525	
90,34	7,666	70,87	700,68	-6,526	
90,36	7,666	70,91	700,67	-6,526	
90,38	7,666	71,08	700,31	-6,525	
90,40	7,666	71,32	699,88	-6,525	
90,42	7,666	71,72	699,74	-6,525	
90,44	7,666	71,02	700,29	-6,526	
90,46	7,667	70,74	700,69	-6,526	
90,48	7,666	70,86	700,52	-6,526	
90,50	7,666	71,12	700,05	-6,526	
90,52	7,666	71,62	699,79	-6,526	
90,54	7,666	70,93	700,26	-6,526	
90,56	7,667	70,67	700,62	-6,527	
90,58	7,666	70,92	700,44	-6,527	
90,60	7,666	71,29	699,98	-6,526	
90,62	7,666	71,55	699,83	-6,526	
90,64	7,666	70,89	700,32	-6,527	
90,66	7,667	70,73	700,63	-6,527	
90,68	7,667	66,40	700,45	-6,527	
90,70	7,666	55,89	700,03	-6,527	
90,72	7,666	49,89	699,72	-6,527	
90,74	7,666	48,87	700,05	-6,527	
90,76	7,667	48,18	700,46	-6,528	
90,78	7,666	47,54	700,38	-6,527	
90,80	7,666	47,38	700,00	-6,527	
90,82	7,666	48,03	699,72	-6,527	
90,84	7,666	47,54	700,15	-6,528	
90,86	7,667	47,15	700,64	-6,528	
90,88	7,667	46,66	700,62	-6,528	
90,90	7,666	45,30	700,25	-6,528	
90,92	7,666	44,70	699,82	-6,528	
90,94	7,666	46,11	699,87	-6,528	
90,96	7,667	46,19	700,58	-6,529	
90,98	7,667	44,22	700,93	-6,529	
91,00	7,667	42,04	700,70	-6,529	
91,02	7,666	40,85	700,24	-6,529	
91,04	7,666	40,22	699,81	-6,528	
91,06	7,666	41,57	699,92	-6,529	
91,08	7,667	41,99	700,36	-6,529	
91,10	7,667	42,59	700,38	-6,529	
91,12	7,666	43,66	700,01	-6,529	
91,14	7,666	44,88	699,73	-6,529	
91,16	7,666	43,15	700,47	-6,530	
91,18	7,667	39,47	701,37	-6,531	
91,20	7,667	36,27	701,51	-6,531	
91,22	7,666	33,36	701,12	-6,530	
91,24	7,666	30,85	700,62	-6,530	
91,26	7,666	30,73	700,13	-6,530	
91,28	7,666	36,61	699,77	-6,530	
91,30	7,666	41,27	699,86	-6,530	
91,32	7,667	41,80	700,07	-6,530	
91,34	7,666	42,47	699,92	-6,530	
91,36	7,666	44,13	699,79	-6,530	
91,38	7,666	41,39	700,65	-6,531	
91,40	7,667	36,02	701,46	-6,532	
91,42	7,667	33,16	701,50	-6,532	
91,44	7,666	31,14	701,11	-6,531	
91,46	7,666	28,67	700,65	-6,531	
91,48	7,666	29,90	700,19	-6,531	
91,50	7,666	36,20	699,80	-6,531	
91,52	7,666	40,19	699,82	-6,531	
91,54	7,667	40,73	699,95	-6,531	
91,56	7,666	42,22	699,79	-6,531	
91,58	7,666	43,87	699,66	-6,531	
91,60	7,666	42,05	699,84	-6,532	
91,62	7,667	40,45	699,87	-6,532	
91,64	7,666	43,69	699,70	-6,532	
91,66	7,666	43,84	700,07	-6,532	
91,68	7,667	39,02	700,56	-6,533	
91,70	7,667	36,46	700,54	-6,533	
91,72	7,666	36,79	700,14	-6,532	
91,74	7,666	37,99	699,75	-6,532	
91,76	7,666	37,10	700,08	-6,533	
91,78	7,667	35,00	700,63	-6,533	
91,80	7,667	34,13	700,61	-6,533	
91,82	7,667	34,00	700,18	-6,533	
91,84	7,666	33,39	699,75	-6,533	
91,86	7,666	32,31	700,00	-6,533	
91,88	7,667	32,71	700,53	-6,533	
91,90	7,667	33,64	700,60	-6,533	
91,92	7,667	34,07	700,27	-6,533	
91,94	7,666	34,54	699,83	-6,533	
91,96	7,666	35,08	699,93	-6,533	
91,98	7,667	34,11	700,60	-6,534	
92,00	7,667	32,14	700,84	-6,534	
92,02	7,667	31,02	700,54	-6,534	
92,04	7,666	30,81	700,06	-6,534	
92,06	7,666	31,70	699,76	-6,534	
92,08	7,666	32,34	700,28	-6,534	
92,10	7,667	31,62	700,87	-6,535	
92,12	7,667	30,25	700,86	-6,535	
92,14	7,666	28,50	700,42	-6,534	
92,16	7,666	28,04	699,93	-6,534	
92,18	7,666	29,42	699,86	-6,534	
92,20	7,667	31,25	700,06	-6,535	
92,22	7,667	33,10	699,98	-6,535	
92,24	7,666	35,81	699,70	-6,534	
92,26	7,666	35,70	700,07	-6,535	
92,28	7,667	31,64	700,70	-6,536	
92,30	7,667	29,63	700,76	-6,536	
92,32	7,667	29,97	700,38	-6,535	
92,34	7,666	29,68	699,90	-6,535	
92,36	7,666	29,57	699,89	-6,535	
92,38	7,667	29,44	700,52	-6,536	
92,40	7,667	28,34	700,83	-6,536	
92,42	7,667	27,58	700,63	-6,536	
92,44	7,666	27,39	700,17	-6,536	
92,46	7,666	28,36	699,77	-6,535	
92,48	7,666	30,25	700,17	-6,536	
92,50	7,667	29,53	700,87	-6,537	
92,52	7,667	27,35	700,98	-6,537	
92,54	7,667	25,17	700,64	-6,537	
92,56	7,666	24,10	700,17	-6,536	
92,58	7,666	26,21	699,79	-6,536	
92,60	7,666	29,71	699,96	-6,536	
92,62	7,667	30,15	700,35	-6,537	
92,64	7,667	30,15	700,27	-6,537	
92,66	7,666	31,47	699,85	-6,536	
92,68	7,666	32,14	699,98	-6,537	
92,70	7,667	28,48	700,77	-6,537	
92,72	7,667	26,50	701,10	-6,538	
92,74	7,666	26,77	700,81	-6,537	
92,76	7,666	26,61	700,31	-6,537	
92,78	7,666	26,52	699,85	-6,536	
92,80	7,666	30,63	699,69	-6,536	
92,82	7,667	32,68	699,84	-6,537	
92,84	7,666	33,24	699,77	-6,537	
92,86	7,666	33,77	699,70	-6,537	
92,88	7,667	31,19	699,93	-6,537	
92,90	7,667	28,64	699,99	-6,537	
92,92	7,666	31,00	699,75	-6,537	
92,94	7,666	34,54	699,81	-6,537	
92,96	7,667	31,76	700,41	-6,538	
92,98	7,667	29,13	700,67	-6,538	
93,00	7,667	29,49	700,40	-6,538	
93,02	7,666	29,31	699,93	-6,537	
93,04	7,666	28,71	699,75	-6,537	
93,06	7,666	28,14	700,19	-6,538	
93,08	7,667	27,79	700,45	-6,538	
93,10	7,667	28,73	700,24	-6,538	
93,12	7,666	30,34	699,83	-6,538	
93,14	7,666	30,89	699,89	-6,538	
93,16	7,667	29,10	700,52	-6,539	
93,18	7,667	27,60	700,77	-6,539	
93,20	7,666	27,22	700,49	-6,538	
93,22	7,666	27,26	700,03	-6,538	
93,24	7,666	28,09	699,74	-6,538	
93,26	7,666	28,75	700,27	-6,539	
93,28	7,667	28,13	700,86	-6,539	
93,30	7,667	27,36	700,83	-6,539	
93,32	7,666	25,96	700,40	-6,539	
93,34	7,666	24,80	699,90	-6,539	
93,36	7,666	25,98	699,79	-6,539	
93,38	7,667	27,39	700,23	-6,539	
93,40	7,667	27,55	700,39	-6,539	
93,42	7,666	27,43	700,07	-6,539	
93,44	7,666	27,93	699,73	-6,539	
93,46	7,666	26,55	700,04	-6,539	
93,48	7,667	25,42	700,56	-6,540	
93,50	7,667	26,21	700,61	-6,539	
93,52	7,666	27,02	700,28	-6,539	
93,54	7,666	27,58	699,84	-6,539	
93,56	7,666	29,24	699,91	-6,539	
93,58	7,667	29,22	700,77	-6,540	
93,60	7,667	26,73	701,25	-6,541	
93,62	7,667	24,02	701,04	-6,540	
93,64	7,666	21,75	700,55	-6,540	
93,66	7,666	20,09	700,05	-6,539	
93,68	7,666	23,73	699,77	-6,539	
93,70	7,666	27,04	700,12	-6,540	
93,72	7,667	27,24	700,37	-6,540	
93,74	7,667	27,11	700,12	-6,540	
93,76	7,666	28,41	699,74	-6,540	
93,78	7,666	27,91	700,18	-6,541	
93,80	7,667	24,40	701,00	-6,541	
93,82	7,667	22,63	701,17	-6,541	
93,84	7,666	20,95	700,83	-6,541	
93,86	7,666	18,80	700,37	-6,540	
93,88	7,666	19,73	699,92	-6,540	
93,90	7,666	25,26	699,82	-6,540	
93,92	7,667	26,61	700,39	-6,541	
93,94	7,667	25,02	700,69	-6,541	
93,96	7,667	24,06	700,40	-6,541	
93,98	7,666	24,32	699,90	-6,541	
94,00	7,666	23,85	699,95	-6,541	
94,02	7,667	21,63	700,65	-6,542	
94,04	7,667	20,55	700,92	-6,542	
94,06	7,667	20,51	700,64	-6,541	
94,08	7,667	20,51	700,14	-6,541	
94,10	7,666	20,89	699,74	-6,541	
94,12	7,666	23,06	700,01	-6,541	
94,14	7,667	23,59	700,51	-6,542	
94,16	7,667	23,67	700,51	-6,542	
94,18	7,667	24,00	700,15	-6,541	
94,20	7,666	24,64	699,74	-6,541	
94,22	7,666	24,95	700,00	-6,542	
94,24	7,667	23,96	700,71	-6,542	
94,26	7,667	21,98	700,91	-6,542	
94,28	7,667	20,71	700,59	-6,542	
94,30	7,667	19,37	700,12	-6,542	
94,32	7,666	19,99	699,73	-6,541	
94,34	7,666	23,12	700,00	-6,542	
94,36	7,667	23,06	700,52	-6,542	
94,38	7,667	21,45	700,55	-6,542	
94,40	7,666	21,15	700,18	-6,542	
94,42	7,666	22,08	699,77	-6,542	
94,44	7,666	22,65	700,04	-6,542	
94,46	7,667	21,95	700,71	-6,543	
94,48	7,667	21,05	700,84	-6,543	
94,50	7,667	20,58	700,49	-6,543	
94,52	7,666	19,46	699,99	-6,542	
94,54	7,666	20,22	699,76	-6,542	
94,56	7,666	21,80	700,26	-6,543	
94,58	7,667	21,57	700,66	-6,543	
94,60	7,667	20,91	700,51	-6,543	
94,62	7,666	20,79	700,04	-6,543	
94,64	7,666	21,36	699,82	-6,543	
94,66	7,667	20,59	700,52	-6,544	
94,68	7,667	19,10	701,11	-6,544	
94,70	7,667	17,74	700,99	-6,544	
94,72	7,666	16,12	700,53	-6,544	
94,74	7,666	14,96	700,03	-6,543	
94,76	7,666	18,32	699,75	-6,543	
94,78	7,666	21,79	700,09	-6,544	
94,80	7,667	21,78	700,41	-6,544	
94,82	7,667	21,54	700,26	-6,544	
94,84	7,666	23,08	699,84	-6,543	
94,86	7,666	24,08	699,89	-6,544	
94,88	7,667	21,81	700,65	-6,544	
94,90	7,667	20,14	701,04	-6,545	
94,92	7,667	18,97	700,83	-6,544	
94,94	7,666	17,89	700,35	-6,544	
94,96	7,666	17,83	699,84	-6,544	
94,98	7,666	21,94	699,36	-6,543	
95,00	7,666	28,39	698,91	-6,543	
95,02	7,666	34,50	698,47	-6,543	
95,04	7,666	39,62	698,03	-6,543	
95,06	7,666	44,68	697,59	-6,543	
95,08	7,666	49,53	697,12	-6,543	
95,10	7,666	53,60	696,64	-6,543	
95,12	7,666	57,71	696,15	-6,543	
95,14	7,666	61,64	695,64	-6,543	
95,16	7,666	65,13	695,10	-6,543	
95,18	7,666	67,83	694,55	-6,543	
95,20	7,666	70,54	693,99	-6,543	
95,22	7,666	73,60	693,44	-6,543	
95,24	7,666	76,50	692,89	-6,543	
95,26	7,666	78,99	692,34	-6,543	
95,28	7,666	81,23	691,80	-6,543	
95,30	7,666	83,42	691,26	-6,543	
95,32	7,666	85,65	690,73	-6,543	
95,34	7,666	87,29	690,14	-6,543	
95,36	7,666	88,44	689,53	-6,544	
95,38	7,666	90,02	688,92	-6,544	
95,40	7,666	91,14	688,33	-6,544	
95,42	7,667	92,54	687,74	-6,544	
95,44	7,667	93,92	687,13	-6,544	
95,46	7,667	94,54	686,52	-6,544	
95,48	7,667	94,70	685,92	-6,545	
95,50	7,667	95,90	685,33	-6,545	
95,52	7,666	97,32	684,72	-6,545	
95,54	7,666	97,88	684,09	-6,545	
95,56	7,666	98,04	683,45	-6,545	
95,58	7,666	98,10	682,85	-6,545	
95,60	7,666	98,11	682,25	-6,546	
95,62	7,666	98,15	681,65	-6,546	
95,64	7,666	99,32	681,05	-6,546	
95,66	7,666	100,79	680,45	-6,546	
95,68	7,666	101,40	679,86	-6,546	
95,70	7,666	101,44	679,25	-6,547	
95,72	7,666	100,80	678,64	-6,547	
95,74	7,666	99,22	678,03	-6,547	
95,76	7,666	98,21	677,44	-6,547	
95,78	7,666	97,97	676,84	-6,548	
95,80	7,666	98,00	676,22	-6,548	
95,82	7,666	98,00	675,54	-6,548	
95,84	7,666	97,86	674,85	-6,549	
95,86	7,666	96,66	674,15	-6,549	
95,88	7,666	95,25	673,49	-6,549	
95,90	7,666	94,60	672,84	-6,549	
95,92	7,666	93,95	672,21	-6,550	
95,94	7,666	92,50	671,63	-6,550	
95,96	7,666	91,38	671,04	-6,550	
95,98	7,666	89,90	670,41	-6,551	
96,00	7,666	88,48	669,70	-6,551	
96,02	7,666	87,36	669,01	-6,551	
96,04	7,666	85,86	668,38	-6,551	
96,06	7,666	84,27	667,78	-6,552	
96,08	7,666	82,43	667,17	-6,552	
96,10	7,666	81,30	666,58	-6,553	
96,12	7,666	79,88	665,99	-6,553	
96,14	7,666	78,47	665,37	-6,553	
96,16	7,666	77,27	664,74	-6,554	
96,18	7,666	75,71	664,11	-6,554	
96,20	7,666	74,70	663,48	-6,554	
96,22	7,666	73,31	662,86	-6,554	
96,24	7,666	71,82	662,25	-6,555	
96,26	7,666	70,64	661,63	-6,555	
96,28	7,666	69,08	661,01	-6,555	
96,30	7,666	68,04	660,39	-6,556	
96,32	7,666	67,18	659,77	-6,556	
96,34	7,666	65,68	659,15	-6,556	
96,36	7,666	64,68	658,53	-6,557	
96,38	7,666	64,37	657,92	-6,557	
96,40	7,666	64,24	657,31	-6,557	
96,42	7,666	63,12	656,68	-6,557	
96,44	7,666	61,74	656,07	-6,558	
96,46	7,666	61,14	655,45	-6,558	
96,48	7,666	61,04	654,84	-6,558	
96,50	7,666	61,03	654,24	-6,558	
96,52	7,666	61,03	653,64	-6,558	
96,54	7,666	61,02	653,06	-6,559	
96,56	7,666	61,52	652,45	-6,559	
96,58	7,666	62,97	651,83	-6,559	
96,60	7,666	64,06	651,20	-6,559	
96,62	7,666	64,47	650,56	-6,559	
96,64	7,666	64,55	649,94	-6,560	
96,66	7,666	64,53	649,35	-6,560	
96,68	7,666	64,56	648,77	-6,560	
96,70	7,666	65,11	648,18	-6,560	
96,72	7,666	66,55	647,55	-6,560	
96,74	7,666	67,59	646,92	-6,561	
96,76	7,666	67,90	646,34	-6,561	
96,78	7,666	68,40	645,79	-6,561	
96,80	7,666	69,85	645,24	-6,561	
96,82	7,666	70,93	644,66	-6,561	
96,84	7,666	71,38	644,05	-6,561	
96,86	7,666	72,50	643,45	-6,561	
96,88	7,666	73,87	642,88	-6,562	
96,90	7,666	74,99	642,32	-6,562	
96,92	7,666	76,58	641,74	-6,562	
96,94	7,666	77,64	641,13	-6,562	
96,96	7,666	78,47	640,53	-6,562	
96,98	7,666	80,02	639,92	-6,562	
97,00	7,666	81,18	639,30	-6,562	
97,02	7,666	82,58	638,69	-6,563	
97,04	7,666	83,94	638,08	-6,563	
97,06	7,666	85,10	637,47	-6,563	
97,08	7,666	86,65	636,89	-6,563	
97,10	7,666	87,78	636,29	-6,563	
97,12	7,666	89,26	635,70	-6,563	
97,14	7,666	90,69	635,13	-6,563	
97,16	7,666	91,84	634,59	-6,563	
97,18	7,666	93,46	634,06	-6,564	
97,20	7,667	94,56	633,49	-6,564	
97,22	7,667	95,99	632,89	-6,564	
97,24	7,667	97,45	632,32	-6,564	
97,26	7,666	98,65	631,78	-6,564	
97,28	7,666	100,25	631,27	-6,564	
97,30	7,666	101,37	630,71	-6,564	
97,32	7,666	102,86	630,10	-6,564	
97,34	7,666	104,30	629,52	-6,564	
97,36	7,666	104,96	628,99	-6,565	
97,38	7,666	106,23	628,48	-6,565	
97,40	7,666	107,61	627,95	-6,565	
97,42	7,666	108,31	627,38	-6,565	
97,44	7,666	109,60	626,80	-6,565	
97,46	7,666	111,12	626,26	-6,565	
97,48	7,666	112,88	625,73	-6,565	
97,50	7,666	114,41	625,17	-6,566	
97,52	7,666	115,10	624,62	-6,566	
97,54	7,666	116,36	624,09	-6,566	
97,56	7,666	117,73	623,55	-6,566	
97,58	7,666	118,85	622,99	-6,566	
97,60	7,666	120,51	622,43	-6,566	
97,62	7,666	121,68	621,88	-6,566	
97,64	7,666	123,11	621,32	-6,567	
97,66	7,666	124,45	620,76	-6,567	
97,68	7,666	125,46	620,20	-6,567	
97,70	7,666	126,98	619,67	-6,567	
97,72	7,666	128,15	619,12	-6,567	
97,74	7,666	129,66	618,56	-6,567	
97,76	7,666	131,09	618,00	-6,567	
97,78	7,666	132,19	617,46	-6,567	
97,80	7,666	133,78	616,91	-6,568	
97,82	7,666	134,82	616,37	-6,568	
97,84	7,666	135,61	615,83	-6,568	
97,86	7,666	137,15	615,30	-6,568	
97,88	7,666	138,19	614,75	-6,568	
97,90	7,666	138,97	614,18	-6,568	
97,92	7,666	140,45	613,64	-6,568	
97,94	7,666	141,44	613,13	-6,568	
97,96	7,666	141,80	612,62	-6,569	
97,98	7,666	143,00	612,11	-6,569	
98,00	7,666	144,38	611,60	-6,569	
98,02	7,666	145,01	611,08	-6,569	
98,04	7,666	145,69	610,53	-6,569	
98,06	7,666	147,16	609,97	-6,569	
98,08	7,666	148,14	609,40	-6,569	
98,10	7,666	148,95	608,86	-6,570	
98,12	7,666	150,48	608,31	-6,570	
98,14	7,666	151,53	607,76	-6,570	
98,16	7,666	151,91	607,23	-6,570	
98,18	7,666	153,11	606,69	-6,570	
98,20	7,666	154,58	606,15	-6,570	
98,22	7,666	155,34	605,60	-6,571	
98,24	7,666	156,55	605,05	-6,571	
98,26	7,666	157,94	604,51	-6,571	
98,28	7,666	158,56	603,97	-6,571	
98,30	7,666	159,08	603,43	-6,571	
98,32	7,666	160,48	602,86	-6,571	
98,34	7,666	161,58	602,28	-6,572	
98,36	7,666	162,47	601,72	-6,572	
98,38	7,666	164,01	601,14	-6,572	
98,40	7,666	165,01	600,58	-6,572	
98,42	7,666	165,76	600,00	-6,572	
98,44	7,666	167,20	599,45	-6,572	
98,46	7,666	168,20	598,94	-6,572	
98,48	7,666	168,62	598,42	-6,572	
98,50	7,666	169,82	597,88	-6,573	
98,52	7,666	171,24	597,34	-6,573	
98,54	7,666	171,86	596,80	-6,573	
98,56	7,666	172,48	596,27	-6,573	
98,58	7,666	173,94	595,71	-6,573	
98,60	7,666	174,97	595,14	-6,573	
98,62	7,666	175,38	594,58	-6,574	
98,64	7,666	176,49	594,02	-6,574	
98,66	7,666	177,91	593,49	-6,574	
98,68	7,666	178,61	592,96	-6,574	
98,70	7,666	178,80	592,42	-6,573	
98,72	7,666	179,92	591,90	-6,569	
98,74	7,666	181,41	591,39	-6,566	
98,76	7,666	182,00	590,86	-6,565	
98,78	7,666	182,55	590,29	-6,566	
98,80	7,666	183,98	589,71	-6,566	
98,82	7,666	185,04	589,16	-6,566	
98,84	7,666	185,39	588,65	-6,566	
98,86	7,666	185,50	588,17	-6,566	
98,88	7,666	186,66	587,67	-6,567	
98,90	7,666	188,08	587,16	-6,567	
98,92	7,666	188,73	586,65	-6,567	
98,94	7,666	188,95	586,11	-6,570	
98,96	7,666	190,07	585,54	-6,574	
98,98	7,666	191,44	584,98	-6,576	
99,00	7,666	192,05	584,46	-6,577	
99,02	7,666	192,24	583,96	-6,577	
99,04	7,666	193,32	583,43	-6,577	
99,06	7,666	194,76	582,92	-6,577	
99,08	7,666	195,45	582,43	-6,577	
99,10	7,666	196,06	581,95	-6,578	
99,12	7,666	197,51	581,45	-6,578	
99,14	7,666	198,54	580,94	-6,578	
99,16	7,666	198,89	580,44	-6,578	
99,18	7,666	199,44	579,94	-6,578	
99,20	7,666	200,81	579,41	-6,578	
99,22	7,666	201,81	578,88	-6,578	
99,24	7,666	202,11	578,37	-6,579	
99,26	7,666	202,21	577,86	-6,579	
99,28	7,666	203,32	577,35	-6,579	
99,30	7,666	204,81	576,82	-6,579	
99,32	7,666	205,46	576,30	-6,579	
99,34	7,666	205,57	575,80	-6,579	
99,36	7,666	206,59	575,31	-6,580	
99,38	7,666	207,97	574,81	-6,580	
99,40	7,666	208,64	574,31	-6,580	
99,42	7,666	208,84	573,79	-6,580	
99,44	7,666	208,85	573,25	-6,580	
99,46	7,666	209,33	572,72	-6,580	
99,48	7,666	210,80	572,21	-6,581	
99,50	7,666	211,86	571,74	-6,581	
99,52	7,666	212,29	571,27	-6,581	
99,54	7,666	213,45	570,76	-6,581	
99,56	7,666	214,88	570,23	-6,581	
99,58	7,666	215,62	569,74	-6,581	
99,60	7,666	215,85	569,25	-6,582	
99,62	7,666	216,88	568,72	-6,582	
99,64	7,666	218,21	568,18	-6,582	
99,66	7,666	218,83	567,63	-6,582	
99,68	7,666	218,91	567,06	-6,582	
99,70	7,666	219,42	566,53	-6,582	
99,72	7,666	220,91	566,00	-6,582	
99,74	7,666	221,99	565,47	-6,582	
99,76	7,666	222,84	564,94	-6,582	
99,78	7,666	224,34	564,42	-6,583	
99,80	7,666	225,38	563,93	-6,583	
99,82	7,666	225,71	563,43	-6,583	
99,84	7,666	225,77	562,95	-6,583	
99,86	7,666	226,82	562,46	-6,583	
99,88	7,666	228,25	561,98	-6,583	
99,90	7,666	228,93	561,48	-6,584	
99,92	7,666	229,60	560,96	-6,584	
99,94	7,666	231,12	560,44	-6,584	
99,96	7,666	232,13	559,93	-6,584	
99,98	7,666	232,43	559,42	-6,584	
100,00	7,666	232,44	558,91	-6,584	
100,02	7,666	232,42	558,41	-6,584	
100,04	7,666	232,95	557,93	-6,585	
100,06	7,666	234,43	557,45	-6,585	
100,08	7,666	235,46	556,97	-6,585	
100,10	7,666	235,78	556,50	-6,585	
100,12	7,666	235,81	556,04	-6,585	
100,14	7,666	235,87	555,58	-6,585	
100,16	7,666	236,95	555,12	-6,585	
100,18	7,666	238,34	554,65	-6,586	
100,20	7,666	239,05	554,17	-6,586	
100,22	7,666	239,17	553,71	-6,586	
100,24	7,666	239,65	553,25	-6,586	
100,26	7,666	241,15	552,77	-6,586	
100,28	7,666	242,21	552,29	-6,586	
100,30	7,666	242,48	551,81	-6,586	
100,32	7,666	242,45	551,34	-6,586	
100,34	7,666	242,52	550,87	-6,587	
100,36	7,666	243,58	550,42	-6,587	
100,38	7,666	245,03	549,98	-6,587	
100,40	7,666	245,76	549,54	-6,587	
100,42	7,666	245,96	549,10	-6,587	
100,44	7,666	246,99	548,64	-6,587	
100,46	7,666	248,39	548,18	-6,587	
100,48	7,666	249,09	547,74	-6,587	
100,50	7,666	249,21	547,29	-6,587	
100,52	7,666	249,21	546,85	-6,588	
100,54	7,666	250,31	546,41	-6,588	
100,56	7,666	251,80	545,96	-6,588	
100,58	7,666	252,47	545,49	-6,588	
100,60	7,666	252,59	545,06	-6,588	
100,62	7,666	252,60	544,63	-6,588	
100,64	7,666	252,62	544,20	-6,588	
100,66	7,666	253,70	543,74	-6,589	
100,68	7,666	255,09	543,25	-6,589	
100,70	7,666	255,72	542,77	-6,589	
100,72	7,666	255,84	542,32	-6,589	
100,74	7,666	256,29	541,89	-6,589	
100,76	7,666	257,77	541,45	-6,589	
100,78	7,666	258,88	540,99	-6,589	
100,80	7,666	259,22	540,52	-6,589	
100,82	7,666	259,19	540,07	-6,589	
100,84	7,666	259,17	539,62	-6,590	
100,86	7,666	259,70	539,18	-6,590	
100,88	7,666	261,25	538,73	-6,590	
100,90	7,666	262,37	538,26	-6,590	
100,92	7,666	262,67	537,79	-6,590	
100,94	7,666	263,11	537,31	-6,590	
100,96	7,666	264,52	536,85	-6,590	
100,98	7,666	265,60	536,39	-6,590	
101,00	7,666	265,95	535,92	-6,591	
101,02	7,666	265,97	535,44	-6,591	
101,04	7,666	266,43	534,98	-6,591	
101,06	7,666	267,86	534,52	-6,591	
101,08	7,666	268,89	534,07	-6,591	
101,10	7,666	269,21	533,61	-6,591	
101,12	7,666	269,22	533,17	-6,592	
101,14	7,666	269,67	532,74	-6,592	
101,16	7,666	271,13	532,30	-6,592	
101,18	7,666	272,22	531,84	-6,592	
101,20	7,666	272,52	531,38	-6,592	
101,22	7,666	272,62	530,90	-6,592	
101,24	7,666	273,73	530,42	-6,593	
101,26	7,666	275,23	529,95	-6,593	
101,28	7,666	275,91	529,47	-6,593	
101,30	7,666	276,08	528,99	-6,593	
101,32	7,666	276,17	528,54	-6,593	
101,34	7,666	277,24	528,09	-6,593	
101,36	7,666	278,68	527,65	-6,593	
101,38	7,666	279,35	527,23	-6,594	
101,40	7,666	279,47	526,83	-6,594	
101,42	7,666	279,51	526,41	-6,594	
101,44	7,666	280,00	525,99	-6,594	
101,46	7,666	281,45	525,56	-6,594	
101,48	7,666	282,52	525,10	-6,594	
101,50	7,666	282,86	524,65	-6,595	
101,52	7,666	282,89	524,22	-6,595	
101,54	7,666	282,86	523,81	-6,595	
101,56	7,666	282,96	523,41	-6,595	
101,58	7,666	284,09	523,01	-6,595	
101,60	7,666	285,50	522,58	-6,595	
101,62	7,666	286,15	522,13	-6,595	
101,64	7,666	286,24	521,69	-6,596	
101,66	7,666	286,17	521,28	-6,596	
101,68	7,666	286,61	520,90	-6,596	
101,70	7,666	288,13	520,51	-6,596	
101,72	7,666	289,23	520,10	-6,596	
101,74	7,666	289,56	519,68	-6,597	
101,76	7,666	289,60	519,25	-6,597	
101,78	7,666	289,68	518,82	-6,597	