Zeit  1 - Standardmessrate [s]	ZwickWeg [mm]	ZwickKraft [N]	Pyrometer [°C]	Maytec [mm]
0	-0,1100	151,60	150,03	-0,03165	
0,02000	-0,1100	152,89	150,02	-0,03173	
0,04000	-0,1100	153,35	150,02	-0,03186	
0,06000	-0,1100	153,35	150,02	-0,03195	
0,08000	-0,1100	153,31	150,03	-0,03195	
0,1000	-0,1100	153,34	150,03	-0,03182	
0,1200	-0,1100	153,36	150,03	-0,03170	
0,1400	-0,1100	153,37	150,04	-0,03167	
0,1600	-0,1100	153,41	150,04	-0,03170	
0,1800	-0,1100	153,44	150,03	-0,03184	
0,2000	-0,1100	153,46	150,03	-0,03195	
0,2200	-0,1100	153,46	150,03	-0,03194	
0,2400	-0,1100	153,40	150,03	-0,03194	
0,2600	-0,1101	153,37	150,03	-0,03188	
0,2800	-0,1103	153,35	150,03	-0,03174	
0,3000	-0,1106	153,34	150,02	-0,03169	
0,3200	-0,1107	153,31	150,02	-0,03175	
0,3400	-0,1107	153,29	150,02	-0,03183	
0,3600	-0,1107	153,29	150,03	-0,03186	
0,3800	-0,1107	153,27	150,03	-0,03190	
0,4000	-0,1107	153,17	150,03	-0,03187	
0,4200	-0,1107	153,16	150,03	-0,03176	
0,4400	-0,1107	153,16	150,04	-0,03168	
0,4600	-0,1107	153,14	150,04	-0,03161	
0,4800	-0,1107	153,19	150,03	-0,03160	
0,5000	-0,1106	153,28	150,03	-0,03179	
0,5200	-0,1107	153,37	150,03	-0,03194	
0,5400	-0,1107	153,39	150,03	-0,03198	
0,5600	-0,1107	153,40	150,02	-0,03192	
0,5800	-0,1107	153,38	150,02	-0,03180	
0,6000	-0,1107	153,35	150,02	-0,03172	
0,6200	-0,1107	153,30	150,03	-0,03169	
0,6400	-0,1107	153,28	150,03	-0,03174	
0,6600	-0,1107	153,32	150,03	-0,03188	
0,6800	-0,1107	153,31	150,03	-0,03194	
0,7000	-0,1107	153,01	150,03	-0,03194	
0,7200	-0,1107	151,70	150,04	-0,03188	
0,7400	-0,1107	150,48	150,03	-0,03178	
0,7600	-0,1107	150,20	150,03	-0,03170	
0,7800	-0,1107	151,42	150,03	-0,03172	
0,8000	-0,1107	152,69	150,03	-0,03178	
0,8200	-0,1107	153,19	150,03	-0,03189	
0,8400	-0,1107	153,26	150,03	-0,03196	
0,8600	-0,1107	153,23	150,02	-0,03195	
0,8800	-0,1107	153,23	150,02	-0,03186	
0,9000	-0,1107	153,05	150,02	-0,03173	
0,9200	-0,1107	151,80	150,03	-0,03169	
0,9400	-0,1107	150,51	150,03	-0,03164	
0,9600	-0,1106	150,71	150,04	-0,03163	
0,9800	-0,1106	151,59	150,03	-0,03180	
1,000	-0,1107	152,31	150,03	-0,03196	
1,020	-0,1107	152,97	150,03	-0,03195	
1,040	-0,1107	153,25	150,03	-0,03185	
1,060	-0,1107	152,54	150,03	-0,03174	
1,080	-0,1107	151,05	150,03	-0,03162	
1,100	-0,1107	150,17	150,04	-0,03161	
1,120	-0,1107	149,90	150,03	-0,03166	
1,140	-0,1107	149,90	150,03	-0,03185	
1,160	-0,1107	149,93	150,02	-0,03199	
1,180	-0,1107	149,96	150,02	-0,03200	
1,200	-0,1107	150,00	150,02	-0,03191	
1,220	-0,1107	149,99	150,02	-0,03180	
1,240	-0,1107	149,95	150,03	-0,03171	
1,260	-0,1107	149,88	150,03	-0,03171	
1,280	-0,1107	149,90	150,03	-0,03174	
1,300	-0,1107	149,97	150,03	-0,03185	
1,320	-0,1107	150,73	150,03	-0,03195	
1,340	-0,1106	152,18	150,03	-0,03194	
1,360	-0,1106	153,08	150,03	-0,03185	
1,380	-0,1106	153,32	150,03	-0,03175	
1,400	-0,1107	153,28	150,03	-0,03172	
1,420	-0,1106	153,22	150,02	-0,03175	
1,440	-0,1106	153,22	150,02	-0,03185	
1,460	-0,1107	153,04	150,02	-0,03194	
1,480	-0,1107	152,53	150,03	-0,03197	
1,500	-0,1107	152,78	150,03	-0,03196	
1,520	-0,1107	153,14	150,03	-0,03192	
1,540	-0,1107	153,28	150,03	-0,03180	
1,560	-0,1107	153,39	150,03	-0,03175	
1,580	-0,1107	153,44	150,03	-0,03176	
1,600	-0,1107	153,41	150,03	-0,03182	
1,620	-0,1107	153,41	150,03	-0,03185	
1,640	-0,1107	153,34	150,02	-0,03185	
1,660	-0,1107	153,32	150,02	-0,03188	
1,680	-0,1107	153,36	150,02	-0,03183	
1,700	-0,1107	153,37	150,02	-0,03171	
1,720	-0,1107	153,41	150,03	-0,03163	
1,740	-0,1107	153,42	150,03	-0,03168	
1,760	-0,1107	153,38	150,03	-0,03190	
1,780	-0,1107	153,32	150,03	-0,03198	
1,800	-0,1107	153,31	150,03	-0,03195	
1,820	-0,1107	153,34	150,03	-0,03191	
1,840	-0,1106	153,36	150,03	-0,03187	
1,860	-0,1106	153,33	150,02	-0,03176	
1,880	-0,1106	153,26	150,02	-0,03171	
1,900	-0,1107	153,24	150,02	-0,03177	
1,920	-0,1107	153,25	150,03	-0,03190	
1,940	-0,1107	153,25	150,03	-0,03201	
1,960	-0,1107	153,08	150,03	-0,03199	
1,980	-0,1107	151,83	150,03	-0,03188	
2,000	-0,1107	151,30	150,03	-0,03184	
2,020	-0,1107	152,35	150,03	-0,03174	
2,040	-0,1107	153,18	150,03	-0,03174	
2,060	-0,1107	153,36	150,02	-0,03185	
2,080	-0,1107	153,28	150,02	-0,03195	
2,100	-0,1107	152,53	150,02	-0,03193	
2,120	-0,1107	151,09	150,02	-0,03186	
2,140	-0,1107	150,22	150,03	-0,03176	
2,160	-0,1107	150,01	150,03	-0,03169	
2,180	-0,1107	150,00	150,03	-0,03176	
2,200	-0,1107	149,97	150,03	-0,03180	
2,220	-0,1107	150,19	150,04	-0,03188	
2,240	-0,1107	151,51	150,04	-0,03193	
2,260	-0,1107	152,82	150,04	-0,03191	
2,280	-0,1107	153,13	150,04	-0,03188	
2,300	-0,1106	151,82	150,03	-0,03181	
2,320	-0,1107	150,39	150,03	-0,03177	
2,340	-0,1107	149,90	150,03	-0,03177	
2,360	-0,1107	149,89	150,03	-0,03178	
2,380	-0,1107	149,95	150,03	-0,03186	
2,400	-0,1106	150,66	150,02	-0,03191	
2,420	-0,1106	151,41	150,02	-0,03192	
2,440	-0,1107	150,80	150,02	-0,03185	
2,460	-0,1107	150,13	150,03	-0,03173	
2,480	-0,1107	149,94	150,03	-0,03163	
2,500	-0,1107	149,92	150,03	-0,03163	
2,520	-0,1107	150,07	150,04	-0,03176	
2,540	-0,1107	151,38	150,04	-0,03186	
2,560	-0,1107	152,74	150,04	-0,03185	
2,580	-0,1107	153,24	150,03	-0,03180	
2,600	-0,1107	152,64	150,04	-0,03177	
2,620	-0,1107	151,19	150,04	-0,03170	
2,640	-0,1107	150,27	150,04	-0,03163	
2,660	-0,1108	150,73	150,07	-0,03166	
2,680	-0,1112	151,48	150,18	-0,03240	
2,700	-0,1105	123,69	149,97	-0,03336	
2,720	-0,1104	78,39	149,94	-0,03335	
2,740	-0,1106	37,72	150,00	-0,03290	
2,760	-0,1098	9,382	150,03	-0,03260	
2,780	-0,1058	-4,308	150,03	-0,03244	
2,800	-0,09869	13,97	150,02	-0,03240	
2,820	-0,09219	58,02	150,02	-0,03244	
2,840	-0,08805	101,61	150,03	-0,03251	
2,860	-0,08584	133,48	150,03	-0,03258	
2,880	-0,08485	151,89	150,03	-0,03256	
2,900	-0,08478	160,13	150,03	-0,03245	
2,920	-0,08500	162,81	150,04	-0,03234	
2,940	-0,08524	163,08	150,03	-0,03225	
2,960	-0,08556	161,78	150,03	-0,03223	
2,980	-0,08579	160,43	150,04	-0,03229	
3,000	-0,08609	159,78	150,04	-0,03240	
3,020	-0,08636	158,48	150,03	-0,03246	
3,040	-0,08662	157,11	150,04	-0,03240	
3,060	-0,08695	155,88	150,03	-0,03232	
3,080	-0,08712	154,33	150,03	-0,03226	
3,100	-0,08715	153,50	150,03	-0,03220	
3,120	-0,08713	153,33	150,03	-0,03217	
3,140	-0,08713	153,35	150,03	-0,03225	
3,160	-0,08714	153,30	150,02	-0,03234	
3,180	-0,08716	153,26	150,02	-0,03240	
3,200	-0,08717	153,23	150,03	-0,03249	
3,220	-0,08730	153,23	150,03	-0,03242	
3,240	-0,08760	153,29	150,03	-0,03230	
3,260	-0,08779	153,30	150,03	-0,03222	
3,280	-0,08784	153,26	150,03	-0,03222	
3,300	-0,08785	153,27	150,04	-0,03232	
3,320	-0,08786	153,17	150,03	-0,03243	
3,340	-0,08786	153,18	150,03	-0,03247	
3,360	-0,08785	153,28	150,03	-0,03240	
3,380	-0,08783	153,30	150,03	-0,03228	
3,400	-0,08780	153,26	150,03	-0,03217	
3,420	-0,08779	153,29	150,03	-0,03211	
3,440	-0,08781	153,32	150,02	-0,03213	
3,460	-0,08782	153,24	150,02	-0,03220	
3,480	-0,08783	153,26	150,02	-0,03228	
3,500	-0,08783	153,32	150,03	-0,03238	
3,520	-0,08782	153,28	150,03	-0,03243	
3,540	-0,08783	153,23	150,03	-0,03236	
3,560	-0,08784	153,21	150,03	-0,03231	
3,580	-0,08783	153,26	150,03	-0,03227	
3,600	-0,08782	153,25	150,03	-0,03224	
3,620	-0,08782	153,22	150,03	-0,03228	
3,640	-0,08786	153,22	150,03	-0,03237	
3,660	-0,08814	153,18	150,02	-0,03241	
3,680	-0,08842	153,17	150,02	-0,03242	
3,700	-0,08852	153,21	150,02	-0,03235	
3,720	-0,08853	153,25	150,02	-0,03226	
3,740	-0,08854	153,27	150,03	-0,03217	
3,760	-0,08854	153,29	150,04	-0,03224	
3,780	-0,08852	153,22	150,03	-0,03240	
3,800	-0,08852	153,23	150,03	-0,03244	
3,820	-0,08851	153,25	150,03	-0,03240	
3,840	-0,08851	153,20	150,03	-0,03231	
3,860	-0,08851	153,15	150,03	-0,03222	
3,880	-0,08850	153,11	150,03	-0,03213	
3,900	-0,08848	153,12	150,02	-0,03215	
3,920	-0,08848	153,22	150,02	-0,03223	
3,940	-0,08849	153,31	150,02	-0,03236	
3,960	-0,08849	153,30	150,02	-0,03236	
3,980	-0,08850	153,32	150,02	-0,03228	
4,000	-0,08851	153,43	150,03	-0,03225	
4,020	-0,08850	153,43	150,03	-0,03218	
4,040	-0,08850	153,40	150,03	-0,03215	
4,060	-0,08851	153,41	150,04	-0,03212	
4,080	-0,08853	153,38	150,04	-0,03219	
4,100	-0,08852	153,30	150,03	-0,03232	
4,120	-0,08851	153,27	150,03	-0,03236	
4,140	-0,08851	152,56	150,03	-0,03237	
4,160	-0,08850	151,06	150,02	-0,03229	
4,180	-0,08850	150,86	150,02	-0,03218	
4,200	-0,08850	152,00	150,02	-0,03213	
4,220	-0,08849	151,81	150,02	-0,03221	
4,240	-0,08849	151,97	150,03	-0,03232	
4,260	-0,08853	152,58	150,03	-0,03239	
4,280	-0,08878	151,97	150,03	-0,03239	
4,300	-0,08905	152,05	150,03	-0,03233	
4,320	-0,08917	152,84	150,03	-0,03222	
4,340	-0,08917	153,27	150,03	-0,03216	
4,360	-0,08916	153,39	150,03	-0,03220	
4,380	-0,08916	153,34	150,03	-0,03225	
4,400	-0,08916	153,29	150,03	-0,03235	
4,420	-0,08917	153,35	150,03	-0,03243	
4,440	-0,08917	153,40	150,02	-0,03235	
4,460	-0,08916	152,67	150,02	-0,03225	
4,480	-0,08916	151,78	150,02	-0,03217	
4,500	-0,08915	152,16	150,03	-0,03208	
4,520	-0,08914	151,59	150,03	-0,03211	
4,540	-0,08913	151,17	150,03	-0,03230	
4,560	-0,08915	152,21	150,03	-0,03241	
4,580	-0,08916	152,42	150,03	-0,03236	
4,600	-0,08914	151,32	150,04	-0,03222	
4,620	-0,08913	151,62	150,03	-0,03213	
4,640	-0,08914	152,02	150,03	-0,03208	
4,660	-0,08915	151,24	150,03	-0,03207	
4,680	-0,08916	151,71	150,03	-0,03209	
4,700	-0,08914	152,82	150,03	-0,03221	
4,720	-0,08913	153,37	150,02	-0,03234	
4,740	-0,08915	153,47	150,02	-0,03238	
4,760	-0,08915	153,43	150,02	-0,03232	
4,780	-0,08914	153,39	150,03	-0,03216	
4,800	-0,08915	153,37	150,03	-0,03210	
4,820	-0,08914	153,33	150,03	-0,03219	
4,840	-0,08912	153,29	150,03	-0,03229	
4,860	-0,08912	153,31	150,03	-0,03232	
4,880	-0,08914	153,33	150,03	-0,03233	
4,900	-0,08915	153,29	150,03	-0,03229	
4,920	-0,08915	153,27	150,03	-0,03225	
4,940	-0,08917	153,29	150,03	-0,03213	
4,960	-0,08943	153,28	150,03	-0,03205	
4,980	-0,08971	153,33	150,02	-0,03212	
5,000	-0,08982	153,38	150,02	-0,03223	
5,020	-0,08982	152,65	150,02	-0,03227	
5,040	-0,08981	151,13	150,02	-0,03229	
5,060	-0,08982	150,96	150,03	-0,03229	
5,080	-0,08984	152,11	150,03	-0,03225	
5,100	-0,08990	152,27	150,05	-0,03216	
5,120	-0,09003	152,26	150,08	-0,03217	
5,140	-0,08996	145,29	150,06	-0,03226	
5,160	-0,08986	132,87	150,03	-0,03241	
5,180	-0,08983	120,38	150,02	-0,03257	
5,200	-0,08965	108,18	150,02	-0,03264	
5,220	-0,08890	96,17	150,02	-0,03267	
5,240	-0,08746	90,23	150,03	-0,03261	
5,260	-0,08580	90,04	150,03	-0,03250	
5,280	-0,08409	92,43	150,03	-0,03250	
5,300	-0,08243	95,61	150,03	-0,03253	
5,320	-0,08072	98,94	150,03	-0,03255	
5,340	-0,07909	102,34	150,03	-0,03261	
5,360	-0,07765	105,01	150,02	-0,03268	
5,380	-0,07633	106,17	150,02	-0,03269	
5,400	-0,07524	106,32	150,02	-0,03257	
5,420	-0,07417	105,03	150,02	-0,03244	
5,440	-0,07294	103,58	150,03	-0,03234	
5,460	-0,07162	102,81	150,03	-0,03236	
5,480	-0,07028	102,14	150,03	-0,03250	
5,500	-0,06894	102,34	150,03	-0,03263	
5,520	-0,06759	102,78	150,03	-0,03274	
5,540	-0,06625	103,02	150,03	-0,03260	
5,560	-0,06491	103,05	150,03	-0,03236	
5,580	-0,06358	102,99	150,02	-0,03229	
5,600	-0,06224	102,95	150,02	-0,03236	
5,620	-0,06089	102,27	150,02	-0,03249	
5,640	-0,05956	100,74	150,02	-0,03260	
5,660	-0,05823	99,79	150,03	-0,03269	
5,680	-0,05689	99,53	150,03	-0,03269	
5,700	-0,05555	99,53	150,03	-0,03255	
5,720	-0,05421	99,53	150,03	-0,03245	
5,740	-0,05286	99,48	150,03	-0,03244	
5,760	-0,05150	99,38	150,03	-0,03241	
5,780	-0,05015	99,33	150,03	-0,03248	
5,800	-0,04867	99,37	150,03	-0,03255	
5,820	-0,04701	99,40	150,02	-0,03260	
5,840	-0,04548	99,48	150,02	-0,03260	
5,860	-0,04408	99,45	150,02	-0,03256	
5,880	-0,04273	99,46	150,03	-0,03244	
5,900	-0,04139	99,54	150,03	-0,03231	
5,920	-0,04006	99,57	150,03	-0,03230	
5,940	-0,03874	99,48	150,03	-0,03247	
5,960	-0,03740	99,45	150,03	-0,03262	
5,980	-0,03606	99,49	150,03	-0,03265	
6,000	-0,03471	99,51	150,02	-0,03260	
6,020	-0,03323	99,56	150,02	-0,03248	
6,040	-0,03159	99,60	150,02	-0,03238	
6,060	-0,03006	99,59	150,02	-0,03238	
6,080	-0,02866	99,35	150,03	-0,03237	
6,100	-0,02732	97,96	150,03	-0,03242	
6,120	-0,02599	96,63	150,03	-0,03255	
6,140	-0,02464	96,17	150,03	-0,03255	
6,160	-0,02316	96,09	150,03	-0,03250	
6,180	-0,02152	96,05	150,02	-0,03252	
6,200	-0,01999	96,10	150,02	-0,03249	
6,220	-0,01859	96,18	150,01	-0,03240	
6,240	-0,01725	96,15	150,01	-0,03246	
6,260	-0,01578	96,11	150,02	-0,03264	
6,280	-0,01413	96,10	150,02	-0,03269	
6,300	-0,01259	96,05	150,02	-0,03263	
6,320	-0,01120	96,01	150,02	-0,03255	
6,340	-0,00986	96,08	150,01	-0,03250	
6,360	-0,00848	96,14	150,02	-0,03242	
6,380	-0,00687	96,10	150,02	-0,03243	
6,400	-0,00524	96,04	150,02	-0,03250	
6,420	-0,00379	95,99	150,02	-0,03263	
6,440	-0,00245	96,02	150,02	-0,03265	
6,460	-0,00096	96,03	150,01	-0,03255	
6,480	0,00070	96,03	150,01	-0,03248	
6,500	0,00224	96,03	150,02	-0,03239	
6,520	0,00364	96,06	150,02	-0,03232	
6,540	0,00510	96,07	150,02	-0,03234	
6,560	0,00674	96,06	150,03	-0,03249	
6,580	0,00828	96,02	150,03	-0,03265	
6,600	0,00966	96,01	150,02	-0,03271	
6,620	0,01112	96,06	150,02	-0,03258	
6,640	0,01274	95,93	150,01	-0,03238	
6,660	0,01428	95,28	150,02	-0,03228	
6,680	0,01582	95,33	150,02	-0,03228	
6,700	0,01747	95,72	150,02	-0,03239	
6,720	0,01899	95,95	150,02	-0,03252	
6,740	0,02052	95,98	150,01	-0,03254	
6,760	0,02217	95,96	150,01	-0,03256	
6,780	0,02370	95,88	150,02	-0,03254	
6,800	0,02513	94,65	150,02	-0,03247	
6,820	0,02673	93,22	150,02	-0,03239	
6,840	0,02833	92,62	150,02	-0,03231	
6,860	0,02981	92,59	150,01	-0,03234	
6,880	0,03141	92,71	150,01	-0,03250	
6,900	0,03303	92,69	150,02	-0,03264	
6,920	0,03453	92,62	150,02	-0,03261	
6,940	0,03614	92,63	150,04	-0,03250	
6,960	0,03775	92,67	150,19	-0,03244	
6,980	0,03924	92,66	150,87	-0,03241	
7,000	0,04084	92,60	152,05	-0,03240	
7,020	0,04245	92,59	153,10	-0,03248	
7,040	0,04403	92,45	153,82	-0,03261	
7,060	0,04570	91,22	154,67	-0,03263	
7,080	0,04726	89,91	155,78	-0,03256	
7,100	0,04890	89,39	156,85	-0,03251	
7,120	0,05055	89,31	158,01	-0,03244	
7,140	0,05224	89,47	159,23	-0,03231	
7,160	0,05391	90,08	160,43	-0,03224	
7,180	0,05561	89,91	161,82	-0,03235	
7,200	0,05724	89,47	163,39	-0,03251	
7,220	0,05881	89,29	165,22	-0,03259	
7,240	0,06046	89,23	166,92	-0,03259	
7,260	0,06203	89,27	168,47	-0,03254	
7,280	0,06367	89,30	169,94	-0,03243	
7,300	0,06531	89,25	171,32	-0,03236	
7,320	0,06701	89,28	172,83	-0,03237	
7,340	0,06868	89,31	174,66	-0,03248	
7,360	0,07037	89,32	176,54	-0,03256	
7,380	0,07202	89,35	178,13	-0,03262	
7,400	0,07371	89,34	179,50	-0,03254	
7,420	0,07538	89,36	180,91	-0,03236	
7,440	0,07710	89,42	182,57	-0,03227	
7,460	0,07877	89,42	184,30	-0,03232	
7,480	0,08048	89,37	185,81	-0,03242	
7,500	0,08223	89,32	187,03	-0,03250	
7,520	0,08399	89,31	188,32	-0,03258	
7,540	0,08578	89,31	189,75	-0,03252	
7,560	0,08747	89,32	191,23	-0,03241	
7,580	0,08918	89,33	192,67	-0,03235	
7,600	0,09093	89,33	194,10	-0,03234	
7,620	0,09269	89,39	195,41	-0,03229	
7,640	0,09437	88,75	196,69	-0,03232	
7,660	0,09605	87,21	198,16	-0,03246	
7,680	0,09772	86,22	199,76	-0,03261	
7,700	0,09944	86,01	201,43	-0,03261	
7,720	0,1012	86,01	203,06	-0,03252	
7,740	0,1030	86,07	204,54	-0,03238	
7,760	0,1048	86,10	206,00	-0,03230	
7,780	0,1066	86,08	207,56	-0,03232	
7,800	0,1083	86,06	209,15	-0,03241	
7,820	0,1100	86,06	210,68	-0,03253	
7,840	0,1118	86,02	212,18	-0,03265	
7,860	0,1135	85,95	213,74	-0,03265	
7,880	0,1153	85,97	215,36	-0,03250	
7,900	0,1171	85,99	216,96	-0,03233	
7,920	0,1190	85,98	218,49	-0,03225	
7,940	0,1209	86,02	219,99	-0,03227	
7,960	0,1227	85,97	221,52	-0,03239	
7,980	0,1245	85,86	223,03	-0,03250	
8,000	0,1263	85,21	224,54	-0,03253	
8,020	0,1281	83,76	226,04	-0,03248	
8,040	0,1299	82,87	227,55	-0,03241	
8,060	0,1317	82,59	229,07	-0,03230	
8,080	0,1335	82,58	230,59	-0,03221	
8,100	0,1354	82,71	232,15	-0,03222	
8,120	0,1373	82,77	233,74	-0,03237	
8,140	0,1391	82,77	235,31	-0,03257	
8,160	0,1410	82,73	236,84	-0,03264	
8,180	0,1429	82,71	238,34	-0,03262	
8,200	0,1448	82,67	239,87	-0,03251	
8,220	0,1466	82,62	241,42	-0,03236	
8,240	0,1485	82,67	242,94	-0,03233	
8,260	0,1504	82,73	244,47	-0,03240	
8,280	0,1523	82,76	246,03	-0,03248	
8,300	0,1542	82,74	247,61	-0,03260	
8,320	0,1560	82,70	249,19	-0,03259	
8,340	0,1579	82,72	250,76	-0,03247	
8,360	0,1598	82,71	252,31	-0,03235	
8,380	0,1617	82,72	253,81	-0,03233	
8,400	0,1636	82,14	255,31	-0,03231	
8,420	0,1654	80,62	256,88	-0,03231	
8,440	0,1673	79,54	258,86	-0,03241	
8,460	0,1692	78,97	262,68	-0,03257	
8,480	0,1713	78,70	267,06	-0,03259	
8,500	0,1732	84,10	269,52	-0,03241	
8,520	0,1751	95,86	270,12	-0,03224	
8,540	0,1770	109,71	269,92	-0,03221	
8,560	0,1787	122,95	269,76	-0,03228	
8,580	0,1800	133,75	269,75	-0,03240	
8,600	0,1807	139,35	269,82	-0,03248	
8,620	0,1808	139,24	269,94	-0,03248	
8,640	0,1810	135,64	270,31	-0,03242	
8,660	0,1813	133,46	270,66	-0,03229	
8,680	0,1817	132,32	271,22	-0,03222	
8,700	0,1823	128,80	272,18	-0,03224	
8,720	0,1829	125,60	273,08	-0,03232	
8,740	0,1833	127,06	273,61	-0,03244	
8,760	0,1839	128,46	274,10	-0,03257	
8,780	0,1847	127,49	274,72	-0,03263	
8,800	0,1856	126,37	275,50	-0,03260	
8,820	0,1861	124,69	276,34	-0,03247	
8,840	0,1863	120,90	277,09	-0,03234	
8,860	0,1866	116,72	277,65	-0,03234	
8,880	0,1873	114,46	278,14	-0,03243	
8,900	0,1881	111,99	278,85	-0,03255	
8,920	0,1888	108,03	279,78	-0,03262	
8,940	0,1895	104,23	280,62	-0,03260	
8,960	0,1902	103,08	281,08	-0,03248	
8,980	0,1909	104,68	281,37	-0,03234	
9,000	0,1918	105,77	282,12	-0,03231	
9,020	0,1929	104,53	283,29	-0,03234	
9,040	0,1939	102,32	284,28	-0,03241	
9,060	0,1944	101,81	284,83	-0,03248	
9,080	0,1948	101,56	285,09	-0,03253	
9,100	0,1957	100,47	285,61	-0,03255	
9,120	0,1969	99,20	286,56	-0,03246	
9,140	0,1977	97,41	287,56	-0,03232	
9,160	0,1983	95,76	288,13	-0,03224	
9,180	0,1988	95,63	288,45	-0,03226	
9,200	0,1996	94,81	289,06	-0,03239	
9,220	0,2005	93,14	290,01	-0,03250	
9,240	0,2012	92,21	290,86	-0,03251	
9,260	0,2017	91,87	291,37	-0,03240	
9,280	0,2022	90,04	291,75	-0,03223	
9,300	0,2030	85,50	292,59	-0,03219	
9,320	0,2039	81,82	293,63	-0,03226	
9,340	0,2046	80,81	294,36	-0,03227	
9,360	0,2052	81,21	294,71	-0,03233	
9,380	0,2059	79,92	295,09	-0,03243	
9,400	0,2068	77,81	295,91	-0,03250	
9,420	0,2076	75,25	297,06	-0,03252	
9,440	0,2083	73,21	297,92	-0,03239	
9,460	0,2089	71,77	298,30	-0,03226	
9,480	0,2095	70,55	298,70	-0,03228	
9,500	0,2102	67,90	299,45	-0,03240	
9,520	0,2110	65,85	300,35	-0,03253	
9,540	0,2117	64,88	300,98	-0,03257	
9,560	0,2122	63,70	301,40	-0,03251	
9,580	0,2129	60,36	302,02	-0,03237	
9,600	0,2138	56,84	302,96	-0,03225	
9,620	0,2147	55,23	303,82	-0,03218	
9,640	0,2153	54,34	304,38	-0,03220	
9,660	0,2160	52,13	304,93	-0,03231	
9,680	0,2169	49,50	305,62	-0,03245	
9,700	0,2177	49,29	306,36	-0,03253	
9,720	0,2185	50,52	307,01	-0,03249	
9,740	0,2192	51,03	307,58	-0,03239	
9,760	0,2201	48,72	308,36	-0,03228	
9,780	0,2210	46,15	309,29	-0,03225	
9,800	0,2219	46,65	309,96	-0,03222	
9,820	0,2226	49,08	310,37	-0,03233	
9,840	0,2234	49,37	310,99	-0,03248	
9,860	0,2244	47,01	311,89	-0,03248	
9,880	0,2253	47,21	312,66	-0,03238	
9,900	0,2260	48,42	313,18	-0,03222	
9,920	0,2267	47,93	313,69	-0,03218	
9,940	0,2276	46,08	314,48	-0,03222	
9,960	0,2286	45,12	315,44	-0,03234	
9,980	0,2294	46,17	316,11	-0,03248	
10,00	0,2300	48,61	316,47	-0,03254	
10,02	0,2309	48,10	317,15	-0,03257	
10,04	0,2320	44,80	318,20	-0,03251	
10,06	0,2328	44,21	319,00	-0,03234	
10,08	0,2333	47,21	319,37	-0,03224	
10,10	0,2340	46,65	319,87	-0,03232	
10,12	0,2352	41,91	320,80	-0,03243	
10,14	0,2361	40,81	321,68	-0,03249	
10,16	0,2367	43,74	322,16	-0,03258	
10,18	0,2375	44,51	322,59	-0,03259	
10,20	0,2385	40,87	323,40	-0,03252	
10,22	0,2395	39,02	324,37	-0,03239	
10,24	0,2402	41,15	324,98	-0,03228	
10,26	0,2408	42,93	325,33	-0,03225	
10,28	0,2417	41,67	326,00	-0,03238	
10,30	0,2427	38,78	327,03	-0,03246	
10,32	0,2436	38,07	327,86	-0,03244	
10,34	0,2441	40,77	328,28	-0,03237	
10,36	0,2448	41,36	328,77	-0,03237	
10,38	0,2459	37,98	329,67	-0,03233	
10,40	0,2469	36,67	330,57	-0,03219	
10,42	0,2475	39,23	331,01	-0,03217	
10,44	0,2482	40,40	331,34	-0,03229	
10,46	0,2492	36,74	332,20	-0,03241	
10,48	0,2504	33,43	333,36	-0,03242	
10,50	0,2513	34,94	334,09	-0,03232	
10,52	0,2518	37,44	334,40	-0,03219	
10,54	0,2526	36,20	334,92	-0,03223	
10,56	0,2537	33,18	335,84	-0,03226	
10,58	0,2546	33,51	336,64	-0,03238	
10,60	0,2553	35,66	337,06	-0,03249	
10,62	0,2560	35,19	337,51	-0,03249	
10,64	0,2570	31,35	338,46	-0,03246	
10,66	0,2579	28,16	339,50	-0,03242	
10,68	0,2586	28,80	340,01	-0,03234	
10,70	0,2592	29,11	340,21	-0,03224	
10,72	0,2601	26,07	340,81	-0,03222	
10,74	0,2612	22,85	341,98	-0,03233	
10,76	0,2621	20,68	343,17	-0,03244	
10,78	0,2627	20,01	343,84	-0,03251	
10,80	0,2635	19,97	344,19	-0,03244	
10,82	0,2645	20,88	344,58	-0,03231	
10,84	0,2655	21,72	345,27	-0,03227	
10,86	0,2663	21,98	346,08	-0,03221	
10,88	0,2671	22,22	346,72	-0,03224	
10,90	0,2679	21,43	347,27	-0,03234	
10,92	0,2687	20,32	347,99	-0,03248	
10,94	0,2696	19,63	348,89	-0,03252	
10,96	0,2704	21,67	349,58	-0,03246	
10,98	0,2711	24,97	350,02	-0,03235	
11,00	0,2719	25,51	350,63	-0,03227	
11,02	0,2728	23,30	351,59	-0,03213	
11,04	0,2736	22,65	352,46	-0,03217	
11,06	0,2743	24,43	352,96	-0,03237	
11,08	0,2750	25,45	353,36	-0,03250	
11,10	0,2759	24,36	354,15	-0,03251	
11,12	0,2768	23,72	355,14	-0,03240	
11,14	0,2774	25,84	355,79	-0,03229	
11,16	0,2780	27,76	356,12	-0,03224	
11,18	0,2788	26,85	356,75	-0,03224	
11,20	0,2799	23,63	357,80	-0,03228	
11,22	0,2808	23,66	358,71	-0,03235	
11,24	0,2814	26,99	359,17	-0,03238	
11,26	0,2820	29,35	359,53	-0,03238	
11,28	0,2829	27,60	360,34	-0,03242	
11,30	0,2838	26,16	361,37	-0,03237	
11,32	0,2845	28,59	361,99	-0,03227	
11,34	0,2850	31,58	362,34	-0,03225	
11,36	0,2858	30,17	363,02	-0,03232	
11,38	0,2868	27,97	364,02	-0,03245	
11,40	0,2875	29,79	364,79	-0,03246	
11,42	0,2881	33,18	365,22	-0,03235	
11,44	0,2889	34,30	365,74	-0,03231	
11,46	0,2899	32,62	366,62	-0,03224	
11,48	0,2908	33,69	367,45	-0,03217	
11,50	0,2915	36,64	367,96	-0,03217	
11,52	0,2921	37,69	368,47	-0,03232	
11,54	0,2928	35,89	369,27	-0,03245	
11,56	0,2936	35,59	370,11	-0,03245	
11,58	0,2942	38,60	370,73	-0,03239	
11,60	0,2948	39,48	371,30	-0,03226	
11,62	0,2956	37,74	372,01	-0,03214	
11,64	0,2964	37,22	372,72	-0,03214	
11,66	0,2971	39,91	373,34	-0,03222	
11,68	0,2979	40,57	374,05	-0,03234	
11,70	0,2986	38,55	374,81	-0,03243	
11,72	0,2992	39,73	375,44	-0,03245	
11,74	0,2998	42,05	376,07	-0,03238	
11,76	0,3006	41,38	376,83	-0,03233	
11,78	0,3013	40,44	377,55	-0,03230	
11,80	0,3019	42,40	378,14	-0,03224	
11,82	0,3025	43,05	378,79	-0,03230	
11,84	0,3033	40,25	379,61	-0,03244	
11,86	0,3039	40,11	380,30	-0,03242	
11,88	0,3046	42,08	380,92	-0,03242	
11,90	0,3053	42,13	381,59	-0,03234	
11,92	0,3059	42,06	382,28	-0,03223	
11,94	0,3066	43,90	382,89	-0,03219	
11,96	0,3073	44,08	383,62	-0,03223	
11,98	0,3080	41,81	384,43	-0,03233	
12,00	0,3086	42,24	385,07	-0,03243	
12,02	0,3092	44,58	385,65	-0,03244	
12,04	0,3100	43,87	386,39	-0,03242	
12,06	0,3107	43,31	387,15	-0,03234	
12,08	0,3113	45,17	387,79	-0,03222	
12,10	0,3120	45,97	388,41	-0,03219	
12,12	0,3126	45,25	389,10	-0,03228	
12,14	0,3133	45,77	389,83	-0,03242	
12,16	0,3140	47,15	390,53	-0,03248	
12,18	0,3146	47,84	391,18	-0,03243	
12,20	0,3153	47,88	391,85	-0,03231	
12,22	0,3160	48,39	392,54	-0,03223	
12,24	0,3165	50,16	393,22	-0,03216	
12,26	0,3170	51,92	393,90	-0,03216	
12,28	0,3177	53,29	394,60	-0,03227	
12,30	0,3183	54,43	395,29	-0,03241	
12,32	0,3190	54,82	395,97	-0,03253	
12,34	0,3197	54,71	396,68	-0,03251	
12,36	0,3203	55,16	397,37	-0,03240	
12,38	0,3208	56,09	398,04	-0,03227	
12,40	0,3214	56,74	398,71	-0,03220	
12,42	0,3220	57,68	399,34	-0,03220	
12,44	0,3226	59,21	399,98	-0,03232	
12,46	0,3233	58,87	400,78	-0,03243	
12,48	0,3238	58,73	401,55	-0,03249	
12,50	0,3244	60,96	402,10	-0,03247	
12,52	0,3250	62,97	402,74	-0,03241	
12,54	0,3256	62,32	403,59	-0,03233	
12,56	0,3261	64,08	404,30	-0,03222	
12,58	0,3267	68,00	404,85	-0,03213	
12,60	0,3272	68,57	405,51	-0,03216	
12,62	0,3278	66,92	406,29	-0,03226	
12,64	0,3284	68,94	406,95	-0,03225	
12,66	0,3288	72,53	407,49	-0,03224	
12,68	0,3293	71,28	408,30	-0,03224	
12,70	0,3299	68,65	409,21	-0,03222	
12,72	0,3304	70,04	409,83	-0,03215	
12,74	0,3306	73,26	410,25	-0,03219	
12,76	0,3311	72,33	410,95	-0,03234	
12,78	0,3319	70,63	411,83	-0,03245	
12,80	0,3324	73,16	412,53	-0,03251	
12,82	0,3327	75,03	413,08	-0,03248	
12,84	0,3332	74,08	413,74	-0,03238	
12,86	0,3337	73,59	414,47	-0,03229	
12,88	0,3342	76,06	415,09	-0,03224	
12,90	0,3346	77,25	415,79	-0,03222	
12,92	0,3351	75,42	416,56	-0,03224	
12,94	0,3356	75,41	417,20	-0,03233	
12,96	0,3359	77,61	417,85	-0,03240	
12,98	0,3363	77,31	418,57	-0,03247	
13,00	0,3368	76,55	419,24	-0,03245	
13,02	0,3372	77,12	419,92	-0,03231	
13,04	0,3376	76,15	420,64	-0,03227	
13,06	0,3380	75,49	421,31	-0,03225	
13,08	0,3385	76,70	421,98	-0,03232	
13,10	0,3390	76,74	422,67	-0,03245	
13,12	0,3394	77,01	423,34	-0,03253	
13,14	0,3398	77,82	424,04	-0,03247	
13,16	0,3403	77,24	424,77	-0,03232	
13,18	0,3407	76,60	425,45	-0,03225	
13,20	0,3412	77,25	426,09	-0,03224	
13,22	0,3416	77,35	426,77	-0,03233	
13,24	0,3421	76,63	427,49	-0,03249	
13,26	0,3425	77,22	428,17	-0,03251	
13,28	0,3429	77,57	428,78	-0,03238	
13,30	0,3434	76,36	429,46	-0,03224	
13,32	0,3438	75,07	430,22	-0,03223	
13,34	0,3442	74,86	430,90	-0,03226	
13,36	0,3445	75,75	431,54	-0,03227	
13,38	0,3450	75,49	432,27	-0,03229	
13,40	0,3454	75,16	432,95	-0,03232	
13,42	0,3458	76,23	433,58	-0,03243	
13,44	0,3463	76,25	434,26	-0,03245	
13,46	0,3468	74,97	434,95	-0,03236	
13,48	0,3472	75,26	435,64	-0,03228	
13,50	0,3477	75,19	436,37	-0,03224	
13,52	0,3481	74,36	437,08	-0,03218	
13,54	0,3485	74,00	437,74	-0,03220	
13,56	0,3490	73,92	438,40	-0,03235	
13,58	0,3494	73,83	439,08	-0,03244	
13,60	0,3499	73,96	439,74	-0,03240	
13,62	0,3503	74,58	440,44	-0,03231	
13,64	0,3508	74,82	441,16	-0,03229	
13,66	0,3512	74,89	441,82	-0,03227	
13,68	0,3517	75,02	442,46	-0,03228	
13,70	0,3521	74,89	443,16	-0,03231	
13,72	0,3526	74,86	443,86	-0,03235	
13,74	0,3530	75,00	444,54	-0,03240	
13,76	0,3535	74,77	445,23	-0,03239	
13,78	0,3539	74,00	445,92	-0,03228	
13,80	0,3544	74,19	446,59	-0,03214	
13,82	0,3548	74,58	447,27	-0,03217	
13,84	0,3552	74,21	447,98	-0,03230	
13,86	0,3557	73,90	448,67	-0,03248	
13,88	0,3561	73,86	449,35	-0,03251	
13,90	0,3567	73,81	450,02	-0,03245	
13,92	0,3572	73,92	450,72	-0,03233	
13,94	0,3577	74,56	451,42	-0,03221	
13,96	0,3582	74,91	452,11	-0,03216	
13,98	0,3586	75,63	452,73	-0,03218	
14,00	0,3590	76,25	453,37	-0,03228	
14,02	0,3595	75,86	454,16	-0,03238	
14,04	0,3600	75,31	454,90	-0,03241	
14,06	0,3602	76,38	455,54	-0,03238	
14,08	0,3606	76,40	456,22	-0,03228	
14,10	0,3611	75,66	456,88	-0,03219	
14,12	0,3616	76,55	457,51	-0,03215	
14,14	0,3621	77,13	458,20	-0,03219	
14,16	0,3625	76,22	458,93	-0,03234	
14,18	0,3629	76,62	459,63	-0,03240	
14,20	0,3633	77,67	460,32	-0,03240	
14,22	0,3637	77,57	460,99	-0,03238	
14,24	0,3642	77,75	461,68	-0,03228	
14,26	0,3647	79,17	462,37	-0,03222	
14,28	0,3651	80,25	463,03	-0,03225	
14,30	0,3656	80,64	463,71	-0,03236	
14,32	0,3660	80,55	464,41	-0,03246	
14,34	0,3663	79,90	465,09	-0,03242	
14,36	0,3667	79,61	465,77	-0,03231	
14,38	0,3671	79,07	466,48	-0,03224	
14,40	0,3676	78,63	467,17	-0,03226	
14,42	0,3680	79,05	467,84	-0,03229	
14,44	0,3683	79,52	468,49	-0,03231	
14,46	0,3687	79,57	469,17	-0,03236	
14,48	0,3692	80,10	469,86	-0,03245	
14,50	0,3696	80,75	470,54	-0,03250	
14,52	0,3700	80,28	471,24	-0,03248	
14,54	0,3703	79,70	471,93	-0,03240	
14,56	0,3707	80,06	472,61	-0,03227	
14,58	0,3712	79,69	473,33	-0,03223	
14,60	0,3716	79,87	474,02	-0,03229	
14,62	0,3720	80,40	474,68	-0,03241	
14,64	0,3723	80,52	475,36	-0,03256	
14,66	0,3727	80,50	476,05	-0,03252	
14,68	0,3732	80,52	476,72	-0,03236	
14,70	0,3736	80,43	477,40	-0,03220	
14,72	0,3740	79,69	478,09	-0,03211	
14,74	0,3744	79,92	478,77	-0,03210	
14,76	0,3747	81,07	479,44	-0,03220	
14,78	0,3752	80,46	480,14	-0,03230	
14,80	0,3755	79,77	480,83	-0,03241	
14,82	0,3759	80,42	481,49	-0,03245	
14,84	0,3763	80,67	482,19	-0,03242	
14,86	0,3767	80,04	482,89	-0,03231	
14,88	0,3772	80,68	483,55	-0,03220	
14,90	0,3775	81,27	484,25	-0,03222	
14,92	0,3779	81,01	484,94	-0,03233	
14,94	0,3783	80,78	485,61	-0,03241	
14,96	0,3787	80,51	486,33	-0,03247	
14,98	0,3791	80,46	487,01	-0,03244	
15,00	0,3794	80,58	487,66	-0,03232	
15,02	0,3799	80,37	488,38	-0,03221	
15,04	0,3803	79,65	489,06	-0,03215	
15,06	0,3808	79,81	489,70	-0,03218	
15,08	0,3811	80,18	490,38	-0,03225	
15,10	0,3815	79,52	491,12	-0,03236	
15,12	0,3819	78,62	491,80	-0,03238	
15,14	0,3822	78,44	492,42	-0,03232	
15,16	0,3826	77,78	493,12	-0,03224	
15,18	0,3830	77,34	493,82	-0,03221	
15,20	0,3834	77,90	494,49	-0,03216	
15,22	0,3839	77,43	495,20	-0,03214	
15,24	0,3844	75,96	495,88	-0,03221	
15,26	0,3848	76,05	496,54	-0,03231	
15,28	0,3851	75,64	497,29	-0,03237	
15,30	0,3855	74,91	497,94	-0,03239	
15,32	0,3859	75,83	498,57	-0,03238	
15,34	0,3864	75,33	499,33	-0,03234	
15,36	0,3868	74,93	500,00	-0,03224	
15,38	0,3872	76,63	500,63	-0,03221	
15,40	0,3877	75,95	501,37	-0,03229	
15,42	0,3882	74,41	502,03	-0,03236	
15,44	0,3886	74,81	502,70	-0,03237	
15,46	0,3891	73,73	503,47	-0,03232	
15,48	0,3895	73,00	504,10	-0,03220	
15,50	0,3899	74,22	504,78	-0,03215	
15,52	0,3905	72,52	505,55	-0,03216	
15,54	0,3908	71,66	506,15	-0,03224	
15,56	0,3913	73,17	506,84	-0,03237	
15,58	0,3918	71,46	507,64	-0,03247	
15,60	0,3922	70,54	508,26	-0,03242	
15,62	0,3926	71,75	508,94	-0,03234	
15,64	0,3931	70,11	509,68	-0,03228	
15,66	0,3935	68,25	510,26	-0,03217	
15,68	0,3940	68,51	510,97	-0,03212	
15,70	0,3945	66,75	511,72	-0,03219	
15,72	0,3948	65,95	512,30	-0,03235	
15,74	0,3953	67,06	512,99	-0,03242	
15,76	0,3958	65,79	513,73	-0,03233	
15,78	0,3963	65,70	514,34	-0,03224	
15,80	0,3968	66,16	515,06	-0,03219	
15,82	0,3974	64,00	515,76	-0,03222	
15,84	0,3977	64,10	516,36	-0,03236	
15,86	0,3982	64,23	517,12	-0,03240	
15,88	0,3987	61,86	517,82	-0,03247	
15,90	0,3992	62,39	518,39	-0,03256	
15,92	0,3998	62,46	519,17	-0,03247	
15,94	0,4003	59,61	519,92	-0,03226	
15,96	0,4006	59,89	520,51	-0,03221	
15,98	0,4011	59,47	521,24	-0,03221	
16,00	0,4017	56,41	521,91	-0,03224	
16,02	0,4022	56,17	522,51	-0,03234	
16,04	0,4029	55,97	523,28	-0,03245	
16,06	0,4034	54,45	523,96	-0,03245	
16,08	0,4039	55,07	524,57	-0,03242	
16,10	0,4045	54,38	525,32	-0,03235	
16,12	0,4050	52,80	525,99	-0,03217	
16,14	0,4055	53,56	526,63	-0,03216	
16,16	0,4061	52,08	527,40	-0,03230	
16,18	0,4067	50,20	528,05	-0,03245	
16,20	0,4073	51,09	528,68	-0,03255	
16,22	0,4079	49,80	529,44	-0,03250	
16,24	0,4084	48,76	530,05	-0,03232	
16,26	0,4090	50,38	530,71	-0,03219	
16,28	0,4097	48,85	531,52	-0,03217	
16,30	0,4103	46,95	532,16	-0,03220	
16,32	0,4109	47,53	532,83	-0,03230	
16,34	0,4115	45,58	533,59	-0,03239	
16,36	0,4120	44,06	534,16	-0,03243	
16,38	0,4127	45,02	534,85	-0,03240	
16,40	0,4133	43,33	535,67	-0,03224	
16,42	0,4137	42,57	536,28	-0,03211	
16,44	0,4143	43,66	536,97	-0,03216	
16,46	0,4151	41,62	537,70	-0,03221	
16,48	0,4157	40,59	538,25	-0,03233	
16,50	0,4163	40,97	538,95	-0,03246	
16,52	0,4171	38,37	539,73	-0,03253	
16,54	0,4177	38,18	540,30	-0,03247	
16,56	0,4183	39,00	541,03	-0,03234	
16,58	0,4189	35,87	541,81	-0,03224	
16,60	0,4194	35,73	542,40	-0,03223	
16,62	0,4201	36,36	543,12	-0,03233	
16,64	0,4208	34,05	543,79	-0,03243	
16,66	0,4214	33,86	544,33	-0,03249	
16,68	0,4221	33,93	545,10	-0,03249	
16,70	0,4228	31,46	545,87	-0,03245	
16,72	0,4234	31,43	546,48	-0,03235	
16,74	0,4241	31,18	547,21	-0,03223	
16,76	0,4249	28,88	547,87	-0,03222	
16,78	0,4257	29,11	548,45	-0,03230	
16,80	0,4265	28,95	549,25	-0,03243	
16,82	0,4272	26,20	550,02	-0,03251	
16,84	0,4278	25,37	550,62	-0,03249	
16,86	0,4285	24,18	551,30	-0,03235	
16,88	0,4292	21,90	551,92	-0,03225	
16,90	0,4298	21,66	552,53	-0,03219	
16,92	0,4306	20,46	553,38	-0,03216	
16,94	0,4314	18,20	554,12	-0,03221	
16,96	0,4321	18,57	554,69	-0,03232	
16,98	0,4329	17,14	555,41	-0,03246	
17,00	0,4336	13,98	556,14	-0,03249	
17,02	0,4342	14,43	556,72	-0,03234	
17,04	0,4349	13,81	557,37	-0,03217	
17,06	0,4358	9,235	558,14	-0,03211	
17,08	0,4365	7,376	558,72	-0,03215	
17,10	0,4372	8,751	559,27	-0,03226	
17,12	0,4381	6,494	560,20	-0,03240	
17,14	0,4390	2,714	561,14	-0,03247	
17,16	0,4398	3,688	561,69	-0,03248	
17,18	0,4405	3,088	562,23	-0,03242	
17,20	0,4414	-1,305	562,91	-0,03225	
17,22	0,4422	-3,312	563,54	-0,03213	
17,24	0,4430	-3,111	564,23	-0,03214	
17,26	0,4439	-5,987	564,97	-0,03229	
17,28	0,4447	-8,837	565,61	-0,03243	
17,30	0,4455	-10,70	566,28	-0,03253	
17,32	0,4464	-13,76	567,03	-0,03254	
17,34	0,4473	-15,48	567,63	-0,03241	
17,36	0,4482	-15,85	568,24	-0,03227	
17,38	0,4491	-19,37	569,04	-0,03223	
17,40	0,4501	-22,51	569,68	-0,03227	
17,42	0,4509	-22,69	570,09	-0,03237	
17,44	0,4519	-24,73	570,87	-0,03245	
17,46	0,4530	-30,93	572,05	-0,03241	
17,48	0,4540	-34,66	572,78	-0,03228	
17,50	0,4548	-34,28	572,88	-0,03219	
17,52	0,4558	-36,22	573,21	-0,03224	
17,54	0,4569	-41,24	574,25	-0,03231	
17,56	0,4581	-46,10	575,69	-0,03240	
17,58	0,4592	-51,13	576,70	-0,03249	
17,60	0,4600	-55,93	577,00	-0,03249	
17,62	0,4610	-60,84	577,26	-0,03244	
17,64	0,4622	-65,29	577,93	-0,03236	
17,66	0,4636	-68,08	578,70	-0,03225	
17,68	0,4647	-68,48	579,10	-0,03220	
17,70	0,4657	-71,60	579,54	-0,03226	
17,72	0,4669	-77,69	580,47	-0,03234	
17,74	0,4683	-83,84	581,70	-0,03238	
17,76	0,4696	-87,96	582,54	-0,03242	
17,78	0,4708	-90,10	582,85	-0,03242	
17,80	0,4722	-95,08	583,37	-0,03236	
17,82	0,4736	-101,13	584,19	-0,03237	
17,84	0,4749	-104,44	584,74	-0,03238	
17,86	0,4762	-105,00	584,97	-0,03241	
17,88	0,4776	-108,77	585,49	-0,03251	
17,90	0,4793	-113,44	586,52	-0,03264	
17,92	0,4809	-117,24	587,81	-0,03261	
17,94	0,4824	-122,11	588,86	-0,03246	
17,96	0,4837	-124,83	589,10	-0,03234	
17,98	0,4851	-122,86	588,95	-0,03231	
18,00	0,4867	-122,03	589,39	-0,03235	
18,02	0,4883	-123,75	590,54	-0,03242	
18,04	0,4901	-125,93	592,02	-0,03250	
18,06	0,4918	-131,70	593,38	-0,03254	
18,08	0,4931	-137,24	594,08	-0,03249	
18,10	0,4946	-135,62	594,23	-0,03253	
18,12	0,4962	-131,27	594,48	-0,03248	
18,14	0,4978	-128,36	595,13	-0,03234	
18,16	0,4995	-123,94	595,82	-0,03224	
18,18	0,5010	-117,40	596,45	-0,03225	
18,20	0,5025	-114,40	597,28	-0,03234	
18,22	0,5039	-109,62	598,12	-0,03241	
18,24	0,5051	-98,65	598,76	-0,03243	
18,26	0,5064	-85,38	599,30	-0,03234	
18,28	0,5078	-74,46	599,89	-0,03223	
18,30	0,5091	-64,36	600,56	-0,03221	
18,32	0,5102	-53,70	601,24	-0,03225	
18,34	0,5113	-44,97	601,92	-0,03233	
18,36	0,5124	-37,87	602,60	-0,03244	
18,38	0,5134	-30,91	603,32	-0,03247	
18,40	0,5143	-23,36	603,97	-0,03239	
18,42	0,5152	-15,83	604,66	-0,03229	
18,44	0,5162	-9,041	605,38	-0,03219	
18,46	0,5170	-1,768	606,02	-0,03223	
18,48	0,5179	5,500	606,69	-0,03228	
18,50	0,5188	10,05	607,43	-0,03235	
18,52	0,5195	14,52	608,10	-0,03245	
18,54	0,5201	19,84	608,76	-0,03248	
18,56	0,5209	23,73	609,46	-0,03239	
18,58	0,5217	27,39	610,11	-0,03230	
18,60	0,5223	31,46	610,80	-0,03219	
18,62	0,5229	33,76	611,54	-0,03214	
18,64	0,5235	36,57	612,21	-0,03219	
18,66	0,5241	41,17	612,84	-0,03233	
18,68	0,5248	43,53	613,54	-0,03244	
18,70	0,5255	44,12	614,27	-0,03243	
18,72	0,5260	47,07	614,90	-0,03232	
18,74	0,5265	50,76	615,55	-0,03234	
18,76	0,5272	51,20	616,29	-0,03233	
18,78	0,5278	52,21	616,96	-0,03228	
18,80	0,5283	54,53	617,64	-0,03235	
18,82	0,5288	55,00	618,43	-0,03246	
18,84	0,5292	55,49	619,08	-0,03246	
18,86	0,5297	57,45	619,70	-0,03241	
18,88	0,5303	57,10	620,44	-0,03238	
18,90	0,5308	56,60	621,10	-0,03232	
18,92	0,5314	58,77	621,74	-0,03221	
18,94	0,5318	59,10	622,43	-0,03218	
18,96	0,5323	57,86	623,08	-0,03229	
18,98	0,5327	58,99	623,77	-0,03239	
19,00	0,5332	59,05	624,50	-0,03248	
19,02	0,5336	58,56	625,13	-0,03248	
19,04	0,5342	58,61	625,85	-0,03241	
19,06	0,5348	57,74	626,61	-0,03232	
19,08	0,5351	57,92	627,23	-0,03225	
19,10	0,5356	58,44	627,91	-0,03223	
19,12	0,5363	56,76	628,62	-0,03232	
19,14	0,5367	56,58	629,21	-0,03245	
19,16	0,5372	56,68	629,95	-0,03250	
19,18	0,5377	54,16	630,71	-0,03247	
19,20	0,5382	53,97	631,32	-0,03238	
19,22	0,5387	53,85	632,05	-0,03231	
19,24	0,5393	51,01	632,75	-0,03221	
19,26	0,5398	50,59	633,33	-0,03222	
19,28	0,5404	50,65	634,08	-0,03227	
19,30	0,5410	48,36	634,77	-0,03228	
19,32	0,5415	48,36	635,34	-0,03235	
19,34	0,5421	48,09	636,13	-0,03242	
19,36	0,5427	45,77	636,86	-0,03236	
19,38	0,5431	46,46	637,45	-0,03227	
19,40	0,5437	45,78	638,20	-0,03228	
19,42	0,5443	42,73	638,87	-0,03234	
19,44	0,5449	43,06	639,45	-0,03240	
19,46	0,5455	42,88	640,24	-0,03242	
19,48	0,5460	40,35	640,96	-0,03241	
19,50	0,5466	40,25	641,57	-0,03238	
19,52	0,5473	38,74	642,27	-0,03234	
19,54	0,5480	36,29	642,90	-0,03220	
19,56	0,5485	36,59	643,56	-0,03211	
19,58	0,5491	35,06	644,36	-0,03218	
19,60	0,5497	33,17	644,97	-0,03234	
19,62	0,5502	34,17	645,57	-0,03251	
19,64	0,5510	32,01	646,44	-0,03254	
19,66	0,5517	29,30	647,20	-0,03240	
19,68	0,5523	30,44	647,78	-0,03226	
19,70	0,5530	29,43	648,41	-0,03220	
19,72	0,5537	25,49	649,07	-0,03221	
19,74	0,5544	24,25	649,77	-0,03232	
19,76	0,5551	23,88	650,49	-0,03243	
19,78	0,5557	22,64	651,11	-0,03247	
19,80	0,5564	22,37	651,80	-0,03251	
19,82	0,5571	21,65	652,53	-0,03248	
19,84	0,5578	22,07	653,11	-0,03236	
19,86	0,5586	22,29	653,83	-0,03228	
19,88	0,5595	19,87	654,66	-0,03224	
19,90	0,5601	19,36	655,30	-0,03232	
19,92	0,5607	19,49	656,00	-0,03247	
19,94	0,5615	17,00	656,69	-0,03259	
19,96	0,5620	16,81	657,22	-0,03253	
19,98	0,5627	17,11	657,98	-0,03237	
20,00	0,5635	13,75	658,85	-0,03225	
20,02	0,5642	13,14	659,47	-0,03218	
20,04	0,5650	14,69	660,04	-0,03224	
20,06	0,5658	12,25	660,73	-0,03242	
20,08	0,5666	10,51	661,42	-0,03246	
20,10	0,5674	11,79	662,05	-0,03249	
20,12	0,5682	10,64	662,75	-0,03252	
20,14	0,5688	8,663	663,42	-0,03243	
20,16	0,5694	9,740	663,98	-0,03231	
20,18	0,5701	9,625	664,77	-0,03227	
20,20	0,5709	7,493	665,65	-0,03230	
20,22	0,5716	8,417	666,25	-0,03250	
20,24	0,5724	9,684	666,91	-0,03258	
20,26	0,5732	7,380	667,65	-0,03249	
20,28	0,5739	7,184	668,23	-0,03236	
20,30	0,5747	7,347	668,91	-0,03228	
20,32	0,5755	4,259	669,69	-0,03226	
20,34	0,5761	3,090	670,31	-0,03223	
20,36	0,5768	3,569	671,01	-0,03230	
20,38	0,5777	1,395	671,69	-0,03248	
20,40	0,5784	0,8308	672,27	-0,03256	
20,42	0,5793	1,324	673,04	-0,03252	
20,44	0,5801	-0,9064	673,81	-0,03238	
20,46	0,5808	-0,6325	674,38	-0,03229	
20,48	0,5817	0,3867	675,11	-0,03232	
20,50	0,5826	-1,259	675,87	-0,03229	
20,52	0,5832	-1,009	676,47	-0,03236	
20,54	0,5840	-0,5275	677,16	-0,03244	
20,56	0,5848	-2,367	677,82	-0,03240	
20,58	0,5855	-2,230	678,44	-0,03238	
20,60	0,5864	-2,748	679,22	-0,03230	
20,62	0,5873	-4,380	679,89	-0,03222	
20,64	0,5881	-3,180	680,48	-0,03225	
20,66	0,5889	-3,153	681,29	-0,03234	
20,68	0,5898	-4,336	682,04	-0,03242	
20,70	0,5905	-2,603	682,62	-0,03250	
20,72	0,5914	-3,064	683,32	-0,03250	
20,74	0,5922	-5,904	684,01	-0,03245	
20,76	0,5929	-5,505	684,64	-0,03233	
20,78	0,5938	-5,226	685,34	-0,03221	
20,80	0,5947	-6,559	686,01	-0,03218	
20,82	0,5955	-5,527	686,66	-0,03225	
20,84	0,5964	-5,201	687,40	-0,03239	
20,86	0,5971	-6,600	688,07	-0,03248	
20,88	0,5979	-6,199	688,71	-0,03243	
20,90	0,5988	-5,882	689,47	-0,03233	
20,92	0,5996	-6,851	690,16	-0,03226	
20,94	0,6003	-6,738	690,81	-0,03225	
20,96	0,6012	-6,976	691,49	-0,03217	
20,98	0,6020	-7,429	692,12	-0,03226	
21,00	0,6029	-7,421	692,82	-0,03244	
21,02	0,6037	-8,223	693,53	-0,03251	
21,04	0,6045	-7,743	694,13	-0,03241	
21,06	0,6053	-6,857	694,87	-0,03231	
21,08	0,6062	-7,920	695,64	-0,03227	
21,10	0,6069	-7,027	696,24	-0,03226	
21,12	0,6079	-6,226	696,96	-0,03228	
21,14	0,6089	-8,653	697,74	-0,03233	
21,16	0,6096	-8,410	698,33	-0,03241	
21,18	0,6105	-7,023	699,00	-0,03245	
21,20	0,6114	-8,591	699,60	-0,03236	
21,22	0,6122	-6,889	699,80	-0,03223	
21,24	0,6130	-0,09874	699,68	-0,03210	
21,26	0,6137	6,994	699,48	-0,03213	
21,28	0,6146	13,48	699,39	-0,03227	
21,30	0,6154	20,06	699,40	-0,03235	
21,32	0,6162	24,56	699,43	-0,03240	
21,34	0,6168	27,73	699,44	-0,03232	
21,36	0,6175	32,05	699,42	-0,03216	
21,38	0,6181	38,59	699,39	-0,03206	
21,40	0,6188	46,26	699,41	-0,03206	
21,42	0,6194	52,39	699,47	-0,03220	
21,44	0,6199	58,39	699,46	-0,03229	
21,46	0,6204	65,06	699,40	-0,03231	
21,48	0,6209	70,81	699,36	-0,03233	
21,50	0,6214	74,63	699,42	-0,03230	
21,52	0,6219	77,64	699,55	-0,03220	
21,54	0,6222	82,12	699,53	-0,03208	
21,56	0,6224	87,39	699,43	-0,03205	
21,58	0,6228	91,57	699,36	-0,03219	
21,60	0,6233	94,80	699,41	-0,03233	
21,62	0,6236	97,28	699,54	-0,03239	
21,64	0,6239	99,85	699,56	-0,03234	
21,66	0,6240	103,29	699,46	-0,03220	
21,68	0,6243	106,81	699,37	-0,03212	
21,70	0,6246	110,02	699,38	-0,03214	
21,72	0,6249	111,93	699,50	-0,03218	
21,74	0,6252	113,63	699,55	-0,03226	
21,76	0,6254	115,94	699,46	-0,03234	
21,78	0,6255	118,49	699,36	-0,03243	
21,80	0,6258	120,69	699,38	-0,03245	
21,82	0,6261	122,02	699,53	-0,03238	
21,84	0,6262	123,66	699,58	-0,03225	
21,86	0,6262	125,74	699,48	-0,03216	
21,88	0,6264	127,11	699,38	-0,03218	
21,90	0,6267	128,57	699,38	-0,03227	
21,92	0,6269	129,25	699,50	-0,03233	
21,94	0,6269	129,85	699,54	-0,03235	
21,96	0,6269	131,72	699,46	-0,03231	
21,98	0,6271	133,14	699,36	-0,03225	
22,00	0,6274	133,87	699,38	-0,03216	
22,02	0,6275	134,88	699,51	-0,03215	
22,04	0,6276	135,88	699,56	-0,03218	
22,06	0,6275	137,14	699,46	-0,03227	
22,08	0,6275	138,92	699,37	-0,03240	
22,10	0,6278	139,87	699,37	-0,03246	
22,12	0,6281	139,63	699,50	-0,03239	
22,14	0,6282	139,42	699,55	-0,03230	
22,16	0,6281	139,92	699,46	-0,03220	
22,18	0,6281	140,30	699,37	-0,03216	
22,20	0,6281	141,28	699,37	-0,03215	
22,22	0,6282	142,28	699,48	-0,03228	
22,24	0,6282	142,75	699,55	-0,03238	
22,26	0,6281	143,24	699,47	-0,03241	
22,28	0,6283	143,67	699,35	-0,03236	
22,30	0,6286	143,50	699,38	-0,03223	
22,32	0,6289	143,32	699,55	-0,03211	
22,34	0,6289	144,80	699,57	-0,03208	
22,36	0,6288	146,39	699,46	-0,03212	
22,38	0,6288	145,87	699,37	-0,03222	
22,40	0,6288	145,33	699,39	-0,03236	
22,42	0,6289	145,62	699,50	-0,03237	
22,44	0,6289	145,56	699,53	-0,03226	
22,46	0,6288	145,79	699,43	-0,03219	
22,48	0,6287	146,12	699,34	-0,03216	
22,50	0,6288	146,34	699,41	-0,03219	
22,52	0,6289	146,58	699,56	-0,03220	
22,54	0,6289	148,29	699,55	-0,03225	
22,56	0,6288	149,98	699,42	-0,03241	
22,58	0,6291	149,49	699,35	-0,03242	
22,60	0,6294	147,49	699,48	-0,03229	
22,62	0,6296	147,36	699,61	-0,03216	
22,64	0,6295	149,00	699,55	-0,03208	
22,66	0,6294	150,23	699,41	-0,03207	
22,68	0,6294	149,28	699,39	-0,03223	
22,70	0,6295	148,35	699,46	-0,03247	
22,72	0,6295	149,00	699,46	-0,03255	
22,74	0,6295	148,87	699,40	-0,03243	
22,76	0,6294	147,67	699,37	-0,03229	
22,78	0,6295	146,68	699,44	-0,03214	
22,80	0,6296	146,61	699,53	-0,03208	
22,82	0,6295	148,40	699,49	-0,03215	
22,84	0,6294	149,94	699,37	-0,03225	
22,86	0,6294	150,25	699,36	-0,03245	
22,88	0,6295	149,06	699,52	-0,03256	
22,90	0,6296	148,80	699,59	-0,03248	
22,92	0,6295	149,78	699,49	-0,03231	
22,94	0,6295	150,35	699,38	-0,03215	
22,96	0,6297	150,22	699,39	-0,03214	
22,98	0,6301	149,73	699,50	-0,03228	
23,00	0,6302	149,75	699,50	-0,03238	
23,02	0,6301	149,78	699,41	-0,03240	
23,04	0,6301	148,81	699,36	-0,03242	
23,06	0,6302	147,75	699,45	-0,03242	
23,08	0,6303	147,65	699,56	-0,03242	
23,10	0,6302	149,11	699,51	-0,03235	
23,12	0,6301	150,23	699,38	-0,03225	
23,14	0,6301	150,30	699,36	-0,03232	
23,16	0,6302	149,76	699,49	-0,03251	
23,18	0,6302	149,52	699,56	-0,03261	
23,20	0,6301	150,06	699,47	-0,03250	
23,22	0,6301	150,37	699,37	-0,03241	
23,24	0,6301	149,13	699,41	-0,03045	
23,26	0,6302	148,15	699,52	-0,00881	
23,28	0,6302	149,11	699,49	0,01684	
23,30	0,6301	149,81	699,38	0,02051	
23,32	0,6301	148,40	699,37	0,02946	
23,34	0,6302	147,02	699,51	0,04705	
23,36	0,6302	148,29	699,56	0,05269	
23,38	0,6301	150,42	699,44	0,04958	
23,40	0,6301	149,73	699,35	0,04761	
23,42	0,6301	147,48	699,44	0,04794	
23,44	0,6302	147,14	699,56	0,04879	
23,46	0,6301	148,86	699,51	0,04923	
23,48	0,6301	149,79	699,37	0,04907	
23,50	0,6305	149,03	699,36	0,04911	
23,52	0,6308	147,61	699,53	0,04923	
23,54	0,6309	148,07	699,61	0,04915	
23,56	0,6308	149,47	699,50	0,04888	
23,58	0,6307	149,08	699,38	0,04866	
23,60	0,6308	147,88	699,38	0,04816	
23,62	0,6308	148,21	699,49	0,04744	
23,64	0,6309	149,09	699,53	0,04731	
23,66	0,6308	149,96	699,41	0,04718	
23,68	0,6307	149,36	699,33	0,04690	
23,70	0,6308	147,34	699,48	0,04665	
23,72	0,6309	146,65	699,64	0,04672	
23,74	0,6308	148,38	699,58	0,04671	
23,76	0,6307	149,73	699,41	0,04700	
23,78	0,6308	148,42	699,39	0,04752	
23,80	0,6308	147,68	699,49	0,04785	
23,82	0,6308	148,89	699,49	0,04818	
23,84	0,6308	149,75	699,38	0,04826	
23,86	0,6308	148,08	699,36	0,04835	
23,88	0,6309	145,87	699,52	0,04828	
23,90	0,6309	146,69	699,57	0,04838	
23,92	0,6308	149,10	699,45	0,04848	
23,94	0,6309	149,23	699,35	0,04842	
23,96	0,6313	147,46	699,43	0,04822	
23,98	0,6315	146,60	699,56	0,04812	
24,00	0,6315	148,22	699,51	0,04826	
24,02	0,6314	149,54	699,37	0,04829	
24,04	0,6314	148,35	699,37	0,04831	
24,06	0,6315	146,65	699,55	0,04838	
24,08	0,6316	147,21	699,60	0,04846	
24,10	0,6315	149,29	699,47	0,04834	
24,12	0,6314	149,30	699,35	0,04820	
24,14	0,6315	147,48	699,43	0,04827	
24,16	0,6316	146,62	699,55	0,04836	
24,18	0,6315	148,22	699,50	0,04845	
24,20	0,6314	148,56	699,36	0,04906	
24,22	0,6315	145,92	699,38	0,04959	
24,24	0,6316	144,44	699,56	0,04999	
24,26	0,6316	146,36	699,60	0,05006	
24,28	0,6315	149,17	699,47	0,04978	
24,30	0,6316	149,24	699,37	0,04965	
24,32	0,6320	147,62	699,42	0,04978	
24,34	0,6322	147,39	699,50	0,04985	
24,36	0,6322	147,98	699,46	0,04937	
24,38	0,6321	147,47	699,34	0,04899	
24,40	0,6321	145,76	699,40	0,04865	
24,42	0,6322	144,18	699,59	0,04805	
24,44	0,6322	145,94	699,60	0,04732	
24,46	0,6321	148,63	699,46	0,04698	
24,48	0,6321	147,84	699,36	0,04708	
24,50	0,6321	146,44	699,42	0,04707	
24,52	0,6322	145,96	699,53	0,04728	
24,54	0,6322	146,41	699,49	0,04771	
24,56	0,6321	146,68	699,36	0,04809	
24,58	0,6321	145,00	699,40	0,04845	
24,60	0,6322	143,63	699,59	0,04898	
24,62	0,6322	145,73	699,63	0,04937	
24,64	0,6321	148,67	699,48	0,04955	
24,66	0,6322	148,16	699,38	0,04977	
24,68	0,6326	145,51	699,48	0,04991	
24,70	0,6328	146,04	699,53	0,04980	
24,72	0,6328	148,42	699,42	0,04960	
24,74	0,6327	147,34	699,36	0,04968	
24,76	0,6328	143,72	699,49	0,04963	
24,78	0,6329	143,60	699,59	0,04932	
24,80	0,6328	147,31	699,49	0,04905	
24,82	0,6327	148,46	699,37	0,04875	
24,84	0,6328	145,70	699,43	0,04819	
24,86	0,6329	144,67	699,53	0,04760	
24,88	0,6328	147,41	699,46	0,04728	
24,90	0,6327	148,35	699,35	0,04696	
24,92	0,6328	145,05	699,41	0,04671	
24,94	0,6329	142,96	699,57	0,04675	
24,96	0,6329	145,38	699,57	0,04719	
24,98	0,6328	148,47	699,42	0,04778	
25,00	0,6329	147,36	699,36	0,04841	
25,02	0,6333	145,41	699,45	0,04907	
25,04	0,6336	145,34	699,54	0,04950	
25,06	0,6335	146,35	699,47	0,04979	
25,08	0,6334	146,00	699,36	0,05012	
25,10	0,6335	144,14	699,44	0,05017	
25,12	0,6336	143,31	699,59	0,05007	
25,14	0,6335	145,92	699,55	0,05003	
25,16	0,6334	148,36	699,41	0,04983	
25,18	0,6335	146,41	699,40	0,04959	
25,20	0,6335	144,07	699,49	0,04926	
25,22	0,6335	144,71	699,48	0,04901	
25,24	0,6334	145,87	699,37	0,04868	
25,26	0,6335	144,26	699,39	0,04833	
25,28	0,6336	142,55	699,55	0,04800	
25,30	0,6339	143,96	699,57	0,04792	
25,32	0,6341	147,36	699,43	0,04798	
25,34	0,6341	147,11	699,36	0,04804	
25,36	0,6342	144,40	699,48	0,04836	
25,38	0,6343	143,89	699,58	0,04871	
25,40	0,6342	145,69	699,49	0,04886	
25,42	0,6341	145,92	699,36	0,04901	
25,44	0,6341	144,27	699,41	0,04938	
25,46	0,6342	143,22	699,58	0,04992	
25,48	0,6342	144,58	699,59	0,05062	
25,50	0,6341	146,40	699,43	0,05123	
25,52	0,6341	145,89	699,36	0,05146	
25,54	0,6342	143,97	699,47	0,05146	
25,56	0,6342	143,96	699,54	0,05132	
25,58	0,6342	145,74	699,44	0,05103	
25,60	0,6342	145,54	699,34	0,05080	
25,62	0,6346	142,33	699,47	0,05065	
25,64	0,6349	141,31	699,61	0,05036	
25,66	0,6349	144,07	699,53	0,05015	
25,68	0,6348	146,09	699,39	0,04999	
25,70	0,6348	144,61	699,41	0,04985	
25,72	0,6349	142,82	699,51	0,04954	
25,74	0,6349	144,39	699,48	0,04945	
25,76	0,6348	145,48	699,36	0,04951	
25,78	0,6348	143,32	699,41	0,04960	
25,80	0,6349	141,00	699,57	0,04988	
25,82	0,6349	143,01	699,56	0,05025	
25,84	0,6348	146,17	699,42	0,05066	
25,86	0,6349	145,56	699,37	0,05093	
25,88	0,6352	143,69	699,48	0,05119	
25,90	0,6355	143,92	699,54	0,05150	
25,92	0,6355	145,41	699,42	0,05176	
25,94	0,6354	144,08	699,34	0,05173	
25,96	0,6355	141,04	699,49	0,05173	
25,98	0,6356	140,89	699,64	0,05181	
26,00	0,6355	144,08	699,56	0,05195	
26,02	0,6354	145,85	699,40	0,05190	
26,04	0,6355	143,67	699,38	0,05173	
26,06	0,6356	142,10	699,49	0,05166	
26,08	0,6356	142,40	699,51	0,05171	
26,10	0,6355	143,34	699,39	0,05191	
26,12	0,6354	142,68	699,34	0,05201	
26,14	0,6358	140,55	699,53	0,05200	
26,16	0,6361	140,78	699,67	0,05186	
26,18	0,6362	143,63	699,57	0,05174	
26,20	0,6361	144,77	699,39	0,05167	
26,22	0,6361	143,37	699,38	0,05165	
26,24	0,6362	142,34	699,50	0,05176	
26,26	0,6362	142,76	699,50	0,05185	
26,28	0,6361	143,16	699,37	0,05194	
26,30	0,6362	141,36	699,38	0,05194	
26,32	0,6363	138,52	699,58	0,05193	
26,34	0,6363	139,65	699,66	0,05186	
26,36	0,6362	142,97	699,51	0,05184	
26,38	0,6362	143,77	699,37	0,05178	
26,40	0,6366	141,74	699,44	0,05170	
26,42	0,6369	140,92	699,53	0,05171	
26,44	0,6369	142,37	699,46	0,05180	
26,46	0,6368	142,53	699,34	0,05194	
26,48	0,6369	140,28	699,42	0,05188	
26,50	0,6370	139,24	699,59	0,05175	
26,52	0,6370	141,09	699,58	0,05165	
26,54	0,6368	142,82	699,42	0,05168	
26,56	0,6368	141,90	699,37	0,05176	
26,58	0,6369	140,52	699,48	0,05189	
26,60	0,6370	141,28	699,54	0,05199	
26,62	0,6369	142,94	699,44	0,05201	
26,64	0,6370	142,75	699,34	0,05196	
26,66	0,6374	140,76	699,46	0,05181	
26,68	0,6376	140,53	699,63	0,05172	
26,70	0,6376	143,13	699,58	0,05173	
26,72	0,6375	144,65	699,41	0,05182	
26,74	0,6375	142,53	699,38	0,05193	
26,76	0,6376	141,09	699,49	0,05197	
26,78	0,6376	141,96	699,51	0,05202	
26,80	0,6375	142,94	699,39	0,05195	
26,82	0,6375	141,78	699,34	0,05180	
26,84	0,6376	139,34	699,51	0,05167	
26,86	0,6380	138,99	699,63	0,05157	
26,88	0,6381	141,42	699,52	0,05164	
26,90	0,6381	142,29	699,38	0,05178	
26,92	0,6382	140,26	699,41	0,05189	
26,94	0,6383	139,28	699,51	0,05191	
26,96	0,6382	140,79	699,45	0,05179	
26,98	0,6381	140,98	699,33	0,05159	
27,00	0,6382	138,57	699,42	0,05153	
27,02	0,6383	136,85	699,60	0,05158	
27,04	0,6383	138,99	699,59	0,05172	
27,06	0,6382	141,98	699,42	0,05187	
27,08	0,6382	141,47	699,36	0,05189	
27,10	0,6386	139,43	699,47	0,05185	
27,12	0,6389	139,35	699,54	0,05177	
27,14	0,6389	140,67	699,43	0,05164	
27,16	0,6388	139,85	699,34	0,05152	
27,18	0,6389	137,43	699,47	0,05156	
27,20	0,6390	137,44	699,59	0,05171	
27,22	0,6389	140,68	699,50	0,05182	
27,24	0,6388	141,93	699,35	0,05184	
27,26	0,6389	139,05	699,44	0,05183	
27,28	0,6390	136,83	699,64	0,05173	
27,30	0,6390	138,43	699,61	0,05164	
27,32	0,6389	140,36	699,43	0,05160	
27,34	0,6392	139,34	699,40	0,05153	
27,36	0,6395	137,52	699,50	0,05158	
27,38	0,6396	139,21	699,48	0,05169	
27,40	0,6395	141,06	699,35	0,05183	
27,42	0,6395	138,83	699,38	0,05188	
27,44	0,6396	135,26	699,61	0,05179	
27,46	0,6397	136,09	699,68	0,05167	
27,48	0,6395	139,44	699,52	0,05163	
27,50	0,6395	139,68	699,36	0,05158	
27,52	0,6399	138,03	699,42	0,05162	
27,54	0,6402	137,97	699,53	0,05171	
27,56	0,6402	139,32	699,48	0,05190	
27,58	0,6401	140,00	699,34	0,05199	
27,60	0,6402	137,99	699,41	0,05190	
27,62	0,6403	136,03	699,61	0,05168	
27,64	0,6403	138,34	699,60	0,05153	
27,66	0,6401	141,16	699,42	0,05150	
27,68	0,6402	140,03	699,37	0,05149	
27,70	0,6406	137,29	699,53	0,05153	
27,72	0,6409	137,09	699,59	0,05167	
27,74	0,6409	139,11	699,46	0,05179	
27,76	0,6408	138,88	699,37	0,05179	
27,78	0,6409	136,54	699,46	0,05166	
27,80	0,6410	136,70	699,53	0,05157	
27,82	0,6409	138,95	699,42	0,05149	
27,84	0,6408	138,97	699,34	0,05147	
27,86	0,6409	135,66	699,48	0,05152	
27,88	0,6412	134,59	699,63	0,05160	
27,90	0,6414	138,15	699,55	0,05167	
27,92	0,6415	140,39	699,39	0,05173	
27,94	0,6415	138,80	699,40	0,05173	
27,96	0,6416	137,64	699,52	0,05156	
27,98	0,6416	138,71	699,50	0,05142	
28,00	0,6415	139,69	699,36	0,05146	
28,02	0,6415	138,35	699,37	0,05150	
28,04	0,6416	136,47	699,56	0,05154	
28,06	0,6417	137,34	699,60	0,05158	
28,08	0,6415	140,65	699,44	0,05159	
28,10	0,6417	140,56	699,35	0,05151	
28,12	0,6421	137,88	699,47	0,05138	
28,14	0,6423	137,22	699,59	0,05137	
28,16	0,6422	138,97	699,50	0,05149	
28,18	0,6422	138,99	699,37	0,05156	
28,20	0,6422	136,84	699,42	0,05155	
28,22	0,6423	136,11	699,57	0,05161	
28,24	0,6423	138,00	699,54	0,05164	
28,26	0,6421	139,67	699,39	0,05159	
28,28	0,6422	138,25	699,39	0,05142	
28,30	0,6426	135,98	699,53	0,05135	
28,32	0,6429	136,73	699,55	0,05138	
28,34	0,6428	139,15	699,41	0,05149	
28,36	0,6428	139,30	699,36	0,05158	
28,38	0,6429	137,44	699,50	0,05162	
28,40	0,6430	137,22	699,59	0,05159	
28,42	0,6429	139,07	699,48	0,05147	
28,44	0,6428	139,42	699,35	0,05133	
28,46	0,6430	137,75	699,42	0,05130	
28,48	0,6434	136,66	699,56	0,05139	
28,50	0,6435	138,13	699,52	0,05150	
28,52	0,6435	139,26	699,37	0,05163	
28,54	0,6435	136,71	699,39	0,05168	
28,56	0,6436	134,68	699,54	0,05146	
28,58	0,6436	136,33	699,54	0,05130	
28,60	0,6435	138,87	699,39	0,05132	
28,62	0,6435	137,62	699,37	0,05132	
28,64	0,6436	134,69	699,54	0,05132	
28,66	0,6437	135,54	699,61	0,05141	
28,68	0,6436	138,67	699,47	0,05151	
28,70	0,6437	138,98	699,36	0,05149	
28,72	0,6441	136,11	699,45	0,05141	
28,74	0,6443	135,40	699,56	0,05126	
28,76	0,6442	137,82	699,47	0,05119	
28,78	0,6441	138,64	699,35	0,05118	
28,80	0,6442	135,74	699,46	0,05114	
28,82	0,6443	133,58	699,62	0,05115	
28,84	0,6443	135,71	699,56	0,05125	
28,86	0,6442	138,35	699,40	0,05137	
28,88	0,6445	136,57	699,41	0,05134	
28,90	0,6449	134,67	699,54	0,05122	
28,92	0,6450	136,39	699,52	0,05121	
28,94	0,6449	138,91	699,37	0,05126	
28,96	0,6449	137,46	699,38	0,05124	
28,98	0,6450	134,52	699,58	0,05122	
29,00	0,6450	135,60	699,63	0,05130	
29,02	0,6449	138,79	699,47	0,05142	
29,04	0,6450	138,32	699,38	0,05136	
29,06	0,6454	135,31	699,48	0,05120	
29,08	0,6456	135,87	699,52	0,05110	
29,10	0,6455	138,55	699,38	0,05106	
29,12	0,6455	137,25	699,35	0,05106	
29,14	0,6456	132,92	699,62	0,05112	
29,16	0,6457	132,59	699,80	0,05126	
29,18	0,6456	135,06	699,67	0,05135	
29,20	0,6456	136,91	699,43	0,05128	
29,22	0,6459	136,51	699,36	0,05111	
29,24	0,6462	135,79	699,47	0,05103	
29,26	0,6463	136,01	699,51	0,05102	
29,28	0,6464	136,51	699,39	0,05108	
29,30	0,6498	134,10	699,36	0,05117	
29,32	0,6557	130,57	699,56	0,05128	
29,34	0,6587	131,84	699,64	0,05130	
29,36	0,6591	135,27	699,50	0,05125	
29,38	0,6590	135,87	699,38	0,05110	
29,40	0,6590	133,42	699,44	0,05097	
29,42	0,6591	133,18	699,49	0,05098	
29,44	0,6590	135,43	699,39	0,05106	
29,46	0,6592	135,49	699,34	0,05114	
29,48	0,6596	131,61	699,53	0,05113	
29,50	0,6598	130,45	699,67	0,05115	
29,52	0,6598	133,78	699,56	0,05117	
29,54	0,6596	136,22	699,39	0,05105	
29,56	0,6596	135,16	699,40	0,05077	
29,58	0,6600	134,91	699,52	0,05055	
29,60	0,6603	140,16	699,49	0,05038	
29,62	0,6609	148,22	699,35	0,05009	
29,64	0,6620	155,92	699,40	0,04970	
29,66	0,6635	167,77	699,60	0,04917	
29,68	0,6654	188,91	699,61	0,04855	
29,70	0,6674	216,42	699,44	0,04779	
29,72	0,6701	243,56	699,37	0,04690	
29,74	0,6733	272,54	699,49	0,04592	
29,76	0,6767	309,04	699,54	0,04486	
29,78	0,6803	350,64	699,41	0,04386	
29,80	0,6846	392,02	699,35	0,04272	
29,82	0,6893	434,36	699,52	0,04123	
29,84	0,6943	483,95	699,65	0,03954	
29,86	0,6997	540,15	699,53	0,03758	
29,88	0,7055	596,37	699,38	0,03537	
29,90	0,7118	650,71	699,40	0,03300	
29,92	0,7186	707,14	699,50	0,03024	
29,94	0,7255	766,07	699,46	0,02701	
29,96	0,7328	823,44	699,34	0,02317	
29,98	0,7406	875,32	699,40	0,01865	
30,00	0,7490	923,33	699,61	0,01349	
30,02	0,7576	971,58	699,63	0,00779	
30,04	0,7664	1016,5	699,47	0,00148	
30,06	0,7759	1052,6	699,38	-0,00554	
30,08	0,7858	1082,0	699,47	-0,01303	
30,10	0,7961	1109,1	699,56	-0,02078	
30,12	0,8066	1133,6	699,47	-0,02891	
30,14	0,8175	1152,9	699,34	-0,03772	
30,16	0,8289	1168,2	699,42	-0,04701	
30,18	0,8408	1182,9	699,60	-0,05663	
30,20	0,8531	1198,6	699,59	-0,06659	
30,22	0,8656	1213,7	699,46	-0,07686	
30,24	0,8786	1226,3	699,36	-0,08752	
30,26	0,8920	1237,4	699,39	-0,09847	
30,28	0,9059	1247,2	699,49	-0,1097	
30,30	0,9201	1256,6	699,46	-0,1214	
30,32	0,9346	1265,9	699,34	-0,1336	
30,34	0,9497	1273,2	699,41	-0,1460	
30,36	0,9652	1279,6	699,64	-0,1587	
30,38	0,9811	1289,0	699,65	-0,1716	
30,40	0,9972	1300,6	699,45	-0,1849	
30,42	1,014	1308,0	699,38	-0,1987	
30,44	1,031	1311,9	699,54	-0,2127	
30,46	1,048	1319,2	699,59	-0,2270	
30,48	1,066	1328,0	699,43	-0,2418	
30,50	1,084	1332,5	699,36	-0,2572	
30,52	1,103	1334,5	699,54	-0,2721	
30,54	1,122	1340,6	699,64	-0,2865	
30,56	1,141	1349,7	699,50	-0,3014	
30,58	1,161	1354,9	699,37	-0,3171	
30,60	1,181	1356,5	699,45	-0,3330	
30,62	1,201	1359,6	699,54	-0,3489	
30,64	1,221	1365,2	699,47	-0,3648	
30,66	1,241	1368,6	699,35	-0,3808	
30,68	1,261	1369,5	699,37	-0,3968	
30,70	1,281	1370,5	699,59	-0,4127	
30,72	1,301	1373,9	699,70	-0,4284	
30,74	1,321	1377,8	699,57	-0,4446	
30,76	1,341	1381,6	699,41	-0,4616	
30,78	1,361	1383,8	699,40	-0,4787	
30,80	1,381	1385,6	699,50	-0,4952	
30,82	1,401	1387,6	699,50	-0,5114	
30,84	1,421	1388,8	699,41	-0,5276	
30,86	1,441	1389,5	699,35	-0,5439	
30,88	1,461	1390,7	699,44	-0,5602	
30,90	1,481	1392,5	699,55	-0,5764	
30,92	1,501	1395,6	699,52	-0,5926	
30,94	1,521	1398,5	699,41	-0,6091	
30,96	1,541	1399,5	699,37	-0,6257	
30,98	1,561	1400,0	699,46	-0,6421	
31,00	1,581	1401,1	699,55	-0,6584	
31,02	1,601	1402,6	699,48	-0,6747	
31,04	1,621	1403,9	699,38	-0,6913	
31,06	1,641	1405,1	699,35	-0,7080	
31,08	1,661	1405,4	699,51	-0,7246	
31,10	1,681	1405,3	699,78	-0,7410	
31,12	1,701	1405,9	699,81	-0,7575	
31,14	1,721	1408,6	699,61	-0,7740	
31,16	1,741	1412,6	699,45	-0,7907	
31,18	1,761	1414,9	699,44	-0,8073	
31,20	1,781	1415,7	699,44	-0,8241	
31,22	1,801	1415,2	699,37	-0,8408	
31,24	1,821	1413,4	699,37	-0,8576	
31,26	1,841	1410,1	699,51	-0,8744	
31,28	1,861	1409,6	699,61	-0,8910	
31,30	1,881	1413,3	699,52	-0,9077	
31,32	1,901	1417,1	699,39	-0,9245	
31,34	1,921	1417,4	699,39	-0,9414	
31,36	1,941	1417,0	699,46	-0,9583	
31,38	1,961	1418,0	699,46	-0,9752	
31,40	1,981	1418,2	699,39	-0,9922	
31,42	2,001	1417,0	699,37	-1,009	
31,44	2,021	1416,2	699,46	-1,026	
31,46	2,041	1417,5	699,52	-1,043	
31,48	2,061	1420,6	699,43	-1,060	
31,50	2,081	1421,7	699,35	-1,077	
31,52	2,101	1420,1	699,48	-1,094	
31,54	2,121	1419,3	699,63	-1,112	
31,56	2,141	1421,6	699,58	-1,129	
31,58	2,161	1424,1	699,43	-1,146	
31,60	2,181	1423,2	699,40	-1,163	
31,62	2,201	1422,2	699,47	-1,180	
31,64	2,221	1423,9	699,45	-1,197	
31,66	2,241	1424,9	699,35	-1,214	
31,68	2,261	1422,7	699,40	-1,232	
31,70	2,281	1419,7	699,58	-1,249	
31,72	2,301	1421,2	699,62	-1,266	
31,74	2,321	1424,7	699,47	-1,283	
31,76	2,341	1425,3	699,41	-1,301	
31,78	2,361	1423,7	699,50	-1,318	
31,80	2,381	1424,4	699,48	-1,335	
31,82	2,401	1425,6	699,37	-1,353	
31,84	2,421	1423,2	699,44	-1,371	
31,86	2,441	1419,7	699,62	-1,388	
31,88	2,461	1421,2	699,60	-1,405	
31,90	2,481	1423,7	699,44	-1,423	
31,92	2,501	1422,1	699,41	-1,440	
31,94	2,521	1420,0	699,52	-1,458	
31,96	2,541	1420,8	699,51	-1,476	
31,98	2,561	1421,9	699,41	-1,493	
32,00	2,581	1419,6	699,40	-1,511	
32,02	2,601	1417,1	699,49	-1,528	
32,04	2,621	1417,9	699,49	-1,546	
32,06	2,641	1419,8	699,38	-1,564	
32,08	2,661	1418,5	699,39	-1,581	
32,10	2,681	1415,7	699,56	-1,599	
32,12	2,701	1415,8	699,61	-1,617	
32,14	2,721	1418,3	699,48	-1,634	
32,16	2,741	1417,8	699,40	-1,652	
32,18	2,761	1414,8	699,48	-1,670	
32,20	2,781	1414,7	699,51	-1,688	
32,22	2,801	1416,3	699,39	-1,706	
32,24	2,821	1414,1	699,37	-1,724	
32,26	2,841	1409,9	699,54	-1,742	
32,28	2,861	1409,7	699,62	-1,759	
32,30	2,881	1412,5	699,50	-1,777	
32,32	2,901	1412,3	699,42	-1,795	
32,34	2,921	1409,0	699,50	-1,813	
32,36	2,941	1409,0	699,49	-1,831	
32,38	2,961	1411,0	699,38	-1,849	
32,40	2,981	1409,1	699,39	-1,867	
32,42	3,001	1405,2	699,53	-1,885	
32,44	3,021	1405,4	699,54	-1,903	
32,46	3,041	1407,4	699,40	-1,921	
32,48	3,061	1406,2	699,40	-1,940	
32,50	3,081	1403,0	699,57	-1,958	
32,52	3,101	1402,5	699,62	-1,976	
32,54	3,121	1404,6	699,48	-1,994	
32,56	3,141	1403,6	699,43	-2,012	
32,58	3,161	1400,6	699,54	-2,030	
32,60	3,181	1400,2	699,53	-2,048	
32,62	3,201	1401,4	699,42	-2,067	
32,64	3,221	1399,1	699,42	-2,085	
32,66	3,241	1395,3	699,52	-2,103	
32,68	3,261	1395,6	699,48	-2,121	
32,70	3,281	1396,9	699,37	-2,140	
32,72	3,301	1394,1	699,43	-2,158	
32,74	3,321	1390,6	699,57	-2,176	
32,76	3,341	1391,6	699,54	-2,195	
32,78	3,361	1393,7	699,42	-2,213	
32,80	3,381	1391,5	699,45	-2,232	
32,82	3,401	1389,0	699,51	-2,250	
32,84	3,421	1389,9	699,44	-2,269	
32,86	3,441	1389,2	699,36	-2,287	
32,88	3,461	1384,6	699,49	-2,306	
32,90	3,481	1382,0	699,63	-2,324	
32,92	3,501	1383,6	699,54	-2,343	
32,94	3,521	1384,9	699,44	-2,361	
32,96	3,541	1382,2	699,55	-2,380	
32,98	3,561	1380,7	699,58	-2,398	
33,00	3,581	1382,5	699,45	-2,417	
33,02	3,601	1380,9	699,46	-2,436	
33,04	3,621	1376,2	699,55	-2,454	
33,06	3,641	1375,7	699,49	-2,473	
33,08	3,661	1376,7	699,40	-2,492	
33,10	3,681	1373,6	699,45	-2,510	
33,12	3,701	1369,7	699,52	-2,529	
33,14	3,721	1370,2	699,44	-2,547	
33,16	3,741	1370,8	699,38	-2,566	
33,18	3,761	1367,5	699,49	-2,585	
33,20	3,781	1365,5	699,57	-2,604	
33,22	3,801	1367,1	699,47	-2,623	
33,24	3,821	1366,6	699,42	-2,641	
33,26	3,841	1362,4	699,54	-2,660	
33,28	3,861	1361,3	699,54	-2,679	
33,30	3,881	1362,4	699,43	-2,697	
33,32	3,901	1359,8	699,46	-2,716	
33,34	3,921	1355,8	699,54	-2,735	
33,36	3,941	1355,8	699,46	-2,754	
33,38	3,961	1356,4	699,39	-2,773	
33,40	3,981	1352,1	699,50	-2,792	
33,42	4,001	1349,0	699,57	-2,811	
33,44	4,021	1350,2	699,47	-2,829	
33,46	4,041	1349,7	699,44	-2,848	
33,48	4,061	1345,8	699,50	-2,868	
33,50	4,081	1345,3	699,46	-2,886	
33,52	4,101	1346,4	699,38	-2,905	
33,54	4,121	1343,4	699,44	-2,924	
33,56	4,141	1339,1	699,59	-2,943	
33,58	4,161	1338,7	699,55	-2,962	
33,60	4,181	1339,3	699,43	-2,981	
33,62	4,201	1336,5	699,49	-3,000	
33,64	4,221	1334,1	699,56	-3,019	
33,66	4,241	1335,3	699,47	-3,038	
33,68	4,261	1334,2	699,42	-3,057	
33,70	4,281	1328,5	699,54	-3,076	
33,72	4,301	1326,3	699,53	-3,095	
33,74	4,321	1328,1	699,43	-3,114	
33,76	4,341	1325,5	699,49	-3,133	
33,78	4,361	1321,0	699,59	-3,152	
33,80	4,381	1321,1	699,50	-3,171	
33,82	4,401	1321,0	699,46	-3,191	
33,84	4,421	1317,0	699,57	-3,210	
33,86	4,441	1315,0	699,55	-3,229	
33,88	4,461	1316,1	699,44	-3,248	
33,90	4,481	1313,4	699,51	-3,267	
33,92	4,501	1308,6	699,58	-3,286	
33,94	4,521	1308,0	699,48	-3,306	
33,96	4,541	1307,3	699,46	-3,325	
33,98	4,561	1302,9	699,60	-3,344	
34,00	4,581	1301,1	699,58	-3,363	
34,02	4,601	1302,0	699,46	-3,382	
34,04	4,621	1298,7	699,53	-3,402	
34,06	4,641	1294,8	699,57	-3,421	
34,08	4,661	1295,1	699,45	-3,440	
34,10	4,681	1293,6	699,48	-3,460	
34,12	4,701	1288,0	699,61	-3,479	
34,14	4,721	1285,8	699,56	-3,498	
34,16	4,741	1286,9	699,46	-3,517	
34,18	4,761	1283,1	699,61	-3,537	
34,20	4,781	1278,6	699,69	-3,556	
34,22	4,801	1279,1	699,54	-3,575	
34,24	4,821	1278,0	699,54	-3,595	
34,26	4,841	1273,1	699,72	-3,614	
34,28	4,861	1271,4	699,69	-3,633	
34,30	4,881	1272,0	699,52	-3,653	
34,32	4,901	1268,3	699,64	-3,672	
34,34	4,921	1263,1	699,79	-3,691	
34,36	4,941	1262,4	699,66	-3,711	
34,38	4,961	1262,2	699,52	-3,730	
34,40	4,981	1257,3	699,69	-3,750	
34,42	5,001	1253,0	699,79	-3,769	
34,44	5,021	1252,4	699,64	-3,788	
34,46	5,041	1251,3	699,53	-3,808	
34,48	5,061	1245,8	699,90	-3,827	
34,50	5,081	1241,6	700,22	-3,847	
34,52	5,101	1240,8	700,11	-3,866	
34,54	5,121	1239,5	699,76	-3,886	
34,56	5,141	1237,3	699,54	-3,905	
34,58	5,161	1234,2	699,77	-3,925	
34,60	5,181	1231,7	699,99	-3,944	
34,62	5,201	1229,3	699,83	-3,964	
34,64	5,221	1227,0	699,56	-3,983	
34,66	5,241	1222,6	699,67	-4,003	
34,68	5,261	1218,0	699,90	-4,022	
34,70	5,281	1216,7	699,81	-4,042	
34,72	5,301	1216,0	699,55	-4,061	
34,74	5,321	1212,2	699,68	-4,081	
34,76	5,341	1206,6	700,06	-4,100	
34,78	5,361	1203,9	700,11	-4,120	
34,80	5,381	1202,2	699,84	-4,139	
34,82	5,401	1200,0	699,55	-4,159	
34,84	5,421	1196,1	699,68	-4,178	
34,86	5,441	1192,9	699,94	-4,198	
34,88	5,461	1190,5	699,88	-4,217	
34,90	5,481	1188,1	699,60	-4,237	
34,92	5,501	1184,0	699,64	-4,256	
34,94	5,521	1178,6	699,91	-4,276	
34,96	5,541	1176,6	699,90	-4,296	
34,98	5,561	1175,6	699,63	-4,315	
35,00	5,581	1172,5	699,61	-4,335	
35,02	5,601	1166,4	700,00	-4,354	
35,04	5,621	1163,1	700,13	-4,374	
35,06	5,641	1161,5	699,90	-4,393	
35,08	5,661	1159,0	699,57	-4,413	
35,10	5,681	1154,9	699,70	-4,433	
35,12	5,701	1150,6	700,15	-4,453	
35,14	5,721	1146,9	700,24	-4,472	
35,16	5,741	1143,0	699,95	-4,492	
35,18	5,761	1139,6	699,59	-4,511	
35,20	5,781	1135,8	699,73	-4,531	
35,22	5,801	1131,2	700,26	-4,551	
35,24	5,821	1127,1	700,43	-4,570	
35,26	5,841	1123,3	700,17	-4,590	
35,28	5,861	1118,7	699,76	-4,610	
35,30	5,881	1115,6	699,53	-4,629	
35,32	5,901	1112,6	699,84	-4,649	
35,34	5,921	1108,1	700,12	-4,669	
35,36	5,941	1103,9	700,01	-4,689	
35,38	5,961	1100,6	699,66	-4,708	
35,40	5,981	1097,1	699,62	-4,728	
35,42	6,001	1091,8	700,17	-4,748	
35,44	6,021	1087,4	700,51	-4,768	
35,46	6,041	1083,4	700,34	-4,787	
35,48	6,061	1078,6	699,94	-4,807	
35,50	6,081	1074,8	699,60	-4,827	
35,52	6,101	1071,7	699,71	-4,847	
35,54	6,121	1067,7	699,99	-4,867	
35,56	6,141	1062,8	699,92	-4,887	
35,58	6,161	1058,9	699,61	-4,906	
35,60	6,181	1054,1	699,69	-4,926	
35,62	6,201	1047,0	700,25	-4,946	
35,64	6,221	1042,3	700,50	-4,966	
35,66	6,241	1038,7	700,28	-4,985	
35,68	6,261	1034,4	699,88	-5,005	
35,70	6,281	1029,7	699,56	-5,025	
35,72	6,301	1025,2	699,88	-5,045	
35,74	6,321	1018,8	700,37	-5,064	
35,76	6,341	1012,7	700,39	-5,084	
35,78	6,361	1007,4	700,06	-5,104	
35,80	6,381	1002,8	699,66	-5,124	
35,82	6,401	999,23	699,65	-5,144	
35,84	6,421	994,49	700,09	-5,163	
35,86	6,441	988,38	700,25	-5,183	
35,88	6,461	982,54	700,00	-5,203	
35,90	6,481	977,73	699,62	-5,223	
35,92	6,501	971,87	699,74	-5,243	
35,94	6,521	964,95	700,37	-5,263	
35,96	6,541	959,54	700,61	-5,283	
35,98	6,561	954,28	700,37	-5,302	
36,00	6,581	948,13	699,95	-5,322	
36,02	6,601	942,59	699,60	-5,342	
36,04	6,621	937,98	699,69	-5,362	
36,06	6,641	931,60	699,96	-5,382	
36,08	6,661	924,61	699,90	-5,402	
36,10	6,681	918,48	699,60	-5,422	
36,12	6,701	912,49	699,80	-5,442	
36,14	6,721	903,35	700,61	-5,462	
36,16	6,741	896,02	701,00	-5,482	
36,18	6,761	889,44	700,80	-5,501	
36,20	6,781	881,59	700,38	-5,521	
36,22	6,801	873,55	699,94	-5,541	
36,24	6,821	869,79	699,62	-5,561	
36,26	6,841	864,48	699,64	-5,581	
36,28	6,861	855,87	699,69	-5,601	
36,30	6,881	848,82	699,53	-5,621	
36,32	6,901	841,98	699,63	-5,641	
36,34	6,921	831,45	700,08	-5,662	
36,36	6,941	822,94	700,21	-5,682	
36,38	6,961	816,75	699,94	-5,702	
36,40	6,981	809,60	699,59	-5,722	
36,42	7,001	800,55	699,75	-5,742	
36,44	7,021	790,45	700,21	-5,763	
36,46	7,041	780,48	700,27	-5,783	
36,48	7,061	770,65	699,95	-5,803	
36,50	7,081	761,25	699,60	-5,823	
36,52	7,101	750,68	699,87	-5,844	
36,54	7,121	738,64	700,45	-5,864	
36,56	7,141	726,98	700,57	-5,885	
36,58	7,161	714,94	700,29	-5,905	
36,60	7,181	702,03	699,87	-5,925	
36,62	7,201	690,36	699,56	-5,946	
36,64	7,221	678,91	699,81	-5,966	
36,66	7,241	664,13	700,21	-5,987	
36,68	7,261	648,85	700,20	-6,008	
36,70	7,281	634,08	699,88	-6,028	
36,72	7,301	619,44	699,58	-6,049	
36,74	7,321	602,32	699,94	-6,070	
36,76	7,341	583,00	700,49	-6,092	
36,78	7,361	563,15	700,54	-6,113	
36,80	7,381	542,94	700,23	-6,135	
36,82	7,401	520,75	699,83	-6,156	
36,84	7,421	498,75	699,56	-6,178	
36,86	7,441	473,98	699,82	-6,201	
36,88	7,461	443,41	700,13	-6,223	
36,90	7,481	410,14	700,04	-6,245	
36,92	7,501	377,47	699,70	-6,266	
36,94	7,521	345,85	699,62	-6,287	
36,96	7,541	313,62	700,18	-6,309	
36,98	7,561	284,19	700,55	-6,330	
37,00	7,581	258,43	700,42	-6,350	
37,02	7,601	235,33	700,04	-6,371	
37,04	7,621	215,01	699,66	-6,391	
37,06	7,641	198,60	699,71	-6,410	
37,08	7,661	180,89	700,18	-6,426	
37,10	7,680	161,57	700,33	-6,437	
37,12	7,699	143,64	700,07	-6,442	
37,14	7,713	128,44	699,69	-6,445	
37,16	7,724	115,37	699,66	-6,448	
37,18	7,730	103,95	700,25	-6,450	
37,20	7,734	93,09	700,57	-6,451	
37,22	7,735	82,39	700,40	-6,451	
37,24	7,735	72,69	700,02	-6,451	
37,26	7,736	64,32	699,66	-6,451	
37,28	7,736	60,75	699,63	-6,452	
37,30	7,736	58,13	700,07	-6,453	
37,32	7,736	54,55	700,28	-6,453	
37,34	7,736	51,41	700,09	-6,453	
37,36	7,736	49,01	699,75	-6,453	
37,38	7,736	47,87	699,56	-6,453	
37,40	7,736	47,58	699,88	-6,454	
37,42	7,736	46,63	700,18	-6,454	
37,44	7,736	45,67	700,10	-6,454	
37,46	7,736	44,15	699,81	-6,454	
37,48	7,736	43,28	699,56	-6,454	
37,50	7,736	43,08	699,79	-6,455	
37,52	7,736	42,81	700,17	-6,455	
37,54	7,736	42,49	700,19	-6,455	
37,56	7,736	42,43	699,95	-6,455	
37,58	7,736	42,53	699,66	-6,455	
37,60	7,736	42,86	699,57	-6,455	
37,62	7,736	42,41	699,90	-6,456	
37,64	7,736	42,24	700,11	-6,456	
37,66	7,736	42,24	699,99	-6,456	
37,68	7,736	42,30	699,71	-6,456	
37,70	7,736	42,78	699,51	-6,456	
37,72	7,736	42,54	699,82	-6,457	
37,74	7,736	42,19	700,31	-6,457	
37,76	7,736	42,28	700,39	-6,457	
37,78	7,736	42,38	700,16	-6,457	
37,80	7,736	42,42	699,87	-6,457	
37,82	7,736	42,65	699,61	-6,457	
37,84	7,736	42,72	699,60	-6,458	
37,86	7,736	42,22	699,88	-6,458	
37,88	7,736	42,20	699,98	-6,458	
37,90	7,736	42,39	699,80	-6,458	
37,92	7,736	42,87	699,57	-6,458	
37,94	7,736	42,73	699,73	-6,459	
37,96	7,736	42,21	700,12	-6,459	
37,98	7,736	42,14	700,18	-6,459	
38,00	7,736	42,28	699,95	-6,459	
38,02	7,736	40,15	699,66	-6,459	
38,04	7,736	36,96	699,57	-6,459	
38,06	7,736	35,89	699,93	-6,460	
38,08	7,736	35,51	700,17	-6,460	
38,10	7,736	34,17	700,05	-6,460	
38,12	7,736	32,86	699,77	-6,460	
38,14	7,736	32,96	699,55	-6,460	
38,16	7,736	33,74	699,82	-6,461	
38,18	7,736	33,37	700,25	-6,461	
38,20	7,736	32,60	700,29	-6,461	
38,22	7,736	31,50	700,04	-6,461	
38,24	7,736	29,98	699,72	-6,461	
38,26	7,736	30,73	699,55	-6,461	
38,28	7,736	32,81	699,88	-6,462	
38,30	7,736	33,06	700,19	-6,462	
38,32	7,736	31,81	700,13	-6,462	
38,34	7,736	30,07	699,86	-6,461	
38,36	7,736	29,42	699,58	-6,461	
38,38	7,736	30,57	699,69	-6,462	
38,40	7,736	31,07	700,17	-6,463	
38,42	7,736	30,05	700,33	-6,463	
38,44	7,736	29,20	700,12	-6,462	
38,46	7,736	28,78	699,81	-6,462	
38,48	7,736	28,16	699,50	-6,462	
38,50	7,736	31,62	699,22	-6,462	
38,52	7,736	37,24	698,94	-6,462	
38,54	7,736	41,77	698,67	-6,463	
38,56	7,736	45,32	698,39	-6,463	
38,58	7,736	48,66	698,09	-6,463	
38,60	7,736	51,47	697,80	-6,463	
38,62	7,736	53,86	697,49	-6,463	
38,64	7,736	55,33	697,17	-6,464	
38,66	7,736	56,55	696,84	-6,464	
38,68	7,736	58,10	696,50	-6,464	
38,70	7,736	59,25	696,16	-6,464	
38,72	7,736	60,85	695,80	-6,464	
38,74	7,736	62,18	695,43	-6,465	
38,76	7,736	62,61	695,03	-6,465	
38,78	7,736	62,59	694,62	-6,465	
38,80	7,736	62,53	694,22	-6,465	
38,82	7,736	62,51	693,82	-6,465	
38,84	7,736	62,58	693,39	-6,466	
38,86	7,736	63,17	692,95	-6,466	
38,88	7,736	63,40	692,47	-6,466	
38,90	7,736	63,05	692,00	-6,467	
38,92	7,736	62,76	691,53	-6,467	
38,94	7,736	62,63	691,04	-6,467	
38,96	7,736	62,62	690,57	-6,467	
38,98	7,736	62,65	690,07	-6,468	
39,00	7,736	62,65	689,57	-6,468	
39,02	7,736	61,88	689,07	-6,468	
39,04	7,736	60,41	688,56	-6,468	
39,06	7,736	59,57	688,02	-6,468	
39,08	7,736	59,43	687,49	-6,469	
39,10	7,736	58,71	686,95	-6,469	
39,12	7,736	57,14	686,40	-6,469	
39,14	7,736	56,13	685,86	-6,470	
39,16	7,736	55,87	685,33	-6,470	
39,18	7,736	55,22	684,80	-6,470	
39,20	7,736	53,83	684,24	-6,470	
39,22	7,736	53,00	683,68	-6,471	
39,24	7,736	52,79	683,11	-6,471	
39,26	7,736	52,81	682,54	-6,471	
39,28	7,736	52,82	681,96	-6,471	
39,30	7,736	52,81	681,38	-6,471	
39,32	7,736	52,82	680,80	-6,472	
39,34	7,736	52,78	680,22	-6,472	
39,36	7,736	52,77	679,64	-6,472	
39,38	7,736	52,85	679,06	-6,472	
39,40	7,736	52,84	678,48	-6,472	
39,42	7,736	52,77	677,91	-6,473	
39,44	7,736	52,99	677,33	-6,473	
39,46	7,736	54,37	676,75	-6,473	
39,48	7,736	55,65	676,15	-6,473	
39,50	7,736	56,11	675,56	-6,474	
39,52	7,736	56,11	674,97	-6,474	
39,54	7,736	55,98	674,40	-6,474	
39,56	7,736	56,14	673,82	-6,474	
39,58	7,736	57,52	673,23	-6,475	
39,60	7,736	58,89	672,64	-6,475	
39,62	7,736	59,46	672,06	-6,475	
39,64	7,736	59,49	671,47	-6,475	
39,66	7,736	59,64	670,88	-6,475	
39,68	7,736	60,91	670,28	-6,476	
39,70	7,736	62,23	669,68	-6,476	
39,72	7,736	62,76	669,10	-6,476	
39,74	7,736	63,00	668,51	-6,476	
39,76	7,736	64,25	667,92	-6,476	
39,78	7,736	65,57	667,32	-6,476	
39,80	7,736	66,10	666,72	-6,477	
39,82	7,736	66,09	666,14	-6,477	
39,84	7,736	66,01	665,55	-6,477	
39,86	7,736	66,20	664,95	-6,477	
39,88	7,736	67,53	664,34	-6,477	
39,90	7,736	68,86	663,75	-6,478	
39,92	7,736	69,42	663,15	-6,478	
39,94	7,736	69,47	662,54	-6,478	
39,96	7,736	70,18	661,95	-6,478	
39,98	7,736	71,76	661,36	-6,478	
40,00	7,736	72,68	660,77	-6,479	
40,02	7,736	72,86	660,18	-6,479	
40,04	7,736	72,83	659,60	-6,479	
40,06	7,736	72,77	659,01	-6,479	
40,08	7,736	73,52	658,42	-6,479	
40,10	7,736	75,09	657,83	-6,480	
40,12	7,736	75,98	657,24	-6,480	
40,14	7,736	76,18	656,65	-6,480	
40,16	7,736	76,17	656,07	-6,480	
40,18	7,736	76,88	655,47	-6,480	
40,20	7,736	78,33	654,89	-6,481	
40,22	7,736	79,22	654,31	-6,481	
40,24	7,736	79,49	653,72	-6,481	
40,26	7,736	79,51	653,16	-6,481	
40,28	7,736	79,67	652,59	-6,481	
40,30	7,736	80,96	652,00	-6,482	
40,32	7,736	82,27	651,40	-6,482	
40,34	7,736	82,78	650,79	-6,482	
40,36	7,736	82,89	650,19	-6,482	
40,38	7,736	82,90	649,60	-6,482	
40,40	7,736	82,93	649,02	-6,483	
40,42	7,736	83,64	648,43	-6,483	
40,44	7,736	85,16	647,85	-6,483	
40,46	7,736	86,05	647,29	-6,483	
40,48	7,736	86,28	646,72	-6,483	
40,50	7,736	86,32	646,15	-6,484	
40,52	7,736	86,32	645,59	-6,484	
40,54	7,736	86,31	645,04	-6,484	
40,56	7,736	87,02	644,48	-6,484	
40,58	7,736	88,57	643,91	-6,484	
40,60	7,736	89,44	643,36	-6,485	
40,62	7,736	89,59	642,81	-6,485	
40,64	7,736	89,61	642,27	-6,485	
40,66	7,736	89,64	641,74	-6,485	
40,68	7,736	89,65	641,19	-6,485	
40,70	7,736	90,37	640,63	-6,485	
40,72	7,736	91,84	640,08	-6,486	
40,74	7,736	92,70	639,54	-6,486	
40,76	7,736	92,94	638,99	-6,486	
40,78	7,736	92,99	638,44	-6,486	
40,80	7,736	93,01	637,88	-6,486	
40,82	7,736	93,04	637,31	-6,487	
40,84	7,736	93,07	636,74	-6,487	
40,86	7,736	93,79	636,18	-6,487	
40,88	7,736	95,23	635,64	-6,487	
40,90	7,736	96,09	635,09	-6,487	
40,92	7,736	96,31	634,53	-6,487	
40,94	7,736	96,33	633,98	-6,488	
40,96	7,736	96,30	633,44	-6,488	
40,98	7,736	96,32	632,90	-6,488	
41,00	7,736	96,41	632,37	-6,488	
41,02	7,736	96,62	631,83	-6,488	
41,04	7,736	97,81	631,30	-6,489	
41,06	7,736	99,07	630,77	-6,489	
41,08	7,736	99,60	630,23	-6,489	
41,10	7,736	99,61	629,69	-6,489	
41,12	7,736	99,60	629,16	-6,489	
41,14	7,736	99,63	628,64	-6,490	
41,16	7,736	99,82	628,11	-6,490	
41,18	7,736	101,21	627,60	-6,490	
41,20	7,736	102,61	627,07	-6,490	
41,22	7,736	103,09	626,54	-6,490	
41,24	7,736	103,12	626,02	-6,490	
41,26	7,736	103,09	625,50	-6,491	
41,28	7,736	103,07	624,98	-6,491	
41,30	7,736	103,26	624,47	-6,491	
41,32	7,736	104,60	623,95	-6,491	
41,34	7,736	105,93	623,44	-6,491	
41,36	7,736	106,44	622,92	-6,491	
41,38	7,736	106,48	622,39	-6,492	
41,40	7,736	106,40	621,85	-6,492	
41,42	7,736	106,39	621,32	-6,492	
41,44	7,736	106,40	620,80	-6,492	
41,46	7,736	106,43	620,28	-6,492	
41,48	7,736	106,68	619,77	-6,493	
41,50	7,736	107,99	619,25	-6,493	
41,52	7,736	109,25	618,73	-6,493	
41,54	7,736	109,76	618,23	-6,493	
41,56	7,736	109,89	617,72	-6,493	
41,58	7,736	109,87	617,20	-6,493	
41,60	7,736	109,81	616,68	-6,494	
41,62	7,736	109,82	616,17	-6,494	
41,64	7,736	109,83	615,66	-6,494	
41,66	7,736	109,82	615,16	-6,494	
41,68	7,736	109,78	614,65	-6,494	
41,70	7,736	109,75	614,14	-6,495	
41,72	7,736	110,49	613,64	-6,495	
41,74	7,736	112,06	613,14	-6,495	
41,76	7,736	112,97	612,64	-6,495	
41,78	7,736	113,23	612,14	-6,495	
41,80	7,736	113,24	611,65	-6,495	
41,82	7,736	113,23	611,15	-6,496	
41,84	7,736	113,23	610,66	-6,496	
41,86	7,736	113,19	610,17	-6,496	
41,88	7,736	113,35	609,67	-6,496	
41,90	7,736	114,68	609,17	-6,496	
41,92	7,736	116,02	608,69	-6,497	
41,94	7,736	116,55	608,19	-6,497	
41,96	7,736	116,58	607,70	-6,497	