Zeit  1 - Standardmessrate [s]	ZwickWeg [mm]	ZwickKraft [N]	Pyrometer [°C]	Maytec [mm]
0	0,1813	156,82	150,09	-0,02037	
0,02000	0,1813	156,87	150,09	-0,02031	
0,04000	0,1814	156,91	150,09	-0,02021	
0,06000	0,1813	156,85	150,09	-0,02014	
0,08000	0,1813	156,80	150,09	-0,02016	
0,1000	0,1813	156,81	150,09	-0,02030	
0,1200	0,1813	156,86	150,09	-0,02049	
0,1400	0,1813	156,92	150,09	-0,02053	
0,1600	0,1813	156,94	150,09	-0,02047	
0,1800	0,1813	156,94	150,09	-0,02043	
0,2000	0,1813	156,93	150,09	-0,02027	
0,2200	0,1813	156,89	150,09	-0,02017	
0,2400	0,1813	156,88	150,09	-0,02022	
0,2600	0,1813	156,91	150,09	-0,02033	
0,2800	0,1813	156,93	150,09	-0,02038	
0,3000	0,1813	156,97	150,09	-0,02036	
0,3200	0,1813	156,97	150,10	-0,02030	
0,3400	0,1813	156,94	150,09	-0,02023	
0,3600	0,1813	156,92	150,10	-0,02022	
0,3800	0,1813	156,91	150,10	-0,02028	
0,4000	0,1813	156,86	150,09	-0,02038	
0,4200	0,1813	156,86	150,09	-0,02042	
0,4400	0,1813	156,92	150,09	-0,02043	
0,4600	0,1813	157,02	150,09	-0,02036	
0,4800	0,1813	157,06	150,09	-0,02019	
0,5000	0,1813	156,99	150,09	-0,02009	
0,5200	0,1813	156,92	150,09	-0,02016	
0,5400	0,1813	156,89	150,09	-0,02036	
0,5600	0,1813	156,89	150,09	-0,02048	
0,5800	0,1816	156,95	150,09	-0,02050	
0,6000	0,1819	156,98	150,09	-0,02044	
0,6200	0,1820	156,95	150,09	-0,02034	
0,6400	0,1820	156,92	150,09	-0,02025	
0,6600	0,1820	156,96	150,09	-0,02013	
0,6800	0,1820	156,93	150,09	-0,02013	
0,7000	0,1820	156,87	150,09	-0,02030	
0,7200	0,1820	156,89	150,08	-0,02043	
0,7400	0,1820	156,89	150,08	-0,02042	
0,7600	0,1820	156,88	150,08	-0,02034	
0,7800	0,1820	156,90	150,08	-0,02027	
0,8000	0,1820	156,94	150,08	-0,02019	
0,8200	0,1820	156,94	150,09	-0,02024	
0,8400	0,1820	156,88	150,09	-0,02040	
0,8600	0,1820	156,87	150,09	-0,02046	
0,8800	0,1820	156,88	150,09	-0,02041	
0,9000	0,1820	156,86	150,09	-0,02033	
0,9200	0,1820	156,89	150,09	-0,02030	
0,9400	0,1820	156,94	150,09	-0,02024	
0,9600	0,1820	157,01	150,09	-0,02018	
0,9800	0,1820	157,00	150,09	-0,02025	
1,000	0,1820	156,94	150,09	-0,02043	
1,020	0,1820	156,89	150,09	-0,02049	
1,040	0,1820	156,90	150,09	-0,02040	
1,060	0,1820	156,90	150,09	-0,02027	
1,080	0,1820	156,94	150,09	-0,02016	
1,100	0,1820	156,91	150,09	-0,02015	
1,120	0,1820	156,87	150,09	-0,02024	
1,140	0,1820	156,81	150,09	-0,02040	
1,160	0,1820	156,78	150,09	-0,02048	
1,180	0,1820	156,81	150,09	-0,02048	
1,200	0,1820	156,84	150,09	-0,02040	
1,220	0,1820	156,85	150,09	-0,02025	
1,240	0,1820	156,84	150,09	-0,02012	
1,260	0,1820	156,84	150,09	-0,02008	
1,280	0,1820	156,85	150,09	-0,02023	
1,300	0,1820	156,82	150,09	-0,02046	
1,320	0,1820	156,80	150,09	-0,02049	
1,340	0,1820	156,80	150,09	-0,02040	
1,360	0,1820	156,73	150,09	-0,02030	
1,380	0,1820	156,72	150,09	-0,02021	
1,400	0,1820	156,83	150,09	-0,02016	
1,420	0,1820	156,91	150,09	-0,02027	
1,440	0,1820	156,88	150,09	-0,02046	
1,460	0,1820	156,88	150,09	-0,02050	
1,480	0,1820	156,90	150,09	-0,02040	
1,500	0,1820	156,89	150,09	-0,02023	
1,520	0,1820	156,85	150,09	-0,02012	
1,540	0,1820	156,88	150,09	-0,02010	
1,560	0,1820	156,90	150,09	-0,02017	
1,580	0,1820	156,88	150,08	-0,02028	
1,600	0,1820	156,83	150,08	-0,02038	
1,620	0,1820	156,75	150,08	-0,02044	
1,640	0,1820	156,78	150,08	-0,02037	
1,660	0,1820	156,86	150,08	-0,02024	
1,680	0,1820	156,89	150,08	-0,02017	
1,700	0,1820	156,88	150,08	-0,02020	
1,720	0,1820	156,88	150,09	-0,02029	
1,740	0,1820	156,89	150,09	-0,02040	
1,760	0,1820	156,87	150,09	-0,02044	
1,780	0,1820	156,81	150,09	-0,02036	
1,800	0,1820	156,80	150,09	-0,02027	
1,820	0,1820	156,82	150,09	-0,02030	
1,840	0,1820	156,83	150,09	-0,02030	
1,860	0,1820	156,83	150,09	-0,02027	
1,880	0,1820	156,81	150,09	-0,02036	
1,900	0,1820	156,82	150,09	-0,02047	
1,920	0,1820	156,85	150,09	-0,02044	
1,940	0,1820	156,90	150,09	-0,02040	
1,960	0,1820	156,88	150,10	-0,02027	
1,980	0,1820	156,84	150,09	-0,02014	
2,000	0,1820	156,85	150,09	-0,02017	
2,020	0,1820	156,85	150,09	-0,02032	
2,040	0,1820	156,85	150,09	-0,02047	
2,060	0,1820	156,82	150,09	-0,02050	
2,080	0,1820	156,79	150,09	-0,02040	
2,100	0,1820	156,78	150,09	-0,02030	
2,120	0,1820	156,76	150,09	-0,02025	
2,140	0,1820	156,74	150,09	-0,02029	
2,160	0,1820	156,76	150,09	-0,02038	
2,180	0,1820	156,86	150,09	-0,02045	
2,200	0,1820	156,93	150,09	-0,02046	
2,220	0,1820	156,89	150,09	-0,02047	
2,240	0,1820	156,83	150,09	-0,02044	
2,260	0,1820	156,81	150,09	-0,02033	
2,280	0,1820	156,78	150,09	-0,02018	
2,300	0,1820	156,72	150,09	-0,02018	
2,320	0,1820	156,68	150,09	-0,02031	
2,340	0,1820	156,76	150,09	-0,02042	
2,360	0,1820	156,79	150,09	-0,02047	
2,380	0,1820	156,77	150,09	-0,02045	
2,400	0,1820	156,78	150,09	-0,02032	
2,420	0,1820	156,80	150,09	-0,02022	
2,440	0,1820	156,86	150,09	-0,02021	
2,460	0,1820	156,89	150,09	-0,02027	
2,480	0,1820	156,85	150,09	-0,02039	
2,500	0,1820	156,84	150,09	-0,02044	
2,520	0,1820	156,90	150,09	-0,02038	
2,540	0,1820	156,92	150,10	-0,02030	
2,560	0,1820	156,85	150,10	-0,02024	
2,580	0,1820	156,81	150,09	-0,02020	
2,600	0,1820	156,82	150,09	-0,02023	
2,620	0,1820	156,85	150,09	-0,02034	
2,640	0,1820	156,88	150,09	-0,02044	
2,660	0,1820	156,92	150,09	-0,02042	
2,680	0,1820	157,04	150,09	-0,02036	
2,700	0,1820	157,04	150,09	-0,02030	
2,720	0,1820	157,00	150,09	-0,02022	
2,740	0,1820	156,94	150,09	-0,02020	
2,760	0,1820	156,93	150,09	-0,02033	
2,780	0,1820	156,88	150,09	-0,02042	
2,800	0,1820	156,85	150,09	-0,02043	
2,820	0,1820	156,86	150,10	-0,02039	
2,840	0,1820	156,82	150,10	-0,02029	
2,860	0,1820	156,82	150,09	-0,02017	
2,880	0,1820	156,86	150,09	-0,02018	
2,900	0,1820	156,87	150,09	-0,02029	
2,920	0,1820	156,93	150,09	-0,02048	
2,940	0,1820	156,97	150,09	-0,02053	
2,960	0,1820	156,92	150,09	-0,02040	
2,980	0,1820	156,92	150,09	-0,02031	
3,000	0,1820	156,92	150,09	-0,02027	
3,020	0,1820	156,93	150,09	-0,02024	
3,040	0,1820	156,99	150,09	-0,02026	
3,060	0,1820	157,01	150,09	-0,02035	
3,080	0,1820	157,01	150,09	-0,02045	
3,100	0,1820	156,98	150,09	-0,02044	
3,120	0,1820	156,95	150,09	-0,02034	
3,140	0,1820	156,89	150,09	-0,02027	
3,160	0,1820	156,87	150,09	-0,02021	
3,180	0,1820	156,86	150,09	-0,02021	
3,200	0,1820	156,85	150,09	-0,02033	
3,220	0,1820	156,87	150,08	-0,02050	
3,240	0,1820	156,91	150,08	-0,02055	
3,260	0,1820	156,93	150,08	-0,02048	
3,280	0,1820	156,90	150,08	-0,02039	
3,300	0,1820	156,92	150,08	-0,02026	
3,320	0,1820	156,92	150,08	-0,02014	
3,340	0,1820	156,90	150,09	-0,02020	
3,360	0,1820	156,88	150,09	-0,02033	
3,380	0,1820	156,86	150,09	-0,02046	
3,400	0,1820	156,84	150,09	-0,02051	
3,420	0,1820	156,85	150,09	-0,02042	
3,440	0,1820	156,87	150,09	-0,02023	
3,460	0,1820	156,89	150,09	-0,02013	
3,480	0,1820	156,90	150,09	-0,02021	
3,500	0,1820	156,89	150,09	-0,02038	
3,520	0,1820	156,87	150,09	-0,02049	
3,540	0,1820	156,87	150,09	-0,02046	
3,560	0,1820	156,92	150,09	-0,02036	
3,580	0,1820	156,93	150,09	-0,02025	
3,600	0,1820	156,95	150,09	-0,02017	
3,620	0,1820	156,98	150,09	-0,02017	
3,640	0,1820	156,99	150,09	-0,02030	
3,660	0,1820	156,94	150,09	-0,02043	
3,680	0,1820	156,89	150,09	-0,02045	
3,700	0,1820	156,92	150,09	-0,02040	
3,720	0,1820	156,97	150,09	-0,02038	
3,740	0,1820	156,98	150,09	-0,02029	
3,760	0,1820	156,93	150,09	-0,02020	
3,780	0,1820	156,91	150,09	-0,02019	
3,800	0,1820	156,98	150,09	-0,02024	
3,820	0,1819	157,67	150,12	-0,02035	
3,840	0,1815	157,31	150,22	-0,02108	
3,860	0,1822	126,35	150,03	-0,02202	
3,880	0,1823	82,00	150,00	-0,02198	
3,900	0,1821	38,23	150,06	-0,02155	
3,920	0,1824	-5,112	150,09	-0,02131	
3,940	0,1844	-42,00	150,09	-0,02139	
3,960	0,1883	-46,82	150,09	-0,02154	
3,980	0,1927	-25,77	150,09	-0,02149	
4,000	0,1968	3,872	150,09	-0,02138	
4,020	0,2004	37,50	150,09	-0,02135	
4,040	0,2031	70,04	150,09	-0,02127	
4,060	0,2051	97,88	150,09	-0,02119	
4,080	0,2064	119,25	150,09	-0,02122	
4,100	0,2072	133,84	150,09	-0,02124	
4,120	0,2077	142,94	150,09	-0,02124	
4,140	0,2081	148,58	150,09	-0,02129	
4,160	0,2082	152,05	150,09	-0,02132	
4,180	0,2082	154,60	150,09	-0,02130	
4,200	0,2082	156,19	150,10	-0,02119	
4,220	0,2082	156,87	150,09	-0,02120	
4,240	0,2082	158,13	150,09	-0,02135	
4,260	0,2082	159,57	150,09	-0,02141	
4,280	0,2082	160,22	150,09	-0,02134	
4,300	0,2082	160,26	150,09	-0,02122	
4,320	0,2082	160,24	150,09	-0,02116	
4,340	0,2082	160,26	150,09	-0,02112	
4,360	0,2082	160,33	150,09	-0,02117	
4,380	0,2082	160,30	150,09	-0,02131	
4,400	0,2082	160,25	150,09	-0,02137	
4,420	0,2082	160,27	150,09	-0,02141	
4,440	0,2079	160,26	150,09	-0,02136	
4,460	0,2077	160,25	150,08	-0,02121	
4,480	0,2075	160,28	150,08	-0,02113	
4,500	0,2075	160,29	150,08	-0,02120	
4,520	0,2075	160,26	150,08	-0,02133	
4,540	0,2075	160,35	150,08	-0,02139	
4,560	0,2075	160,35	150,08	-0,02137	
4,580	0,2074	160,28	150,08	-0,02132	
4,600	0,2071	160,28	150,09	-0,02123	
4,620	0,2069	160,34	150,09	-0,02110	
4,640	0,2068	160,29	150,09	-0,02106	
4,660	0,2068	160,16	150,09	-0,02113	
4,680	0,2068	160,14	150,09	-0,02130	
4,700	0,2068	160,15	150,09	-0,02149	
4,720	0,2069	160,13	150,09	-0,02148	
4,740	0,2069	160,17	150,09	-0,02124	
4,760	0,2068	160,13	150,09	-0,02106	
4,780	0,2066	160,10	150,09	-0,02100	
4,800	0,2063	160,15	150,09	-0,02113	
4,820	0,2062	160,18	150,09	-0,02129	
4,840	0,2062	160,17	150,08	-0,02140	
4,860	0,2062	160,21	150,08	-0,02140	
4,880	0,2062	160,18	150,07	-0,02130	
4,900	0,2062	160,09	150,08	-0,02122	
4,920	0,2062	158,94	150,08	-0,02113	
4,940	0,2062	157,54	150,08	-0,02108	
4,960	0,2062	156,89	150,09	-0,02114	
4,980	0,2062	156,78	150,09	-0,02132	
5,000	0,2062	156,78	150,09	-0,02144	
5,020	0,2062	156,77	150,09	-0,02143	
5,040	0,2062	156,80	150,09	-0,02134	
5,060	0,2062	156,85	150,09	-0,02120	
5,080	0,2062	156,88	150,09	-0,02114	
5,100	0,2062	156,93	150,09	-0,02116	
5,120	0,2059	156,97	150,09	-0,02125	
5,140	0,2057	157,01	150,09	-0,02133	
5,160	0,2055	157,02	150,09	-0,02131	
5,180	0,2055	156,95	150,09	-0,02119	
5,200	0,2055	156,87	150,09	-0,02108	
5,220	0,2055	156,82	150,09	-0,02107	
5,240	0,2055	156,86	150,09	-0,02121	
5,260	0,2055	156,90	150,09	-0,02138	
5,280	0,2055	156,92	150,09	-0,02144	
5,300	0,2055	156,91	150,09	-0,02141	
5,320	0,2055	156,96	150,09	-0,02130	
5,340	0,2055	157,00	150,09	-0,02116	
5,360	0,2055	156,93	150,09	-0,02107	
5,380	0,2055	156,89	150,09	-0,02104	
5,400	0,2055	156,96	150,10	-0,02110	
5,420	0,2055	156,95	150,09	-0,02123	
5,440	0,2055	156,91	150,09	-0,02133	
5,460	0,2055	156,93	150,09	-0,02136	
5,480	0,2055	156,92	150,09	-0,02128	
5,500	0,2055	156,96	150,09	-0,02114	
5,520	0,2055	156,98	150,09	-0,02112	
5,540	0,2055	157,01	150,09	-0,02120	
5,560	0,2055	157,02	150,09	-0,02129	
5,580	0,2055	157,02	150,10	-0,02133	
5,600	0,2055	157,03	150,09	-0,02131	
5,620	0,2055	157,10	150,09	-0,02123	
5,640	0,2055	157,10	150,09	-0,02109	
5,660	0,2055	156,98	150,09	-0,02107	
5,680	0,2055	156,86	150,09	-0,02117	
5,700	0,2054	156,85	150,09	-0,02129	
5,720	0,2051	156,88	150,09	-0,02136	
5,740	0,2049	156,80	150,09	-0,02134	
5,760	0,2048	156,77	150,09	-0,02124	
5,780	0,2048	156,74	150,09	-0,02112	
5,800	0,2049	156,73	150,09	-0,02104	
5,820	0,2049	156,83	150,10	-0,02105	
5,840	0,2049	156,90	150,09	-0,02115	
5,860	0,2049	156,90	150,09	-0,02128	
5,880	0,2049	156,93	150,09	-0,02135	
5,900	0,2048	156,91	150,10	-0,02128	
5,920	0,2049	156,82	150,09	-0,02119	
5,940	0,2049	156,79	150,09	-0,02111	
5,960	0,2049	156,83	150,09	-0,02106	
5,980	0,2048	156,81	150,09	-0,02109	
6,000	0,2049	156,77	150,09	-0,02122	
6,020	0,2049	156,77	150,09	-0,02131	
6,040	0,2048	156,74	150,09	-0,02132	
6,060	0,2048	156,77	150,09	-0,02116	
6,080	0,2048	156,79	150,09	-0,02105	
6,100	0,2048	156,83	150,09	-0,02104	
6,120	0,2048	156,87	150,09	-0,02114	
6,140	0,2048	156,84	150,09	-0,02124	
6,160	0,2049	156,80	150,09	-0,02128	
6,180	0,2049	156,84	150,09	-0,02127	
6,200	0,2049	156,95	150,09	-0,02120	
6,220	0,2049	156,91	150,09	-0,02110	
6,240	0,2049	156,83	150,09	-0,02101	
6,260	0,2048	156,88	150,09	-0,02105	
6,280	0,2048	156,92	150,09	-0,02118	
6,300	0,2048	156,94	150,09	-0,02132	
6,320	0,2048	156,94	150,09	-0,02136	
6,340	0,2048	156,86	150,09	-0,02132	
6,360	0,2048	156,77	150,09	-0,02119	
6,380	0,2049	156,75	150,09	-0,02108	
6,400	0,2049	156,81	150,09	-0,02106	
6,420	0,2049	156,88	150,09	-0,02109	
6,440	0,2048	156,82	150,09	-0,02120	
6,460	0,2049	156,77	150,09	-0,02127	
6,480	0,2048	156,80	150,09	-0,02129	
6,500	0,2047	156,83	150,09	-0,02128	
6,520	0,2044	156,82	150,09	-0,02123	
6,540	0,2042	156,82	150,09	-0,02114	
6,560	0,2042	156,78	150,09	-0,02112	
6,580	0,2042	156,68	150,09	-0,02122	
6,600	0,2042	156,66	150,09	-0,02137	
6,620	0,2042	156,70	150,09	-0,02143	
6,640	0,2042	156,78	150,09	-0,02135	
6,660	0,2042	156,81	150,09	-0,02122	
6,680	0,2042	156,74	150,09	-0,02116	
6,700	0,2042	156,63	150,09	-0,02110	
6,720	0,2042	156,64	150,09	-0,02115	
6,740	0,2042	156,71	150,09	-0,02125	
6,760	0,2042	156,71	150,09	-0,02130	
6,780	0,2042	156,71	150,09	-0,02129	
6,800	0,2042	156,82	150,09	-0,02119	
6,820	0,2042	156,85	150,09	-0,02104	
6,840	0,2042	156,83	150,09	-0,02100	
6,860	0,2042	156,89	150,10	-0,02108	
6,880	0,2042	156,88	150,10	-0,02122	
6,900	0,2042	156,83	150,09	-0,02132	
6,920	0,2042	156,90	150,09	-0,02135	
6,940	0,2042	156,88	150,09	-0,02122	
6,960	0,2041	156,86	150,09	-0,02109	
6,980	0,2041	156,87	150,09	-0,02112	
7,000	0,2041	156,82	150,09	-0,02121	
7,020	0,2042	156,82	150,09	-0,02130	
7,040	0,2042	156,87	150,10	-0,02137	
7,060	0,2042	156,97	150,10	-0,02135	
7,080	0,2040	157,52	150,14	-0,02131	
7,100	0,2040	151,94	150,12	-0,02139	
7,120	0,2041	140,55	150,09	-0,02134	
7,140	0,2042	127,32	150,08	-0,02122	
7,160	0,2042	113,72	150,08	-0,02118	
7,180	0,2044	99,44	150,08	-0,02126	
7,200	0,2051	88,21	150,08	-0,02141	
7,220	0,2059	80,20	150,08	-0,02151	
7,240	0,2069	73,34	150,09	-0,02156	
7,260	0,2081	67,83	150,09	-0,02150	
7,280	0,2095	64,32	150,09	-0,02138	
7,300	0,2108	62,96	150,09	-0,02131	
7,320	0,2122	62,77	150,08	-0,02127	
7,340	0,2135	63,34	150,08	-0,02131	
7,360	0,2148	64,83	150,08	-0,02132	
7,380	0,2162	65,82	150,07	-0,02134	
7,400	0,2175	66,05	150,08	-0,02135	
7,420	0,2188	66,05	150,08	-0,02137	
7,440	0,2202	66,06	150,08	-0,02137	
7,460	0,2215	66,04	150,08	-0,02132	
7,480	0,2229	66,06	150,09	-0,02131	
7,500	0,2242	66,01	150,09	-0,02136	
7,520	0,2256	64,86	150,09	-0,02146	
7,540	0,2269	63,49	150,09	-0,02148	
7,560	0,2283	62,86	150,09	-0,02142	
7,580	0,2296	62,67	150,09	-0,02139	
7,600	0,2310	62,62	150,09	-0,02134	
7,620	0,2323	62,65	150,09	-0,02127	
7,640	0,2337	62,67	150,09	-0,02125	
7,660	0,2353	62,67	150,09	-0,02138	
7,680	0,2369	62,67	150,09	-0,02148	
7,700	0,2384	62,70	150,08	-0,02144	
7,720	0,2397	62,73	150,08	-0,02140	
7,740	0,2411	62,72	150,08	-0,02132	
7,760	0,2424	62,72	150,08	-0,02123	
7,780	0,2438	62,72	150,08	-0,02119	
7,800	0,2451	62,68	150,08	-0,02130	
7,820	0,2464	62,63	150,08	-0,02139	
7,840	0,2480	62,59	150,08	-0,02148	
7,860	0,2497	62,60	150,09	-0,02146	
7,880	0,2511	62,65	150,09	-0,02135	
7,900	0,2525	62,70	150,09	-0,02124	
7,920	0,2538	62,68	150,09	-0,02129	
7,940	0,2552	61,55	150,09	-0,02139	
7,960	0,2565	60,16	150,09	-0,02144	
7,980	0,2581	59,55	150,09	-0,02145	
8,000	0,2597	59,41	150,09	-0,02137	
8,020	0,2612	59,37	150,09	-0,02126	
8,040	0,2625	59,32	150,09	-0,02118	
8,060	0,2639	59,14	150,09	-0,02119	
8,080	0,2652	58,02	150,08	-0,02130	
8,100	0,2667	56,63	150,08	-0,02142	
8,120	0,2683	56,00	150,08	-0,02141	
8,140	0,2699	55,88	150,08	-0,02136	
8,160	0,2713	55,90	150,08	-0,02127	
8,180	0,2726	55,94	150,09	-0,02123	
8,200	0,2740	55,94	150,09	-0,02123	
8,220	0,2755	55,95	150,09	-0,02133	
8,240	0,2772	55,45	150,09	-0,02148	
8,260	0,2786	54,03	150,09	-0,02152	
8,280	0,2800	53,03	150,09	-0,02147	
8,300	0,2816	52,80	150,09	-0,02127	
8,320	0,2832	52,83	150,09	-0,02109	
8,340	0,2847	52,70	150,09	-0,02106	
8,360	0,2862	52,58	150,09	-0,02121	
8,380	0,2878	52,58	150,09	-0,02139	
8,400	0,2893	52,59	150,09	-0,02145	
8,420	0,2907	52,62	150,09	-0,02142	
8,440	0,2922	52,55	150,09	-0,02135	
8,460	0,2938	52,58	150,09	-0,02133	
8,480	0,2954	52,68	150,09	-0,02126	
8,500	0,2968	52,64	150,09	-0,02120	
8,520	0,2984	52,53	150,09	-0,02128	
8,540	0,3000	52,54	150,08	-0,02143	
8,560	0,3015	52,61	150,08	-0,02150	
8,580	0,3029	52,60	150,08	-0,02148	
8,600	0,3045	52,53	150,08	-0,02135	
8,620	0,3061	52,50	150,08	-0,02121	
8,640	0,3076	52,52	150,08	-0,02119	
8,660	0,3092	52,61	150,08	-0,02129	
8,680	0,3108	52,20	150,08	-0,02143	
8,700	0,3124	50,67	150,08	-0,02153	
8,720	0,3141	49,52	150,09	-0,02146	
8,740	0,3156	49,15	150,09	-0,02129	
8,760	0,3173	49,10	150,09	-0,02117	
8,780	0,3189	49,09	150,09	-0,02119	
8,800	0,3205	49,14	150,09	-0,02128	
8,820	0,3221	49,16	150,09	-0,02138	
8,840	0,3237	49,20	150,09	-0,02147	
8,860	0,3254	49,27	150,09	-0,02145	
8,880	0,3269	49,26	150,09	-0,02132	
8,900	0,3284	49,24	150,09	-0,02121	
8,920	0,3301	49,12	150,09	-0,02115	
8,940	0,3316	47,99	150,09	-0,02116	
8,960	0,3333	46,60	150,09	-0,02131	
8,980	0,3349	45,98	150,11	-0,02149	
9,000	0,3365	45,90	150,33	-0,02150	
9,020	0,3382	45,84	151,27	-0,02140	
9,040	0,3398	44,72	152,72	-0,02141	
9,060	0,3415	43,23	154,35	-0,02136	
9,080	0,3431	42,59	156,26	-0,02123	
9,100	0,3447	42,44	158,33	-0,02128	
9,120	0,3463	42,35	159,97	-0,02143	
9,140	0,3480	42,39	161,31	-0,02146	
9,160	0,3498	42,49	162,52	-0,02140	
9,180	0,3515	42,55	163,97	-0,02124	
9,200	0,3532	42,62	165,85	-0,02119	
9,220	0,3549	42,61	167,73	-0,02127	
9,240	0,3566	42,58	169,20	-0,02131	
9,260	0,3583	42,53	170,47	-0,02143	
9,280	0,3599	42,50	171,99	-0,02149	
9,300	0,3616	42,53	174,13	-0,02144	
9,320	0,3633	42,46	176,46	-0,02135	
9,340	0,3650	41,39	178,22	-0,02121	
9,360	0,3666	39,98	179,43	-0,02111	
9,380	0,3684	39,35	180,49	-0,02108	
9,400	0,3702	39,21	181,71	-0,02127	
9,420	0,3720	39,20	183,18	-0,02141	
9,440	0,3737	39,28	184,77	-0,02142	
9,460	0,3754	39,35	186,35	-0,02134	
9,480	0,3771	39,39	187,92	-0,02126	
9,500	0,3789	39,38	189,41	-0,02116	
9,520	0,3807	39,28	190,84	-0,02116	
9,540	0,3824	39,18	192,26	-0,02120	
9,560	0,3842	39,18	193,77	-0,02132	
9,580	0,3860	39,25	195,21	-0,02142	
9,600	0,3878	39,27	196,51	-0,02144	
9,620	0,3896	39,23	197,88	-0,02137	
9,640	0,3914	38,67	199,32	-0,02126	
9,660	0,3932	37,15	200,78	-0,02127	
9,680	0,3950	36,09	202,29	-0,02140	
9,700	0,3967	35,83	203,76	-0,02144	
9,720	0,3985	35,78	205,21	-0,02144	
9,740	0,4003	34,68	206,68	-0,02147	
9,760	0,4021	33,26	208,18	-0,02137	
9,780	0,4039	32,56	209,75	-0,02127	
9,800	0,4057	32,42	211,28	-0,02119	
9,820	0,4075	32,46	212,74	-0,02118	
9,840	0,4094	32,46	214,16	-0,02130	
9,860	0,4113	32,36	215,62	-0,02143	
9,880	0,4131	31,24	217,07	-0,02145	
9,900	0,4151	29,88	218,47	-0,02135	
9,920	0,4169	29,26	219,86	-0,02125	
9,940	0,4188	29,17	221,30	-0,02115	
9,960	0,4207	29,22	222,77	-0,02113	
9,980	0,4225	29,20	224,29	-0,02128	
10,00	0,4244	29,16	225,84	-0,02146	
10,02	0,4263	29,16	227,37	-0,02152	
10,04	0,4282	29,21	228,87	-0,02141	
10,06	0,4301	29,26	230,36	-0,02129	
10,08	0,4319	29,25	231,83	-0,02120	
10,10	0,4338	28,77	233,31	-0,02109	
10,12	0,4358	26,90	234,79	-0,02112	
10,14	0,4378	26,40	236,23	-0,02129	
10,16	0,4397	33,25	237,58	-0,02147	
10,18	0,4416	46,62	238,71	-0,02146	
10,20	0,4436	61,37	239,63	-0,02129	
10,22	0,4454	76,34	240,39	-0,02116	
10,24	0,4468	90,58	241,01	-0,02114	
10,26	0,4479	101,49	241,51	-0,02126	
10,28	0,4488	109,41	241,91	-0,02138	
10,30	0,4496	116,11	242,22	-0,02142	
10,32	0,4504	122,80	242,44	-0,02140	
10,34	0,4510	130,66	242,62	-0,02131	
10,36	0,4515	138,85	242,76	-0,02114	
10,38	0,4518	145,78	242,83	-0,02110	
10,40	0,4521	150,68	242,91	-0,02125	
10,42	0,4524	154,18	243,00	-0,02143	
10,44	0,4526	156,75	243,06	-0,02148	
10,46	0,4526	159,03	243,10	-0,02146	
10,48	0,4526	159,90	243,11	-0,02140	
10,50	0,4525	158,44	243,17	-0,02135	
10,52	0,4526	153,49	243,32	-0,02130	
10,54	0,4525	145,05	243,63	-0,02126	
10,56	0,4525	133,88	244,11	-0,02124	
10,58	0,4525	120,36	244,79	-0,02129	
10,60	0,4527	105,94	245,61	-0,02141	
10,62	0,4533	92,70	246,58	-0,02149	
10,64	0,4541	81,51	247,68	-0,02150	
10,66	0,4550	71,52	248,87	-0,02145	
10,68	0,4562	62,24	250,05	-0,02132	
10,70	0,4574	58,66	251,25	-0,02134	
10,72	0,4586	62,25	252,33	-0,02150	
10,74	0,4600	70,00	253,20	-0,02155	
10,76	0,4616	80,04	253,84	-0,02149	
10,78	0,4629	91,89	254,34	-0,02138	
10,80	0,4638	102,23	254,76	-0,02125	
10,82	0,4645	108,56	255,09	-0,02121	
10,84	0,4653	113,58	255,38	-0,02128	
10,86	0,4659	119,42	255,66	-0,02138	
10,88	0,4665	125,95	255,88	-0,02145	
10,90	0,4671	132,85	256,03	-0,02147	
10,92	0,4674	139,79	256,13	-0,02139	
10,94	0,4678	144,75	256,17	-0,02134	
10,96	0,4679	147,58	256,21	-0,02133	
10,98	0,4680	149,01	256,30	-0,02129	
11,00	0,4680	145,40	256,47	-0,02129	
11,02	0,4681	137,54	256,80	-0,02140	
11,04	0,4684	127,41	257,31	-0,02143	
11,06	0,4687	115,81	258,00	-0,02146	
11,08	0,4691	102,48	258,85	-0,02148	
11,10	0,4696	90,12	259,82	-0,02141	
11,12	0,4702	79,10	260,90	-0,02129	
11,14	0,4711	67,97	262,31	-0,02131	
11,16	0,4721	58,16	264,83	-0,02144	
11,18	0,4730	55,14	268,02	-0,02159	
11,20	0,4741	58,82	269,87	-0,02158	
11,22	0,4755	65,82	270,31	-0,02146	
11,24	0,4771	74,74	270,19	-0,02132	
11,26	0,4782	85,13	270,06	-0,02121	
11,28	0,4791	93,61	269,99	-0,02118	
11,30	0,4799	99,83	269,85	-0,02125	
11,32	0,4806	106,03	269,73	-0,02137	
11,34	0,4813	112,66	269,70	-0,02140	
11,36	0,4818	119,83	269,67	-0,02139	
11,38	0,4823	128,03	269,61	-0,02133	
11,40	0,4827	135,06	269,55	-0,02117	
11,42	0,4831	139,47	269,58	-0,02111	
11,44	0,4833	143,28	269,55	-0,02111	
11,46	0,4834	147,06	269,65	-0,02130	
11,48	0,4834	146,16	270,13	-0,02151	
11,50	0,4837	141,73	270,81	-0,02156	
11,52	0,4839	138,93	271,31	-0,02147	
11,54	0,4840	136,40	271,76	-0,02134	
11,56	0,4843	130,06	272,45	-0,02123	
11,58	0,4847	125,61	273,16	-0,02120	
11,60	0,4847	126,68	273,60	-0,02135	
11,62	0,4848	126,60	273,93	-0,02149	
11,64	0,4852	121,72	274,42	-0,02150	
11,66	0,4857	116,34	275,13	-0,02147	
11,68	0,4861	111,26	275,85	-0,02139	
11,70	0,4863	106,25	276,42	-0,02131	
11,72	0,4866	103,96	276,78	-0,02121	
11,74	0,4871	103,22	277,21	-0,02114	
11,76	0,4877	102,10	277,77	-0,02123	
11,78	0,4881	100,59	278,42	-0,02143	
11,80	0,4884	97,88	278,99	-0,02145	
11,82	0,4888	93,78	279,42	-0,02133	
11,84	0,4893	88,96	280,09	-0,02124	
11,86	0,4900	84,13	280,91	-0,02123	
11,88	0,4904	82,60	281,46	-0,02123	
11,90	0,4908	83,09	281,81	-0,02128	
11,92	0,4914	79,72	282,48	-0,02136	
11,94	0,4920	76,23	283,08	-0,02143	
11,96	0,4924	76,22	283,47	-0,02140	
11,98	0,4929	75,40	283,95	-0,02133	
12,00	0,4934	72,56	284,52	-0,02131	
12,02	0,4940	72,17	284,88	-0,02132	
12,04	0,4946	72,71	285,41	-0,02132	
12,06	0,4952	69,19	286,37	-0,02133	
12,08	0,4958	66,06	287,13	-0,02142	
12,10	0,4963	66,91	287,48	-0,02152	
12,12	0,4969	66,67	287,78	-0,02145	
12,14	0,4975	65,62	288,21	-0,02135	
12,16	0,4982	65,86	288,83	-0,02129	
12,18	0,4988	66,65	289,39	-0,02132	
12,20	0,4994	65,89	289,84	-0,02137	
12,22	0,5001	62,99	290,45	-0,02148	
12,24	0,5007	60,37	291,19	-0,02154	
12,26	0,5012	61,70	291,71	-0,02153	
12,28	0,5017	64,86	292,08	-0,02142	
12,30	0,5024	65,04	292,58	-0,02130	
12,32	0,5031	63,47	293,23	-0,02123	
12,34	0,5038	63,83	293,85	-0,02129	
12,36	0,5043	64,15	294,41	-0,02135	
12,38	0,5048	63,66	294,82	-0,02138	
12,40	0,5055	64,19	295,30	-0,02144	
12,42	0,5063	64,44	295,99	-0,02147	
12,44	0,5069	64,83	296,52	-0,02137	
12,46	0,5074	66,10	296,93	-0,02126	
12,48	0,5081	65,14	297,57	-0,02125	
12,50	0,5089	62,66	298,30	-0,02134	
12,52	0,5094	64,29	298,78	-0,02149	
12,54	0,5099	66,88	299,09	-0,02156	
12,56	0,5104	66,04	299,57	-0,02150	
12,58	0,5112	63,57	300,39	-0,02135	
12,60	0,5119	62,14	301,21	-0,02117	
12,62	0,5124	62,64	301,69	-0,02116	
12,64	0,5130	63,39	302,02	-0,02129	
12,66	0,5137	63,52	302,43	-0,02144	
12,68	0,5145	63,48	303,04	-0,02150	
12,70	0,5151	62,64	303,76	-0,02146	
12,72	0,5156	62,68	304,26	-0,02139	
12,74	0,5161	61,20	304,70	-0,02136	
12,76	0,5168	59,25	305,20	-0,02128	
12,78	0,5173	59,11	305,77	-0,02123	
12,80	0,5179	60,32	306,40	-0,02131	
12,82	0,5186	59,19	306,93	-0,02140	
12,84	0,5192	58,99	307,36	-0,02140	
12,86	0,5197	59,77	307,90	-0,02137	
12,88	0,5203	59,26	308,56	-0,02133	
12,90	0,5209	60,06	309,09	-0,02117	
12,92	0,5215	61,40	309,60	-0,02102	
12,94	0,5223	59,64	310,19	-0,02110	
12,96	0,5229	58,90	310,69	-0,02128	
12,98	0,5233	60,97	311,16	-0,02141	
13,00	0,5239	60,27	311,76	-0,02144	
13,02	0,5246	58,21	312,38	-0,02134	
13,04	0,5253	57,88	312,94	-0,02118	
13,06	0,5258	57,71	313,43	-0,02111	
13,08	0,5263	57,19	313,89	-0,02114	
13,10	0,5269	57,48	314,49	-0,02128	
13,12	0,5277	57,31	315,18	-0,02146	
13,14	0,5282	57,85	315,65	-0,02152	
13,16	0,5286	60,34	316,03	-0,02151	
13,18	0,5293	59,91	316,66	-0,02143	
13,20	0,5301	56,47	317,47	-0,02134	
13,22	0,5307	56,20	318,10	-0,02126	
13,24	0,5311	57,76	318,47	-0,02123	
13,26	0,5316	58,06	318,81	-0,02131	
13,28	0,5323	56,70	319,41	-0,02142	
13,30	0,5331	55,97	320,16	-0,02148	
13,32	0,5336	56,71	320,66	-0,02143	
13,34	0,5340	57,22	321,04	-0,02134	
13,36	0,5347	53,71	321,78	-0,02120	
13,38	0,5355	51,85	322,52	-0,02117	
13,40	0,5360	55,79	322,93	-0,02130	
13,42	0,5364	58,97	323,21	-0,02140	
13,44	0,5370	56,21	323,77	-0,02139	
13,46	0,5378	53,19	324,57	-0,02133	
13,48	0,5384	54,00	325,17	-0,02121	
13,50	0,5388	55,18	325,50	-0,02113	
13,52	0,5393	54,13	325,98	-0,02112	
13,54	0,5401	51,51	326,66	-0,02117	
13,56	0,5406	53,13	327,17	-0,02132	
13,58	0,5411	55,02	327,63	-0,02141	
13,60	0,5418	51,88	328,24	-0,02142	
13,62	0,5423	50,17	328,75	-0,02130	
13,64	0,5428	52,47	329,23	-0,02121	
13,66	0,5434	52,39	329,83	-0,02117	
13,68	0,5441	49,42	330,44	-0,02118	
13,70	0,5446	49,01	330,93	-0,02127	
13,72	0,5451	50,02	331,46	-0,02139	
13,74	0,5458	47,88	332,09	-0,02141	
13,76	0,5462	48,23	332,56	-0,02132	
13,78	0,5467	50,42	333,05	-0,02117	
13,80	0,5475	48,85	333,78	-0,02117	
13,82	0,5480	46,64	334,40	-0,02123	
13,84	0,5485	48,96	334,74	-0,02132	
13,86	0,5491	49,90	335,25	-0,02140	
13,88	0,5499	46,84	336,02	-0,02145	
13,90	0,5505	46,78	336,60	-0,02140	
13,92	0,5508	50,31	336,96	-0,02134	
13,94	0,5514	50,24	337,44	-0,02128	
13,96	0,5521	47,94	338,07	-0,02122	
13,98	0,5528	48,90	338,65	-0,02128	
14,00	0,5533	50,82	339,11	-0,02141	
14,02	0,5538	49,86	339,65	-0,02143	
14,04	0,5545	48,13	340,30	-0,02135	
14,06	0,5551	49,34	340,87	-0,02123	
14,08	0,5556	51,42	341,28	-0,02118	
14,10	0,5562	51,51	341,79	-0,02118	
14,12	0,5569	49,00	342,47	-0,02125	
14,14	0,5574	48,87	343,08	-0,02135	
14,16	0,5579	50,19	343,58	-0,02142	
14,18	0,5585	50,25	344,03	-0,02145	
14,20	0,5592	49,39	344,63	-0,02144	
14,22	0,5599	49,36	345,25	-0,02134	
14,24	0,5603	50,89	345,73	-0,02120	
14,26	0,5607	51,76	346,18	-0,02113	
14,28	0,5612	51,21	346,77	-0,02124	
14,30	0,5619	49,79	347,42	-0,02137	
14,32	0,5625	51,37	347,94	-0,02138	
14,34	0,5629	52,95	348,40	-0,02135	
14,36	0,5636	51,02	349,06	-0,02128	
14,38	0,5643	50,40	349,70	-0,02125	
14,40	0,5647	52,72	350,15	-0,02125	
14,42	0,5652	54,35	350,56	-0,02135	
14,44	0,5659	52,75	351,16	-0,02142	
14,46	0,5666	50,57	351,87	-0,02139	
14,48	0,5671	51,73	352,44	-0,02129	
14,50	0,5676	54,22	352,85	-0,02122	
14,52	0,5682	54,00	353,33	-0,02116	
14,54	0,5688	52,68	353,94	-0,02118	
14,56	0,5693	54,01	354,47	-0,02126	
14,58	0,5698	56,29	354,93	-0,02137	
14,60	0,5704	55,01	355,55	-0,02143	
14,62	0,5711	52,88	356,19	-0,02140	
14,64	0,5716	54,72	356,66	-0,02131	
14,66	0,5721	57,08	357,14	-0,02126	
14,68	0,5727	56,03	357,75	-0,02120	
14,70	0,5734	54,60	358,40	-0,02119	
14,72	0,5740	56,19	358,88	-0,02125	
14,74	0,5744	57,84	359,30	-0,02132	
14,76	0,5750	56,58	359,91	-0,02136	
14,78	0,5756	55,54	360,57	-0,02135	
14,80	0,5761	56,91	361,08	-0,02124	
14,82	0,5766	58,77	361,54	-0,02118	
14,84	0,5771	57,14	362,14	-0,02118	
14,86	0,5778	55,50	362,76	-0,02124	
14,88	0,5783	58,33	363,24	-0,02137	
14,90	0,5788	59,43	363,72	-0,02143	
14,92	0,5794	57,38	364,32	-0,02142	
14,94	0,5800	57,38	364,91	-0,02138	
14,96	0,5804	59,78	365,39	-0,02128	
14,98	0,5810	61,14	365,88	-0,02117	
15,00	0,5817	59,77	366,53	-0,02115	
15,02	0,5823	59,51	367,14	-0,02125	
15,04	0,5827	60,72	367,65	-0,02134	
15,06	0,5832	61,19	368,13	-0,02135	
15,08	0,5837	60,99	368,64	-0,02129	
15,10	0,5842	61,41	369,24	-0,02120	
15,12	0,5848	62,07	369,82	-0,02117	
15,14	0,5853	63,19	370,29	-0,02123	
15,16	0,5858	63,30	370,85	-0,02132	
15,18	0,5864	61,62	371,49	-0,02139	
15,20	0,5869	62,13	372,04	-0,02142	
15,22	0,5874	64,90	372,52	-0,02136	
15,24	0,5880	65,35	373,05	-0,02131	
15,26	0,5885	63,83	373,64	-0,02126	
15,28	0,5891	64,48	374,18	-0,02125	
15,30	0,5896	66,06	374,69	-0,02134	
15,32	0,5901	66,19	375,22	-0,02146	
15,34	0,5905	66,45	375,78	-0,02147	
15,36	0,5911	67,44	376,37	-0,02139	
15,38	0,5916	68,23	376,92	-0,02132	
15,40	0,5921	68,35	377,45	-0,02122	
15,42	0,5926	68,35	377,96	-0,02120	
15,44	0,5931	68,47	378,50	-0,02126	
15,46	0,5937	68,20	379,11	-0,02139	
15,48	0,5941	68,33	379,67	-0,02143	
15,50	0,5945	69,34	380,16	-0,02139	
15,52	0,5950	69,00	380,73	-0,02136	
15,54	0,5955	68,17	381,32	-0,02129	
15,56	0,5961	69,19	381,84	-0,02122	
15,58	0,5966	69,87	382,37	-0,02123	
15,60	0,5970	69,14	382,91	-0,02127	
15,62	0,5975	69,49	383,46	-0,02138	
15,64	0,5979	69,71	384,03	-0,02142	
15,66	0,5984	69,14	384,55	-0,02137	
15,68	0,5988	69,29	385,07	-0,02125	
15,70	0,5993	68,91	385,66	-0,02114	
15,72	0,5998	68,46	386,24	-0,02115	
15,74	0,6003	69,50	386,75	-0,02130	
15,76	0,6007	70,69	387,27	-0,02141	
15,78	0,6012	69,77	387,83	-0,02144	
15,80	0,6017	69,64	388,37	-0,02141	
15,82	0,6022	70,52	388,89	-0,02131	
15,84	0,6026	69,65	389,48	-0,02123	
15,86	0,6031	68,85	390,07	-0,02119	
15,88	0,6035	70,28	390,55	-0,02122	
15,90	0,6039	72,17	391,07	-0,02130	
15,92	0,6044	71,14	391,76	-0,02139	
15,94	0,6049	70,21	392,38	-0,02141	
15,96	0,6052	72,95	392,80	-0,02135	
15,98	0,6057	73,91	393,30	-0,02132	
16,00	0,6063	71,45	393,93	-0,02123	
16,02	0,6068	71,59	394,48	-0,02122	
16,04	0,6071	73,58	394,96	-0,02126	
16,06	0,6075	72,16	395,49	-0,02136	
16,08	0,6080	70,00	396,06	-0,02141	
16,10	0,6084	71,11	396,57	-0,02142	
16,12	0,6089	71,56	397,14	-0,02135	
16,14	0,6094	70,25	397,77	-0,02122	
16,16	0,6098	71,72	398,26	-0,02111	
16,18	0,6102	74,14	398,74	-0,02115	
16,20	0,6107	73,46	399,36	-0,02134	
16,22	0,6113	71,99	399,98	-0,02149	
16,24	0,6117	73,21	400,48	-0,02150	
16,26	0,6120	73,99	400,96	-0,02143	
16,28	0,6125	72,40	401,52	-0,02127	
16,30	0,6129	72,31	402,08	-0,02113	
16,32	0,6133	74,05	402,59	-0,02118	
16,34	0,6138	74,42	403,15	-0,02131	
16,36	0,6142	74,00	403,73	-0,02140	
16,38	0,6147	74,37	404,25	-0,02146	
16,40	0,6151	75,43	404,78	-0,02142	
16,42	0,6156	75,00	405,35	-0,02129	
16,44	0,6161	74,17	405,94	-0,02117	
16,46	0,6165	75,00	406,45	-0,02116	
16,48	0,6169	75,80	406,96	-0,02116	
16,50	0,6174	75,31	407,55	-0,02124	
16,52	0,6179	75,37	408,11	-0,02136	
16,54	0,6183	76,95	408,61	-0,02143	
16,56	0,6187	77,04	409,19	-0,02132	
16,58	0,6192	75,75	409,80	-0,02112	
16,60	0,6196	76,59	410,32	-0,02097	
16,62	0,6199	77,79	410,84	-0,02095	
16,64	0,6203	76,98	411,41	-0,02112	
16,66	0,6207	76,76	411,96	-0,02126	
16,68	0,6212	77,71	412,49	-0,02131	
16,70	0,6216	77,55	413,02	-0,02127	
16,72	0,6220	76,85	413,55	-0,02116	
16,74	0,6225	77,12	414,12	-0,02099	
16,76	0,6230	77,84	414,69	-0,02089	
16,78	0,6234	79,04	415,19	-0,02099	
16,80	0,6238	80,05	415,75	-0,02115	
16,82	0,6242	79,55	416,34	-0,02120	
16,84	0,6245	80,10	416,86	-0,02112	
16,86	0,6249	80,87	417,36	-0,02100	
16,88	0,6254	79,89	417,94	-0,02091	
16,90	0,6259	79,18	418,54	-0,02080	
16,92	0,6263	80,41	419,06	-0,02078	
16,94	0,6266	80,55	419,58	-0,02089	
16,96	0,6270	79,39	420,16	-0,02095	
16,98	0,6274	79,60	420,75	-0,02090	
17,00	0,6279	81,03	421,24	-0,02081	
17,02	0,6283	81,54	421,76	-0,02065	
17,04	0,6287	80,91	422,38	-0,02059	
17,06	0,6290	81,05	422,91	-0,02066	
17,08	0,6294	82,85	423,38	-0,02084	
17,10	0,6299	83,46	423,96	-0,02093	
17,12	0,6304	82,57	424,58	-0,02091	
17,14	0,6307	83,04	425,12	-0,02083	
17,16	0,6310	83,87	425,62	-0,02069	
17,18	0,6315	83,57	426,13	-0,02065	
17,20	0,6319	83,56	426,71	-0,02067	
17,22	0,6324	84,42	427,31	-0,02070	
17,24	0,6327	85,18	427,83	-0,02083	
17,26	0,6330	85,28	428,36	-0,02088	
17,28	0,6335	84,17	428,93	-0,02078	
17,30	0,6339	83,67	429,48	-0,02068	
17,32	0,6343	84,51	429,98	-0,02065	
17,34	0,6347	84,87	430,51	-0,02065	
17,36	0,6351	84,37	431,10	-0,02065	
17,38	0,6355	85,05	431,68	-0,02071	
17,40	0,6359	86,72	432,20	-0,02077	
17,42	0,6362	87,50	432,73	-0,02074	
17,44	0,6366	87,47	433,30	-0,02063	
17,46	0,6371	87,46	433,85	-0,02054	
17,48	0,6374	87,56	434,38	-0,02051	
17,50	0,6377	87,48	434,92	-0,02049	
17,52	0,6382	87,58	435,46	-0,02064	
17,54	0,6385	88,33	435,99	-0,02077	
17,56	0,6389	88,30	436,54	-0,02076	
17,58	0,6393	87,86	437,10	-0,02070	
17,60	0,6397	88,27	437,63	-0,02065	
17,62	0,6401	88,13	438,19	-0,02062	
17,64	0,6405	87,08	438,77	-0,02065	
17,66	0,6408	87,54	439,29	-0,02076	
17,68	0,6413	88,16	439,84	-0,02085	
17,70	0,6417	87,77	440,41	-0,02088	
17,72	0,6421	87,91	440,95	-0,02081	
17,74	0,6424	88,40	441,48	-0,02063	
17,76	0,6429	87,96	442,04	-0,02059	
17,78	0,6433	87,51	442,61	-0,02061	
17,80	0,6436	87,50	443,14	-0,02067	
17,82	0,6440	87,83	443,65	-0,02077	
17,84	0,6444	88,33	444,19	-0,02079	
17,86	0,6448	88,53	444,76	-0,02078	
17,88	0,6451	88,46	445,34	-0,02069	
17,90	0,6456	89,05	445,90	-0,02055	
17,92	0,6459	89,52	446,44	-0,02043	
17,94	0,6462	90,72	446,93	-0,02040	
17,96	0,6466	91,64	447,49	-0,02059	
17,98	0,6471	91,77	448,11	-0,02075	
18,00	0,6474	92,93	448,64	-0,02075	
18,02	0,6478	94,53	449,12	-0,02065	
18,04	0,6481	94,13	449,67	-0,02049	
18,06	0,6485	93,03	450,27	-0,02039	
18,08	0,6489	93,80	450,83	-0,02040	
18,10	0,6493	94,58	451,36	-0,02047	
18,12	0,6496	94,43	451,92	-0,02059	
18,14	0,6499	95,20	452,44	-0,02061	
18,16	0,6502	96,72	452,95	-0,02064	
18,18	0,6506	96,33	453,53	-0,02063	
18,20	0,6510	95,29	454,11	-0,02055	
18,22	0,6513	96,25	454,61	-0,02051	
18,24	0,6516	96,95	455,13	-0,02060	
18,26	0,6520	96,03	455,73	-0,02070	
18,28	0,6523	95,36	456,29	-0,02076	
18,30	0,6526	95,49	456,79	-0,02073	
18,32	0,6530	94,86	457,36	-0,02065	
18,34	0,6534	93,54	457,95	-0,02051	
18,36	0,6538	94,60	458,46	-0,02043	
18,38	0,6541	95,93	458,98	-0,02045	
18,40	0,6545	95,07	459,60	-0,02047	
18,42	0,6548	94,68	460,16	-0,02051	
18,44	0,6551	96,19	460,61	-0,02059	
18,46	0,6554	95,91	461,17	-0,02066	
18,48	0,6559	93,98	461,84	-0,02050	
18,50	0,6563	94,74	462,39	-0,02035	
18,52	0,6566	96,61	462,84	-0,02040	
18,54	0,6570	96,50	463,34	-0,02047	
18,56	0,6573	95,34	463,93	-0,02053	
18,58	0,6577	95,78	464,51	-0,02062	
18,60	0,6580	96,01	465,03	-0,02066	
18,62	0,6583	95,69	465,54	-0,02061	
18,64	0,6586	95,18	466,14	-0,02050	
18,66	0,6590	95,41	466,71	-0,02041	
18,68	0,6593	97,13	467,22	-0,02040	
18,70	0,6597	97,20	467,76	-0,02050	
18,72	0,6600	96,36	468,30	-0,02070	
18,74	0,6603	97,31	468,82	-0,02089	
18,76	0,6607	97,77	469,41	-0,02083	
18,78	0,6611	96,68	469,98	-0,02064	
18,80	0,6613	96,84	470,50	-0,02052	
18,82	0,6617	97,41	471,07	-0,02047	
18,84	0,6620	96,88	471,65	-0,02054	
18,86	0,6624	97,44	472,16	-0,02073	
18,88	0,6627	98,36	472,65	-0,02086	
18,90	0,6630	97,89	473,24	-0,02084	
18,92	0,6634	97,38	473,83	-0,02071	
18,94	0,6637	98,63	474,30	-0,02062	
18,96	0,6640	99,11	474,84	-0,02059	
18,98	0,6644	97,06	475,47	-0,02055	
19,00	0,6647	96,09	476,02	-0,02067	
19,02	0,6649	96,78	476,51	-0,02075	
19,04	0,6652	96,09	477,05	-0,02074	
19,06	0,6656	94,21	477,63	-0,02068	
19,08	0,6659	94,80	478,15	-0,02056	
19,10	0,6662	95,14	478,70	-0,02050	
19,12	0,6666	93,53	479,30	-0,02059	
19,14	0,6669	93,38	479,82	-0,02072	
19,16	0,6672	94,52	480,34	-0,02084	
19,18	0,6676	94,03	480,91	-0,02084	
19,20	0,6679	93,00	481,47	-0,02071	
19,22	0,6682	93,71	481,99	-0,02057	
19,24	0,6686	94,54	482,50	-0,02052	
19,26	0,6689	94,46	483,05	-0,02062	
19,28	0,6693	94,02	483,67	-0,02082	
19,30	0,6696	94,11	484,20	-0,02091	
19,32	0,6699	95,02	484,69	-0,02087	
19,34	0,6702	94,83	485,27	-0,02081	
19,36	0,6707	94,21	485,86	-0,02069	
19,38	0,6709	95,21	486,36	-0,02060	
19,40	0,6713	95,63	486,89	-0,02072	
19,42	0,6716	93,93	487,46	-0,02084	
19,44	0,6719	93,59	487,99	-0,02099	
19,46	0,6723	94,07	488,56	-0,02110	
19,48	0,6727	93,15	489,13	-0,02100	
19,50	0,6729	92,25	489,66	-0,02086	
19,52	0,6733	91,79	490,21	-0,02085	
19,54	0,6736	90,71	490,76	-0,02092	
19,56	0,6740	90,37	491,28	-0,02101	
19,58	0,6743	91,29	491,79	-0,02107	
19,60	0,6746	90,80	492,37	-0,02110	
19,62	0,6750	89,42	492,95	-0,02111	
19,64	0,6753	89,78	493,46	-0,02099	
19,66	0,6756	90,02	494,03	-0,02089	
19,68	0,6760	88,84	494,61	-0,02084	
19,70	0,6764	88,93	495,11	-0,02097	
19,72	0,6768	88,92	495,67	-0,02109	
19,74	0,6772	88,06	496,25	-0,02113	
19,76	0,6774	88,70	496,75	-0,02111	
19,78	0,6778	88,83	497,31	-0,02101	
19,80	0,6782	87,28	497,90	-0,02091	
19,82	0,6786	87,93	498,41	-0,02096	
19,84	0,6790	89,60	498,95	-0,02107	
19,86	0,6794	88,58	499,54	-0,02119	
19,88	0,6797	87,42	500,10	-0,02122	
19,90	0,6800	87,84	500,59	-0,02112	
19,92	0,6803	87,34	501,13	-0,02103	
19,94	0,6807	85,87	501,72	-0,02099	
19,96	0,6811	86,17	502,25	-0,02095	
19,98	0,6815	87,01	502,79	-0,02095	
20,00	0,6819	87,35	503,36	-0,02105	
20,02	0,6822	87,55	503,91	-0,02111	
20,04	0,6825	88,48	504,42	-0,02113	
20,06	0,6829	89,06	504,95	-0,02110	
20,08	0,6834	88,27	505,51	-0,02099	
20,10	0,6837	87,57	506,08	-0,02090	
20,12	0,6840	87,22	506,61	-0,02091	
20,14	0,6845	86,37	507,16	-0,02102	
20,16	0,6849	85,37	507,77	-0,02115	
20,18	0,6852	86,02	508,32	-0,02124	
20,20	0,6856	87,72	508,81	-0,02117	
20,22	0,6860	87,39	509,36	-0,02103	
20,24	0,6864	86,21	509,92	-0,02093	
20,26	0,6867	87,14	510,42	-0,02088	
20,28	0,6870	87,16	510,99	-0,02096	
20,30	0,6874	85,28	511,57	-0,02116	
20,32	0,6878	84,67	512,09	-0,02125	
20,34	0,6882	84,95	512,62	-0,02121	
20,36	0,6886	84,05	513,23	-0,02111	
20,38	0,6890	83,15	513,80	-0,02094	
20,40	0,6894	84,33	514,26	-0,02086	
20,42	0,6897	84,30	514,83	-0,02089	
20,44	0,6902	82,65	515,46	-0,02103	
20,46	0,6905	84,11	515,95	-0,02120	
20,48	0,6910	85,25	516,53	-0,02121	
20,50	0,6915	83,76	517,13	-0,02106	
20,52	0,6917	84,13	517,60	-0,02096	
20,54	0,6921	85,01	518,13	-0,02094	
20,56	0,6926	82,77	518,70	-0,02093	
20,58	0,6929	81,57	519,19	-0,02101	
20,60	0,6934	81,46	519,81	-0,02111	
20,62	0,6938	79,51	520,42	-0,02119	
20,64	0,6941	79,95	520,88	-0,02116	
20,66	0,6946	81,11	521,46	-0,02104	
20,68	0,6951	79,64	522,02	-0,02095	
20,70	0,6954	79,62	522,50	-0,02092	
20,72	0,6958	79,39	523,09	-0,02096	
20,74	0,6962	77,14	523,63	-0,02111	
20,76	0,6965	77,84	524,10	-0,02126	
20,78	0,6970	78,22	524,69	-0,02125	
20,80	0,6975	76,53	525,27	-0,02111	
20,82	0,6979	77,46	525,75	-0,02099	
20,84	0,6983	78,19	526,31	-0,02089	
20,86	0,6987	75,51	526,96	-0,02086	
20,88	0,6991	74,81	527,48	-0,02098	
20,90	0,6994	77,17	527,90	-0,02115	
20,92	0,6999	76,99	528,49	-0,02124	
20,94	0,7004	75,27	529,13	-0,02114	
20,96	0,7008	76,69	529,62	-0,02104	
20,98	0,7013	76,65	530,18	-0,02101	
21,00	0,7018	74,34	530,77	-0,02099	
21,02	0,7021	74,36	531,25	-0,02099	
21,04	0,7026	74,30	531,84	-0,02108	
21,06	0,7031	72,55	532,42	-0,02119	
21,08	0,7035	72,74	532,89	-0,02120	
21,10	0,7040	73,52	533,46	-0,02113	
21,12	0,7044	72,87	533,98	-0,02105	
21,14	0,7048	73,28	534,50	-0,02092	
21,16	0,7054	72,05	535,21	-0,02099	
21,18	0,7058	70,87	535,76	-0,02121	
21,20	0,7062	72,71	536,24	-0,02126	
21,22	0,7069	71,86	536,89	-0,02121	
21,24	0,7073	70,24	537,39	-0,02106	
21,26	0,7077	71,91	537,86	-0,02090	
21,28	0,7083	70,47	538,51	-0,02088	
21,30	0,7087	68,66	538,99	-0,02099	
21,32	0,7092	70,18	539,50	-0,02113	
21,34	0,7098	68,45	540,20	-0,02125	
21,36	0,7102	66,51	540,68	-0,02130	
21,38	0,7106	68,13	541,18	-0,02129	
21,40	0,7112	66,34	541,83	-0,02115	
21,42	0,7116	63,72	542,28	-0,02104	
21,44	0,7121	64,68	542,81	-0,02103	
21,46	0,7128	63,26	543,47	-0,02109	
21,48	0,7132	62,82	543,90	-0,02118	
21,50	0,7138	64,41	544,41	-0,02120	
21,52	0,7143	62,54	545,04	-0,02116	
21,54	0,7147	61,70	545,51	-0,02109	
21,56	0,7153	62,63	546,10	-0,02099	
21,58	0,7159	60,79	546,72	-0,02095	
21,60	0,7163	61,08	547,11	-0,02103	
21,62	0,7169	62,62	547,70	-0,02114	
21,64	0,7175	60,30	548,35	-0,02121	
21,66	0,7180	60,03	548,80	-0,02121	
21,68	0,7185	60,52	549,39	-0,02068	
21,70	0,7191	57,63	549,93	-0,01984	
21,72	0,7195	57,66	550,33	-0,01944	
21,74	0,7201	58,03	550,97	-0,01940	
21,76	0,7207	54,31	551,66	-0,01955	
21,78	0,7211	54,26	552,13	-0,01967	
21,80	0,7217	56,24	552,66	-0,01964	
21,82	0,7223	54,48	553,18	-0,01950	
21,84	0,7229	54,54	553,63	-0,01939	
21,86	0,7235	54,44	554,28	-0,01931	
21,88	0,7241	52,54	554,86	-0,01932	
21,90	0,7246	53,07	555,29	-0,01948	
21,92	0,7252	53,05	555,91	-0,02024	
21,94	0,7258	50,49	556,57	-0,02099	
21,96	0,7263	50,76	557,04	-0,02122	
21,98	0,7269	50,98	557,53	-0,02113	
22,00	0,7275	47,93	558,07	-0,02102	
22,02	0,7280	46,88	558,58	-0,02098	
22,04	0,7287	47,63	559,15	-0,02099	
22,06	0,7294	45,99	559,71	-0,02111	
22,08	0,7300	44,65	560,23	-0,02117	
22,10	0,7306	44,08	560,80	-0,02116	
22,12	0,7311	44,00	561,30	-0,02104	
22,14	0,7317	44,40	561,86	-0,02091	
22,16	0,7324	43,06	562,53	-0,02087	
22,18	0,7330	42,56	562,97	-0,02090	
22,20	0,7336	42,80	563,49	-0,02098	
22,22	0,7343	40,38	564,21	-0,02117	
22,24	0,7347	39,60	564,69	-0,02129	
22,26	0,7354	39,96	565,24	-0,02125	
22,28	0,7362	36,49	565,85	-0,02114	
22,30	0,7367	34,97	566,22	-0,02108	
22,32	0,7373	36,02	566,78	-0,02106	
22,34	0,7382	33,01	567,58	-0,02111	
22,36	0,7387	31,10	568,12	-0,02121	
22,38	0,7393	31,70	568,56	-0,02126	
22,40	0,7399	29,11	569,05	-0,02121	
22,42	0,7405	26,61	569,50	-0,02110	
22,44	0,7413	26,22	570,10	-0,02102	
22,46	0,7419	24,63	570,70	-0,02095	
22,48	0,7425	24,79	571,12	-0,02098	
22,50	0,7434	24,96	571,77	-0,02106	
22,52	0,7442	22,43	572,48	-0,02118	
22,54	0,7448	22,29	572,93	-0,02127	
22,56	0,7455	22,03	573,48	-0,02126	
22,58	0,7462	18,82	573,98	-0,02120	
22,60	0,7468	18,16	574,36	-0,02111	
22,62	0,7475	17,20	575,10	-0,02109	
22,64	0,7483	13,03	575,88	-0,02119	
22,66	0,7490	13,10	576,29	-0,02131	
22,68	0,7498	13,81	576,72	-0,02137	
22,70	0,7506	9,931	577,35	-0,02134	
22,72	0,7513	8,643	577,81	-0,02120	
22,74	0,7521	10,03	578,22	-0,02102	
22,76	0,7530	6,467	578,97	-0,02100	
22,78	0,7538	4,099	579,55	-0,02110	
22,80	0,7544	8,412	579,79	-0,02126	
22,82	0,7551	9,805	580,42	-0,02134	
22,84	0,7561	4,412	581,49	-0,02130	
22,86	0,7569	2,331	582,12	-0,02121	
22,88	0,7576	5,354	582,13	-0,02119	
22,90	0,7583	3,805	582,42	-0,02112	
22,92	0,7594	-2,388	583,50	-0,02103	
22,94	0,7604	-4,408	584,51	-0,02112	
22,96	0,7610	-2,267	584,73	-0,02128	
22,98	0,7617	-1,107	584,74	-0,02133	
23,00	0,7627	-5,844	585,45	-0,02125	
23,02	0,7637	-10,01	586,46	-0,02116	
23,04	0,7643	-8,350	586,89	-0,02107	
23,06	0,7649	-7,807	586,92	-0,02103	
23,08	0,7656	-13,50	587,44	-0,02105	
23,10	0,7666	-20,61	588,58	-0,02114	
23,12	0,7675	-21,90	589,37	-0,02121	
23,14	0,7680	-19,92	589,41	-0,02119	
23,16	0,7687	-20,11	589,51	-0,02112	
23,18	0,7696	-24,59	590,40	-0,02108	
23,20	0,7705	-29,35	591,48	-0,02105	
23,22	0,7711	-29,85	591,87	-0,02109	
23,24	0,7716	-30,06	591,86	-0,02117	
23,26	0,7725	-34,76	592,43	-0,02126	
23,28	0,7734	-40,21	593,54	-0,02126	
23,30	0,7742	-41,12	594,17	-0,02115	
23,32	0,7748	-39,59	594,15	-0,02106	
23,34	0,7755	-42,15	594,37	-0,02104	
23,36	0,7764	-47,73	595,40	-0,02107	
23,38	0,7774	-51,11	596,46	-0,02115	
23,40	0,7781	-50,15	596,76	-0,02123	
23,42	0,7786	-50,36	596,83	-0,02128	
23,44	0,7795	-56,02	597,54	-0,02129	
23,46	0,7807	-60,30	598,49	-0,02123	
23,48	0,7814	-58,08	598,88	-0,02108	
23,50	0,7821	-56,77	598,91	-0,02099	
23,52	0,7830	-61,50	599,41	-0,02107	
23,54	0,7841	-65,82	600,28	-0,02123	
23,56	0,7850	-62,93	600,66	-0,02130	
23,58	0,7858	-58,19	600,41	-0,02124	
23,60	0,7864	-54,03	599,93	-0,02110	
23,62	0,7874	-48,35	599,61	-0,02105	
23,64	0,7884	-42,86	599,57	-0,02108	
23,66	0,7892	-39,38	599,57	-0,02119	
23,68	0,7898	-36,93	599,50	-0,02129	
23,70	0,7907	-35,58	599,60	-0,02132	
23,72	0,7917	-33,47	599,77	-0,02127	
23,74	0,7925	-25,01	599,68	-0,02116	
23,76	0,7930	-14,75	599,51	-0,02107	
23,78	0,7938	-10,96	599,62	-0,02107	
23,80	0,7946	-8,811	599,82	-0,02110	
23,82	0,7952	-1,995	599,74	-0,02120	
23,84	0,7957	4,652	599,55	-0,02129	
23,86	0,7965	6,021	599,58	-0,02132	
23,88	0,7972	8,147	599,70	-0,02125	
23,90	0,7977	15,08	599,63	-0,02115	
23,92	0,7981	20,99	599,48	-0,02109	
23,94	0,7988	22,27	599,56	-0,02104	
23,96	0,7996	23,75	599,77	-0,02112	
23,98	0,8001	29,43	599,77	-0,02125	
24,00	0,8004	36,16	599,60	-0,02134	
24,02	0,8009	39,48	599,51	-0,02128	
24,04	0,8015	41,28	599,61	-0,02111	
24,06	0,8021	45,42	599,67	-0,02098	
24,08	0,8024	50,96	599,57	-0,02096	
24,10	0,8026	53,99	599,48	-0,02108	
24,12	0,8031	54,45	599,62	-0,02125	
24,14	0,8036	57,14	599,80	-0,02136	
24,16	0,8041	63,23	599,77	-0,02132	
24,18	0,8043	68,67	599,59	-0,02123	
24,20	0,8047	71,62	599,55	-0,02113	
24,22	0,8052	73,59	599,66	-0,02101	
24,24	0,8056	77,77	599,66	-0,02099	
24,26	0,8058	81,89	599,54	-0,02114	
24,28	0,8060	83,03	599,51	-0,02123	
24,30	0,8064	82,44	599,64	-0,02124	
24,32	0,8068	85,05	599,72	-0,02119	
24,34	0,8071	90,02	599,63	-0,02105	
24,36	0,8072	93,68	599,54	-0,02099	
24,38	0,8076	95,16	599,60	-0,02101	
24,40	0,8079	98,51	599,65	-0,02104	
24,42	0,8079	103,56	599,58	-0,02117	
24,44	0,8080	105,40	599,51	-0,02122	
24,46	0,8084	104,46	599,58	-0,02120	
24,48	0,8086	105,97	599,66	-0,02119	
24,50	0,8088	110,25	599,60	-0,02106	
24,52	0,8090	113,78	599,51	-0,02101	
24,54	0,8092	115,15	599,55	-0,02105	
24,56	0,8093	116,65	599,67	-0,02114	
24,58	0,8095	119,61	599,67	-0,02124	
24,60	0,8097	122,68	599,56	-0,02122	
24,62	0,8099	123,05	599,54	-0,02120	
24,64	0,8100	122,91	599,61	-0,02116	
24,66	0,8100	125,49	599,62	-0,02104	
24,68	0,8100	128,97	599,53	-0,02097	
24,70	0,8102	130,09	599,51	-0,02110	
24,72	0,8106	129,28	599,62	-0,02131	
24,74	0,8107	130,52	599,70	-0,02135	
24,76	0,8106	134,16	599,63	-0,02132	
24,78	0,8106	136,78	599,52	-0,02114	
24,80	0,8107	137,12	599,54	-0,02098	
24,82	0,8110	137,47	599,64	-0,02100	
24,84	0,8112	139,87	599,64	-0,02112	
24,86	0,8112	142,59	599,55	-0,02119	
24,88	0,8112	143,13	599,50	-0,02128	
24,90	0,8113	142,82	599,60	-0,02126	
24,92	0,8113	143,80	599,71	-0,02114	
24,94	0,8113	145,81	599,66	-0,02097	
24,96	0,8112	147,08	599,55	-0,02101	
24,98	0,8113	147,14	599,54	-0,02123	
25,00	0,8113	147,64	599,60	-0,02139	
25,02	0,8113	149,12	599,61	-0,02132	
25,04	0,8113	150,33	599,54	-0,02117	
25,06	0,8112	149,89	599,52	-0,02107	
25,08	0,8113	149,64	599,61	-0,02101	
25,10	0,8113	151,57	599,66	-0,02092	
25,12	0,8113	154,86	599,58	-0,02095	
25,14	0,8112	155,90	599,51	-0,02110	
25,16	0,8113	154,81	599,56	-0,02129	
25,18	0,8113	155,17	599,62	-0,02141	
25,20	0,8113	157,06	599,58	-0,02145	
25,22	0,8112	157,73	599,52	-0,02144	
25,24	0,8113	156,65	599,56	-0,02149	
25,26	0,8113	156,53	599,64	-0,02166	
25,28	0,8113	158,27	599,62	-0,02191	
25,30	0,8112	160,07	599,52	-0,02218	
25,32	0,8112	159,97	599,51	-0,02237	
25,34	0,8113	159,44	599,62	-0,02248	
25,36	0,8113	160,61	599,67	-0,02256	
25,38	0,8113	162,79	599,59	-0,02262	
25,40	0,8112	163,10	599,50	-0,02290	
25,42	0,8113	161,41	599,56	-0,02330	
25,44	0,8113	160,96	599,68	-0,02370	
25,46	0,8113	162,33	599,67	-0,02392	
25,48	0,8113	163,76	599,56	-0,02384	
25,50	0,8113	163,92	599,52	-0,02380	
25,52	0,8113	163,77	599,59	-0,02385	
25,54	0,8113	165,10	599,60	-0,02393	
25,56	0,8113	166,48	599,52	-0,02419	
25,58	0,8112	165,36	599,52	-0,02457	
25,60	0,8113	163,26	599,64	-0,02501	
25,62	0,8113	164,12	599,69	-0,02546	
25,64	0,8113	167,84	599,60	-0,02593	
25,66	0,8112	169,46	599,51	-0,02634	
25,68	0,8113	168,22	599,56	-0,02660	
25,70	0,8113	167,89	599,64	-0,02738	
25,72	0,8113	169,31	599,61	-0,02850	
25,74	0,8112	170,33	599,50	-0,02928	
25,76	0,8112	169,07	599,51	-0,02982	
25,78	0,8113	167,47	599,67	-0,03001	
25,80	0,8113	168,28	599,76	-0,02994	
25,82	0,8113	169,84	599,68	-0,03063	
25,84	0,8112	171,17	599,54	-0,03277	
25,86	0,8112	171,45	599,55	-0,03447	
25,88	0,8111	171,56	599,61	-0,03510	
25,90	0,8108	172,92	599,56	-0,03521	
25,92	0,8106	173,17	599,49	-0,03520	
25,94	0,8106	170,41	599,56	-0,03514	
25,96	0,8107	167,90	599,71	-0,03503	
25,98	0,8107	169,55	599,72	-0,03492	
26,00	0,8106	172,75	599,59	-0,03494	
26,02	0,8106	173,13	599,57	-0,03513	
26,04	0,8107	171,59	599,64	-0,03531	
26,06	0,8106	172,21	599,61	-0,03530	
26,08	0,8105	173,50	599,51	-0,03520	
26,10	0,8106	171,47	599,54	-0,03517	
26,12	0,8106	168,47	599,65	-0,03521	
26,14	0,8103	168,78	599,64	-0,03528	
26,16	0,8100	170,92	599,54	-0,03537	
26,18	0,8099	170,44	599,50	-0,03541	
26,20	0,8100	168,35	599,62	-0,03540	
26,22	0,8100	168,47	599,72	-0,03531	
26,24	0,8099	169,82	599,65	-0,03519	
26,26	0,8099	170,56	599,54	-0,03512	
26,28	0,8099	169,20	599,58	-0,03515	
26,30	0,8100	169,34	599,61	-0,03528	
26,32	0,8099	171,57	599,54	-0,03541	
26,34	0,8099	171,10	599,50	-0,03548	
26,36	0,8099	167,57	599,62	-0,03548	
26,38	0,8100	166,24	599,73	-0,03531	
26,40	0,8097	168,38	599,68	-0,03520	
26,42	0,8093	170,57	599,55	-0,03516	
26,44	0,8093	169,84	599,58	-0,03520	
26,46	0,8093	168,66	599,65	-0,03534	
26,48	0,8093	169,60	599,60	-0,03544	
26,50	0,8092	170,09	599,51	-0,03544	
26,52	0,8092	166,93	599,55	-0,03536	
26,54	0,8093	164,33	599,64	-0,03530	
26,56	0,8093	165,94	599,61	-0,03523	
26,58	0,8092	167,46	599,51	-0,03528	
26,60	0,8092	166,31	599,50	-0,03538	
26,62	0,8093	164,97	599,64	-0,03545	
26,64	0,8093	165,33	599,73	-0,03551	
26,66	0,8093	166,57	599,65	-0,03544	
26,68	0,8092	167,08	599,52	-0,03525	
26,70	0,8092	166,03	599,54	-0,03512	
26,72	0,8092	165,21	599,65	-0,03524	
26,74	0,8088	165,95	599,65	-0,03540	
26,76	0,8086	166,83	599,54	-0,03554	
26,78	0,8085	165,10	599,51	-0,03551	
26,80	0,8086	163,31	599,60	-0,03544	
26,82	0,8086	163,87	599,65	-0,03542	
26,84	0,8086	166,00	599,56	-0,03538	
26,86	0,8085	166,05	599,49	-0,03536	
26,88	0,8086	163,17	599,59	-0,03546	
26,90	0,8086	162,39	599,71	-0,03555	
26,92	0,8086	164,34	599,65	-0,03551	
26,94	0,8085	164,87	599,55	-0,03542	
26,96	0,8086	162,57	599,57	-0,03542	
26,98	0,8086	161,78	599,60	-0,03544	
27,00	0,8086	164,18	599,54	-0,03543	
27,02	0,8085	163,98	599,50	-0,03546	
27,04	0,8086	159,99	599,62	-0,03559	
27,06	0,8087	158,24	599,73	-0,03562	
27,08	0,8086	160,68	599,66	-0,03552	
27,10	0,8085	163,38	599,53	-0,03538	
27,12	0,8086	162,88	599,57	-0,03528	
27,14	0,8086	161,85	599,64	-0,03529	
27,16	0,8086	162,81	599,57	-0,03539	
27,18	0,8085	162,63	599,49	-0,03555	
27,20	0,8086	158,71	599,58	-0,03565	
27,22	0,8086	156,39	599,68	-0,03560	
27,24	0,8086	158,36	599,62	-0,03556	
27,26	0,8083	160,08	599,52	-0,03552	
27,28	0,8081	158,83	599,56	-0,03549	
27,30	0,8080	157,37	599,65	-0,03548	
27,32	0,8079	158,47	599,61	-0,03553	
27,34	0,8078	159,57	599,52	-0,03566	
27,36	0,8079	157,34	599,56	-0,03573	
27,38	0,8080	156,09	599,65	-0,03563	
27,40	0,8079	158,03	599,61	-0,03551	
27,42	0,8079	159,94	599,50	-0,03544	
27,44	0,8079	158,01	599,55	-0,03547	
27,46	0,8080	155,01	599,69	-0,03552	
27,48	0,8080	155,90	599,70	-0,03558	
27,50	0,8079	158,78	599,57	-0,03563	
27,52	0,8078	157,87	599,53	-0,03561	
27,54	0,8079	155,07	599,62	-0,03553	
27,56	0,8080	155,15	599,63	-0,03547	
27,58	0,8079	156,68	599,53	-0,03545	
27,60	0,8079	156,08	599,51	-0,03546	
27,62	0,8079	153,57	599,63	-0,03557	
27,64	0,8080	153,67	599,69	-0,03567	
27,66	0,8079	155,92	599,59	-0,03567	
27,68	0,8078	156,41	599,50	-0,03560	
27,70	0,8079	154,67	599,57	-0,03552	
27,72	0,8080	154,10	599,67	-0,03548	
27,74	0,8079	155,76	599,62	-0,03550	
27,76	0,8079	156,74	599,51	-0,03553	
27,78	0,8079	154,54	599,54	-0,03561	
27,80	0,8080	152,38	599,65	-0,03569	
27,82	0,8080	153,46	599,64	-0,03560	
27,84	0,8078	155,81	599,53	-0,03539	
27,86	0,8079	154,51	599,53	-0,03530	
27,88	0,8083	151,59	599,65	-0,03533	
27,90	0,8085	152,39	599,67	-0,03546	
27,92	0,8085	155,33	599,56	-0,03556	
27,94	0,8085	154,58	599,51	-0,03560	
27,96	0,8086	151,74	599,62	-0,03557	
27,98	0,8087	151,87	599,67	-0,03551	
28,00	0,8086	153,99	599,56	-0,03540	
28,02	0,8085	153,45	599,50	-0,03534	
28,04	0,8086	150,52	599,62	-0,03543	
28,06	0,8087	150,27	599,71	-0,03555	
28,08	0,8086	152,39	599,62	-0,03565	
28,10	0,8085	153,47	599,50	-0,03569	
28,12	0,8086	151,36	599,58	-0,03569	
28,14	0,8087	150,72	599,68	-0,03559	
28,16	0,8086	152,51	599,63	-0,03549	
28,18	0,8085	152,78	599,51	-0,03551	
28,20	0,8085	149,85	599,54	-0,03563	
28,22	0,8086	148,01	599,67	-0,03569	
28,24	0,8087	149,67	599,67	-0,03569	
28,26	0,8085	151,79	599,56	-0,03563	
28,28	0,8085	150,80	599,53	-0,03556	
28,30	0,8086	149,50	599,61	-0,03552	
28,32	0,8086	150,57	599,59	-0,03551	
28,34	0,8085	152,57	599,49	-0,03554	
28,36	0,8086	150,90	599,54	-0,03568	
28,38	0,8087	147,15	599,71	-0,03577	
28,40	0,8087	146,92	599,75	-0,03572	
28,42	0,8086	149,21	599,62	-0,03556	
28,44	0,8085	149,68	599,52	-0,03543	
28,46	0,8086	148,19	599,59	-0,03547	
28,48	0,8087	148,31	599,64	-0,03558	
28,50	0,8086	149,90	599,56	-0,03570	
28,52	0,8085	149,71	599,49	-0,03578	
28,54	0,8086	146,40	599,59	-0,03576	
28,56	0,8087	144,91	599,69	-0,03565	
28,58	0,8086	147,43	599,63	-0,03559	
28,60	0,8086	148,92	599,50	-0,03556	
28,62	0,8089	147,07	599,54	-0,03556	
28,64	0,8093	144,76	599,71	-0,03568	
28,66	0,8094	145,01	599,74	-0,03577	
28,68	0,8093	146,64	599,59	-0,03574	
28,70	0,8092	146,42	599,51	-0,03570	
28,72	0,8093	144,68	599,59	-0,03556	
28,74	0,8093	144,79	599,68	-0,03539	
28,76	0,8093	146,23	599,61	-0,03542	
28,78	0,8092	146,19	599,50	-0,03556	
28,80	0,8093	143,29	599,56	-0,03568	
28,82	0,8093	142,27	599,68	-0,03578	
28,84	0,8093	144,43	599,65	-0,03577	
28,86	0,8092	146,41	599,53	-0,03567	
28,88	0,8092	144,84	599,54	-0,03550	
28,90	0,8093	143,18	599,63	-0,03548	
28,92	0,8093	144,60	599,59	-0,03566	
28,94	0,8092	145,55	599,50	-0,03580	
28,96	0,8093	142,97	599,55	-0,03582	
28,98	0,8097	140,58	599,69	-0,03570	
29,00	0,8099	142,15	599,68	-0,03571	
29,02	0,8099	145,28	599,54	-0,04075	
29,04	0,8099	144,53	599,52	-0,05289	
29,06	0,8100	141,67	599,67	-0,06631	
29,08	0,8100	141,45	599,72	-0,07868	
29,10	0,8099	142,94	599,60	-0,08837	
29,12	0,8099	143,53	599,51	-0,09378	
29,14	0,8100	142,09	599,59	-0,09791	
29,16	0,8100	142,12	599,66	-0,09736	
29,18	0,8099	144,72	599,57	-0,09020	
29,20	0,8099	145,54	599,50	-0,08399	
29,22	0,8100	142,69	599,60	-0,08209	
29,24	0,8102	141,42	599,67	-0,08216	
29,26	0,8104	144,17	599,58	-0,08229	
29,28	0,8105	145,54	599,50	-0,08242	
29,30	0,8107	142,92	599,59	-0,08255	
29,32	0,8107	141,43	599,70	-0,08242	
29,34	0,8107	143,90	599,63	-0,08207	
29,36	0,8106	146,09	599,49	-0,08172	
29,38	0,8106	144,39	599,54	-0,08150	
29,40	0,8107	142,44	599,75	-0,08104	
29,42	0,8107	143,95	599,79	-0,08042	
29,44	0,8106	146,09	599,64	-0,07971	
29,46	0,8106	145,65	599,54	-0,07925	
29,48	0,8107	144,23	599,59	-0,07903	
29,50	0,8107	144,78	599,60	-0,07890	
29,52	0,8106	146,10	599,52	-0,07879	
29,54	0,8106	144,57	599,51	-0,07861	
29,56	0,8109	140,93	599,66	-0,07856	
29,58	0,8112	140,79	599,76	-0,07854	
29,60	0,8113	144,08	599,66	-0,07852	
29,62	0,8112	146,36	599,53	-0,07871	
29,64	0,8113	145,07	599,59	-0,07911	
29,66	0,8114	144,21	599,64	-0,07939	
29,68	0,8113	145,77	599,55	-0,07949	
29,70	0,8112	145,87	599,49	-0,07947	
29,72	0,8113	142,42	599,63	-0,07944	
29,74	0,8114	141,34	599,74	-0,07946	
29,76	0,8113	144,03	599,66	-0,07965	
29,78	0,8112	146,09	599,52	-0,08006	
29,80	0,8113	144,48	599,56	-0,08043	
29,82	0,8114	143,77	599,67	-0,08081	
29,84	0,8113	145,38	599,62	-0,08110	
29,86	0,8113	146,65	599,50	-0,08127	
29,88	0,8116	144,81	599,54	-0,08138	
29,90	0,8119	143,08	599,68	-0,08158	
29,92	0,8120	144,44	599,68	-0,08177	
29,94	0,8119	146,34	599,53	-0,08172	
29,96	0,8119	145,05	599,50	-0,08159	
29,98	0,8120	142,93	599,68	-0,08162	
30,00	0,8121	143,42	599,78	-0,08162	
30,02	0,8120	145,61	599,65	-0,08136	
30,04	0,8119	146,59	599,53	-0,08120	
30,06	0,8120	144,41	599,60	-0,08128	
30,08	0,8120	143,81	599,64	-0,08127	
30,10	0,8120	145,75	599,55	-0,08128	
30,12	0,8119	145,93	599,49	-0,08134	
30,14	0,8120	142,49	599,60	-0,08129	
30,16	0,8122	141,39	599,70	-0,08111	
30,18	0,8124	144,12	599,61	-0,08082	
30,20	0,8125	145,58	599,51	-0,08061	
30,22	0,8127	142,90	599,61	-0,08036	
30,24	0,8127	141,36	599,75	-0,08013	
30,26	0,8127	143,79	599,69	-0,07966	
30,28	0,8126	146,38	599,53	-0,07924	
30,30	0,8126	145,60	599,54	-0,07890	
30,32	0,8127	144,54	599,65	-0,07857	
30,34	0,8127	145,71	599,63	-0,07850	
30,36	0,8126	146,90	599,53	-0,07867	
30,38	0,8126	144,72	599,56	-0,07875	
30,40	0,8127	142,41	599,66	-0,07864	
30,42	0,8126	144,88	599,61	-0,07856	
30,44	0,8126	147,82	599,50	-0,07867	
30,46	0,8126	145,82	599,54	-0,07906	
30,48	0,8129	143,38	599,69	-0,07924	
30,50	0,8132	144,43	599,68	-0,07931	
30,52	0,8132	146,35	599,54	-0,07950	
30,54	0,8133	145,61	599,52	-0,07993	
30,56	0,8134	143,74	599,65	-0,08048	
30,58	0,8134	143,86	599,70	-0,08085	
30,60	0,8133	145,87	599,58	-0,08106	
30,62	0,8132	145,61	599,51	-0,08115	
30,64	0,8133	143,61	599,60	-0,08155	
30,66	0,8134	143,70	599,68	-0,08188	
30,68	0,8133	145,84	599,58	-0,08200	
30,70	0,8132	146,06	599,51	-0,08197	
30,72	0,8133	143,52	599,62	-0,08184	
30,74	0,8134	143,63	599,67	-0,08151	
30,76	0,8133	147,08	599,55	-0,08093	
30,78	0,8132	147,34	599,50	-0,08064	
30,80	0,8135	143,54	599,66	-0,08047	
30,82	0,8138	142,97	599,75	-0,08000	
30,84	0,8139	146,60	599,63	-0,07935	
30,86	0,8139	147,40	599,51	-0,07888	
30,88	0,8140	144,95	599,57	-0,07856	
30,90	0,8140	144,19	599,66	-0,07830	
30,92	0,8140	146,90	599,59	-0,07821	
30,94	0,8139	148,16	599,48	-0,07832	
30,96	0,8139	145,80	599,60	-0,07835	
30,98	0,8140	144,25	599,79	-0,07845	
31,00	0,8140	146,13	599,76	-0,07838	
31,02	0,8139	148,41	599,58	-0,07818	
31,04	0,8139	147,17	599,55	-0,07839	
31,06	0,8140	145,45	599,63	-0,07915	
31,08	0,8140	147,32	599,59	-0,07990	
31,10	0,8139	148,83	599,49	-0,08040	
31,12	0,8139	145,70	599,55	-0,08074	
31,14	0,8140	142,45	599,73	-0,08076	
31,16	0,8140	143,77	599,74	-0,08067	
31,18	0,8140	146,34	599,59	-0,08070	
31,20	0,8142	146,40	599,52	-0,08104	
31,22	0,8146	144,61	599,60	-0,08135	
31,24	0,8147	145,71	599,60	-0,08149	
31,26	0,8146	147,86	599,50	-0,08148	
31,28	0,8146	145,59	599,53	-0,08117	
31,30	0,8147	142,34	599,69	-0,08077	
31,32	0,8147	143,00	599,72	-0,08051	
31,34	0,8146	145,82	599,58	-0,08032	
31,36	0,8146	146,38	599,51	-0,08024	
31,38	0,8147	144,72	599,61	-0,08035	
31,40	0,8147	145,06	599,67	-0,08043	
31,42	0,8146	147,29	599,57	-0,08027	
31,44	0,8146	146,91	599,50	-0,08008	
31,46	0,8146	143,94	599,61	-0,08018	
31,48	0,8147	143,69	599,69	-0,08019	
31,50	0,8146	146,96	599,60	-0,08017	
31,52	0,8146	147,60	599,50	-0,08028	
31,54	0,8149	145,05	599,59	-0,08043	
31,56	0,8153	144,39	599,66	-0,08031	
31,58	0,8153	147,16	599,58	-0,08017	
31,60	0,8152	147,56	599,49	-0,08016	
31,62	0,8153	145,00	599,59	-0,08013	
31,64	0,8154	143,37	599,76	-0,08020	
31,66	0,8154	144,63	599,73	-0,08032	
31,68	0,8153	146,74	599,57	-0,08029	
31,70	0,8153	146,41	599,54	-0,08018	
31,72	0,8154	145,22	599,62	-0,08008	
31,74	0,8153	145,94	599,57	-0,08004	
31,76	0,8153	146,82	599,48	-0,08000	
31,78	0,8153	144,47	599,56	-0,08008	
31,80	0,8154	141,25	599,75	-0,08024	
31,82	0,8154	142,44	599,76	-0,08029	
31,84	0,8152	145,64	599,59	-0,08015	
31,86	0,8154	146,26	599,52	-0,08013	
31,88	0,8158	144,54	599,64	-0,08018	
31,90	0,8160	144,87	599,68	-0,08013	
31,92	0,8159	146,34	599,56	-0,08005	
31,94	0,8159	144,90	599,50	-0,08020	
31,96	0,8160	141,79	599,62	-0,08037	
31,98	0,8161	142,19	599,72	-0,08039	
32,00	0,8160	145,21	599,62	-0,08034	
32,02	0,8159	146,71	599,51	-0,08017	
32,04	0,8160	144,60	599,59	-0,08006	
32,06	0,8161	143,88	599,68	-0,08006	
32,08	0,8160	145,82	599,60	-0,08017	
32,10	0,8159	146,24	599,50	-0,08033	
32,12	0,8160	143,35	599,57	-0,08050	
32,14	0,8162	142,16	599,71	-0,08053	
32,16	0,8165	144,33	599,67	-0,08034	
32,18	0,8165	146,57	599,53	-0,08015	
32,20	0,8166	145,70	599,53	-0,08022	
32,22	0,8167	143,94	599,68	-0,08041	
32,24	0,8167	144,60	599,70	-0,08047	
32,26	0,8166	146,59	599,56	-0,08043	
32,28	0,8166	145,85	599,53	-0,08038	
32,30	0,8167	143,75	599,66	-0,08028	
32,32	0,8167	144,52	599,68	-0,08011	
32,34	0,8166	146,29	599,55	-0,07983	
32,36	0,8166	144,46	599,53	-0,07965	
32,38	0,8167	141,45	599,63	-0,07954	
32,40	0,8167	142,59	599,63	-0,07922	
32,42	0,8166	145,50	599,50	-0,07886	
32,44	0,8166	144,83	599,49	-0,07858	
32,46	0,8170	141,71	599,71	-0,07831	
32,48	0,8173	142,11	599,84	-0,07806	
32,50	0,8173	145,11	599,72	-0,07777	
32,52	0,8172	146,36	599,54	-0,07764	
32,54	0,8173	144,75	599,56	-0,07778	
32,56	0,8174	144,02	599,65	-0,07799	
32,58	0,8173	145,58	599,59	-0,07807	
32,60	0,8172	145,99	599,48	-0,07778	
32,62	0,8173	142,45	599,58	-0,07741	
32,64	0,8174	140,56	599,75	-0,07725	
32,66	0,8174	143,37	599,71	-0,07749	
32,68	0,8173	146,26	599,54	-0,07849	
32,70	0,8174	145,83	599,49	-0,07977	
32,72	0,8178	143,83	599,67	-0,08067	
32,74	0,8180	142,98	599,77	-0,08107	
32,76	0,8180	143,40	599,66	-0,08096	
32,78	0,8179	143,68	599,53	-0,08095	
32,80	0,8180	142,22	599,57	-0,08110	
32,82	0,8181	142,64	599,63	-0,08112	
32,84	0,8180	145,16	599,55	-0,08091	
32,86	0,8180	144,73	599,49	-0,08053	
32,88	0,8180	141,09	599,61	-0,08011	
32,90	0,8181	139,98	599,74	-0,07930	
32,92	0,8180	143,37	599,65	-0,07847	
32,94	0,8179	146,12	599,53	-0,07794	
32,96	0,8182	144,63	599,58	-0,07767	
32,98	0,8185	143,27	599,67	-0,07761	
33,00	0,8186	144,92	599,58	-0,07762	
33,02	0,8186	145,90	599,49	-0,07769	
33,04	0,8187	142,47	599,62	-0,07787	
33,06	0,8188	140,57	599,77	-0,07808	
33,08	0,8187	143,37	599,69	-0,07831	
33,10	0,8186	145,50	599,51	-0,07846	
33,12	0,8186	143,37	599,53	-0,07870	
33,14	0,8188	140,68	599,77	-0,07880	
33,16	0,8188	141,24	599,83	-0,07868	
33,18	0,8187	143,18	599,66	-0,07851	
33,20	0,8187	143,29	599,52	-0,07846	
33,22	0,8190	141,57	599,58	-0,07849	
33,24	0,8193	141,47	599,67	-0,07850	
33,26	0,8194	143,00	599,59	-0,07855	
33,28	0,8193	143,15	599,49	-0,07859	
33,30	0,8194	140,17	599,61	-0,07858	
33,32	0,8194	138,87	599,77	-0,07847	
33,34	0,8194	141,04	599,71	-0,07837	
33,36	0,8193	143,21	599,55	-0,07830	
33,38	0,8193	142,29	599,54	-0,07833	
33,40	0,8194	140,53	599,66	-0,07847	
33,42	0,8194	141,35	599,65	-0,07845	
33,44	0,8193	143,13	599,52	-0,07839	
33,46	0,8195	141,80	599,52	-0,07838	
33,48	0,8199	139,89	599,69	-0,07837	
33,50	0,8201	141,02	599,73	-0,07829	
33,52	0,8200	143,23	599,58	-0,07823	
33,54	0,8199	142,77	599,51	-0,07835	
33,56	0,8201	139,87	599,65	-0,07849	
33,58	0,8201	139,55	599,74	-0,07848	
33,60	0,8200	142,10	599,63	-0,07834	
33,62	0,8200	142,84	599,50	-0,07824	
33,64	0,8200	140,48	599,58	-0,07818	
33,66	0,8201	139,96	599,70	-0,07820	
33,68	0,8201	142,00	599,63	-0,07828	
33,70	0,8201	142,74	599,50	-0,07836	
33,72	0,8205	139,87	599,55	-0,07848	
33,74	0,8208	137,96	599,74	-0,07856	
33,76	0,8208	140,11	599,75	-0,07842	
33,78	0,8207	142,76	599,58	-0,07821	
33,80	0,8206	141,57	599,52	-0,07823	
33,82	0,8208	138,82	599,67	-0,07841	
33,84	0,8208	139,47	599,73	-0,07851	
33,86	0,8207	142,33	599,59	-0,07850	
33,88	0,8206	142,27	599,50	-0,07854	
33,90	0,8209	138,92	599,64	-0,07845	
33,92	0,8213	138,75	599,75	-0,07822	
33,94	0,8213	141,49	599,66	-0,07811	
33,96	0,8213	141,99	599,51	-0,07817	
33,98	0,8214	139,31	599,56	-0,07825	
34,00	0,8215	137,81	599,70	-0,07834	
34,02	0,8214	140,33	599,67	-0,07832	
34,04	0,8213	142,26	599,53	-0,07822	
34,06	0,8214	140,01	599,54	-0,07822	
34,08	0,8214	138,15	599,68	-0,07820	
34,10	0,8214	140,33	599,67	-0,07815	
34,12	0,8213	142,96	599,53	-0,07818	
34,14	0,8215	141,75	599,51	-0,07837	
34,16	0,8219	138,46	599,70	-0,07848	
34,18	0,8221	138,79	599,79	-0,07836	
34,20	0,8221	141,28	599,65	-0,07814	
34,22	0,8220	141,04	599,51	-0,07807	
34,24	0,8221	138,42	599,59	-0,07817	
34,26	0,8222	137,41	599,75	-0,07829	
34,28	0,8221	138,94	599,70	-0,07836	
34,30	0,8220	140,35	599,53	-0,07836	
34,32	0,8220	139,11	599,53	-0,07831	
34,34	0,8222	137,77	599,68	-0,07822	
34,36	0,8222	139,18	599,70	-0,07817	
34,38	0,8222	140,99	599,55	-0,07810	
34,40	0,8224	140,29	599,50	-0,07811	
34,42	0,8227	137,94	599,67	-0,07822	
34,44	0,8229	138,79	599,75	-0,07835	
34,46	0,8228	141,84	599,62	-0,07829	
34,48	0,8227	141,58	599,50	-0,07823	
34,50	0,8227	138,45	599,59	-0,07826	
34,52	0,8228	137,45	599,70	-0,07820	
34,54	0,8228	140,22	599,63	-0,07809	
34,56	0,8227	141,52	599,50	-0,07815	
34,58	0,8228	139,39	599,56	-0,07829	
34,60	0,8232	137,71	599,73	-0,07834	
34,62	0,8233	139,22	599,73	-0,07830	
34,64	0,8232	141,07	599,57	-0,07815	
34,66	0,8233	140,14	599,54	-0,07811	
34,68	0,8234	138,57	599,65	-0,07815	
34,70	0,8234	140,39	599,64	-0,07817	
34,72	0,8233	142,63	599,52	-0,07819	
34,74	0,8233	140,50	599,53	-0,07828	
34,76	0,8234	136,85	599,69	-0,07838	
34,78	0,8234	137,97	599,71	-0,07836	
34,80	0,8233	141,06	599,57	-0,07819	
34,82	0,8235	140,66	599,51	-0,07804	
34,84	0,8239	138,10	599,67	-0,07803	
34,86	0,8242	138,71	599,78	-0,07810	
34,88	0,8241	141,13	599,66	-0,07817	
34,90	0,8239	141,29	599,55	-0,07826	
34,92	0,8241	138,97	599,64	-0,07827	
34,94	0,8241	139,25	599,67	-0,07820	
34,96	0,8240	141,95	599,55	-0,07807	
34,98	0,8239	141,29	599,50	-0,07805	
35,00	0,8242	137,06	599,65	-0,07809	
35,02	0,8246	136,05	599,75	-0,07820	
35,04	0,8247	138,67	599,64	-0,07830	
35,06	0,8246	140,32	599,52	-0,07833	
35,08	0,8247	139,01	599,59	-0,07828	
35,10	0,8248	139,21	599,66	-0,07815	
35,12	0,8247	142,01	599,57	-0,07803	
35,14	0,8247	142,24	599,51	-0,07800	
35,16	0,8247	138,93	599,61	-0,07814	
35,18	0,8248	138,15	599,68	-0,07824	
35,20	0,8247	141,26	599,58	-0,07823	
35,22	0,8248	142,58	599,49	-0,07823	
35,24	0,8252	139,70	599,62	-0,07825	
35,26	0,8254	137,93	599,74	-0,07814	
35,28	0,8254	140,52	599,65	-0,07800	
35,30	0,8253	142,32	599,52	-0,07801	
35,32	0,8252	139,87	599,56	-0,07814	
35,34	0,8240	138,07	599,65	-0,07823	
35,36	0,8226	140,38	599,59	-0,07816	
35,38	0,8220	142,25	599,48	-0,07810	
35,40	0,8220	139,90	599,57	-0,07810	
35,42	0,8221	137,80	599,75	-0,07810	
35,44	0,8221	139,41	599,74	-0,07810	
35,46	0,8220	142,43	599,56	-0,07819	
35,48	0,8220	141,61	599,52	-0,07826	
35,50	0,8222	138,98	599,65	-0,07830	
35,52	0,8225	139,61	599,68	-0,07827	
35,54	0,8226	141,79	599,55	-0,07818	
35,56	0,8227	140,83	599,52	-0,07824	
35,58	0,8229	139,80	599,65	-0,07844	
35,60	0,8231	146,57	599,67	-0,07875	
35,62	0,8238	161,22	599,53	-0,07927	
35,64	0,8254	178,61	599,52	-0,07994	
35,66	0,8280	201,83	599,71	-0,08064	
35,68	0,8311	238,19	599,79	-0,08127	
35,70	0,8349	286,84	599,63	-0,08205	
35,72	0,8395	341,72	599,51	-0,08309	
35,74	0,8452	402,42	599,62	-0,08444	
35,76	0,8517	474,86	599,71	-0,08603	
35,78	0,8587	558,12	599,59	-0,08769	
35,80	0,8665	646,67	599,51	-0,08944	
35,82	0,8753	740,26	599,63	-0,09138	
35,84	0,8848	844,45	599,70	-0,09366	
35,86	0,8950	957,86	599,58	-0,09634	
35,88	0,9060	1072,1	599,50	-0,09960	
35,90	0,9180	1183,7	599,66	-0,1037	
35,92	0,9309	1297,6	599,77	-0,1087	
35,94	0,9443	1412,7	599,65	-0,1145	
35,96	0,9584	1520,0	599,50	-0,1215	
35,98	0,9735	1614,2	599,59	-0,1296	
36,00	0,9896	1699,1	599,75	-0,1389	
36,02	1,006	1775,8	599,70	-0,1492	
36,04	1,024	1840,1	599,53	-0,1605	
36,06	1,042	1891,2	599,54	-0,1726	
36,08	1,061	1934,3	599,72	-0,1853	
36,10	1,081	1974,6	599,75	-0,1985	
36,12	1,102	2010,7	599,60	-0,2123	
36,14	1,123	2040,6	599,50	-0,2268	
36,16	1,146	2066,7	599,62	-0,2419	
36,18	1,169	2092,7	599,70	-0,2576	
36,20	1,193	2119,3	599,60	-0,2739	
36,22	1,217	2143,5	599,51	-0,2905	
36,24	1,243	2163,7	599,60	-0,3077	
36,26	1,269	2183,9	599,71	-0,3253	
36,28	1,296	2206,9	599,63	-0,3434	
36,30	1,324	2228,2	599,52	-0,3622	
36,32	1,353	2244,7	599,61	-0,3816	
36,34	1,382	2262,0	599,69	-0,4014	
36,36	1,413	2283,0	599,57	-0,4218	
36,38	1,444	2301,2	599,51	-0,4428	
36,40	1,476	2313,5	599,66	-0,4643	
36,42	1,509	2328,1	599,74	-0,4862	
36,44	1,542	2346,8	599,60	-0,5089	
36,46	1,576	2362,9	599,50	-0,5324	
36,48	1,611	2374,4	599,66	-0,5564	
36,50	1,647	2388,0	599,79	-0,5808	
36,52	1,684	2405,0	599,69	-0,6058	
36,54	1,722	2418,9	599,53	-0,6314	
36,56	1,760	2428,3	599,56	-0,6573	
36,58	1,799	2439,1	599,68	-0,6835	
36,60	1,838	2452,4	599,63	-0,7099	
36,62	1,878	2463,7	599,50	-0,7365	
36,64	1,918	2470,0	599,60	-0,7632	
36,66	1,958	2477,0	599,80	-0,7900	
36,68	1,998	2487,3	599,79	-0,8168	
36,70	2,038	2497,4	599,61	-0,8439	
36,72	2,078	2503,8	599,55	-0,8713	
36,74	2,118	2508,3	599,63	-0,8988	
36,76	2,158	2515,7	599,62	-0,9264	
36,78	2,198	2522,6	599,52	-0,9543	
36,80	2,238	2525,2	599,56	-0,9823	
36,82	2,278	2527,4	599,68	-1,010	
36,84	2,318	2534,3	599,65	-1,038	
36,86	2,358	2542,0	599,54	-1,067	
36,88	2,398	2545,0	599,58	-1,096	
36,90	2,438	2547,6	599,65	-1,124	
36,92	2,478	2554,0	599,58	-1,153	
36,94	2,518	2558,7	599,52	-1,182	
36,96	2,558	2558,9	599,61	-1,211	
36,98	2,598	2560,8	599,68	-1,240	
37,00	2,638	2566,8	599,59	-1,270	
37,02	2,678	2571,4	599,51	-1,300	
37,04	2,718	2572,0	599,62	-1,329	
37,06	2,758	2573,3	599,74	-1,359	
37,08	2,798	2577,5	599,66	-1,389	
37,10	2,838	2580,7	599,54	-1,419	
37,12	2,878	2580,5	599,62	-1,450	
37,14	2,918	2581,7	599,70	-1,480	
37,16	2,958	2585,5	599,61	-1,511	
37,18	2,998	2587,1	599,55	-1,541	
37,20	3,038	2585,3	599,63	-1,572	
37,22	3,078	2586,0	599,65	-1,603	
37,24	3,118	2590,2	599,54	-1,634	
37,26	3,158	2591,0	599,54	-1,665	
37,28	3,198	2588,5	599,67	-1,697	
37,30	3,238	2589,3	599,67	-1,728	
37,32	3,278	2592,7	599,55	-1,760	
37,34	3,318	2592,3	599,56	-1,791	
37,36	3,358	2590,1	599,67	-1,823	
37,38	3,398	2591,5	599,66	-1,855	
37,40	3,438	2593,9	599,54	-1,887	
37,42	3,478	2592,6	599,56	-1,920	
37,44	3,518	2590,1	599,70	-1,952	
37,46	3,558	2591,4	599,69	-1,985	
37,48	3,598	2593,8	599,56	-2,017	
37,50	3,638	2592,4	599,54	-2,050	
37,52	3,678	2588,8	599,66	-2,083	
37,54	3,718	2588,7	599,67	-2,116	
37,56	3,758	2590,5	599,56	-2,149	
37,58	3,798	2589,1	599,54	-2,183	
37,60	3,838	2585,3	599,67	-2,216	
37,62	3,878	2584,5	599,70	-2,250	
37,64	3,918	2586,0	599,58	-2,283	
37,66	3,958	2584,3	599,57	-2,317	
37,68	3,998	2580,2	599,67	-2,351	
37,70	4,038	2579,4	599,66	-2,385	
37,72	4,078	2579,9	599,55	-2,419	
37,74	4,118	2576,6	599,57	-2,454	
37,76	4,158	2572,2	599,63	-2,488	
37,78	4,198	2571,9	599,57	-2,523	
37,80	4,238	2571,6	599,51	-2,557	
37,82	4,278	2567,2	599,64	-2,592	
37,84	4,318	2563,3	599,77	-2,627	
37,86	4,358	2563,3	599,69	-2,662	
37,88	4,398	2563,7	599,58	-2,697	
37,90	4,438	2560,1	599,70	-2,733	
37,92	4,478	2556,6	599,80	-2,768	
37,94	4,518	2555,1	599,69	-2,803	
37,96	4,558	2552,5	599,59	-2,839	
37,98	4,598	2545,9	599,70	-2,875	
38,00	4,638	2541,7	599,76	-2,911	
38,02	4,678	2541,3	599,63	-2,947	
38,04	4,718	2539,0	599,57	-2,983	
38,06	4,758	2532,4	599,67	-3,019	
38,08	4,798	2527,8	599,69	-3,055	
38,10	4,838	2526,6	599,58	-3,092	
38,12	4,878	2522,5	599,63	-3,128	
38,14	4,918	2515,7	599,78	-3,165	
38,16	4,958	2512,9	599,74	-3,201	
38,18	4,998	2511,7	599,61	-3,238	
38,20	5,038	2505,8	599,73	-3,275	
38,22	5,078	2498,8	599,90	-3,312	
38,24	5,118	2495,8	599,84	-3,350	
38,26	5,158	2492,9	599,65	-3,387	
38,28	5,198	2486,6	599,67	-3,425	
38,30	5,238	2479,2	599,82	-3,462	
38,32	5,278	2474,5	599,79	-3,499	
38,34	5,318	2470,0	599,62	-3,537	
38,36	5,358	2462,9	599,66	-3,575	
38,38	5,398	2455,0	599,83	-3,613	
38,40	5,438	2450,2	599,79	-3,651	
38,42	5,478	2446,3	599,63	-3,689	
38,44	5,518	2438,6	599,74	-3,727	
38,46	5,558	2429,9	599,92	-3,765	
38,48	5,598	2424,4	599,85	-3,803	
38,50	5,638	2419,5	599,65	-3,841	
38,52	5,678	2411,2	599,70	-3,880	
38,54	5,718	2401,2	599,91	-3,918	
38,56	5,758	2394,3	599,90	-3,957	
38,58	5,798	2387,9	599,69	-3,996	
38,60	5,838	2379,7	599,58	-4,034	
38,62	5,878	2369,8	599,66	-4,073	
38,64	5,918	2362,0	599,66	-4,112	
38,66	5,958	2354,6	599,56	-4,151	
38,68	5,998	2343,8	599,65	-4,190	
38,70	6,038	2332,1	599,76	-4,229	
38,72	6,078	2324,3	599,66	-4,268	
38,74	6,118	2317,2	599,60	-4,307	
38,76	6,158	2304,7	599,80	-4,346	
38,78	6,198	2292,1	599,91	-4,386	
38,80	6,238	2282,5	599,76	-4,425	
38,82	6,278	2271,5	599,63	-4,464	
38,84	6,318	2257,2	599,70	-4,504	
38,86	6,358	2245,4	599,70	-4,543	
38,88	6,398	2236,2	599,58	-4,583	
38,90	6,438	2223,1	599,68	-4,623	
38,92	6,478	2205,7	599,88	-4,662	
38,94	6,518	2191,5	599,83	-4,702	
38,96	6,558	2180,3	599,64	-4,741	
38,98	6,598	2165,8	599,73	-4,781	
39,00	6,638	2148,2	600,01	-4,821	
39,02	6,678	2132,7	600,03	-4,861	
39,04	6,718	2117,5	599,81	-4,901	
39,06	6,758	2100,7	599,63	-4,941	
39,08	6,798	2081,7	599,79	-4,981	
39,10	6,838	2063,7	599,93	-5,021	
39,12	6,878	2045,7	599,81	-5,061	
39,14	6,918	2026,6	599,65	-5,102	
39,16	6,958	2003,7	599,84	-5,142	
39,18	6,998	1980,2	600,05	-5,183	
39,20	7,038	1958,3	599,98	-5,223	
39,22	7,078	1935,0	599,73	-5,264	
39,24	7,118	1909,1	599,67	-5,305	
39,26	7,158	1881,2	599,91	-5,346	
39,28	7,198	1853,5	600,02	-5,387	
39,30	7,238	1823,6	599,86	-5,429	
39,32	7,278	1791,5	599,63	-5,470	
39,34	7,318	1755,7	599,77	-5,513	
39,36	7,358	1716,0	600,12	-5,555	
39,38	7,398	1673,8	600,20	-5,598	
39,40	7,438	1626,8	600,01	-5,642	
39,42	7,478	1574,4	599,74	-5,686	
39,44	7,518	1516,3	599,62	-5,731	
39,46	7,558	1448,7	599,75	-5,778	
39,48	7,598	1369,2	599,82	-5,827	
39,50	7,638	1275,3	599,69	-5,876	
39,52	7,678	1165,8	599,61	-5,924	
39,54	7,718	1042,1	599,77	-5,971	
39,56	7,758	916,20	599,83	-6,016	
39,58	7,798	797,24	599,68	-6,060	
39,60	7,838	690,00	599,62	-6,105	
39,62	7,878	592,47	599,85	-6,150	
39,64	7,918	505,70	599,97	-6,194	
39,66	7,958	429,99	599,82	-6,237	
39,68	7,998	362,48	599,66	-6,280	
39,70	8,038	297,18	599,78	-6,325	
39,72	8,078	236,75	599,86	-6,366	
39,74	8,118	187,74	599,70	-6,401	
39,76	8,157	146,73	600,45	-6,425	
39,78	8,196	107,37	601,22	-6,439	
39,80	8,230	73,59	600,51	-6,445	
39,82	8,255	49,98	599,62	-6,447	
39,84	8,268	31,74	599,12	-6,449	
39,86	8,275	16,31	598,82	-6,450	
39,88	8,278	6,574	598,53	-6,451	
39,90	8,279	1,660	598,21	-6,451	
39,92	8,280	-0,4928	597,91	-6,452	
39,94	8,280	-1,056	597,63	-6,452	
39,96	8,280	-1,047	597,35	-6,452	
39,98	8,280	-1,045	597,08	-6,453	
40,00	8,280	-1,038	596,81	-6,453	
40,02	8,280	-1,064	596,54	-6,453	
40,04	8,280	-1,672	596,28	-6,454	
40,06	8,280	-3,149	596,02	-6,454	
40,08	8,280	-4,150	595,77	-6,454	
40,10	8,280	-4,444	595,49	-6,455	
40,12	8,280	-4,425	595,21	-6,455	
40,14	8,280	-4,400	594,95	-6,455	
40,16	8,280	-4,374	594,71	-6,455	
40,18	8,280	-4,373	594,46	-6,456	
40,20	8,280	-4,380	594,20	-6,456	
40,22	8,280	-4,380	593,93	-6,456	
40,24	8,280	-4,403	593,68	-6,456	
40,26	8,280	-4,443	593,43	-6,457	
40,28	8,280	-4,455	593,19	-6,457	
40,30	8,280	-4,450	592,93	-6,457	
40,32	8,280	-4,412	592,67	-6,457	
40,34	8,280	-4,399	592,40	-6,458	
40,36	8,280	-4,410	592,14	-6,458	
40,38	8,280	-4,354	591,89	-6,458	
40,40	8,280	-4,354	591,62	-6,458	
40,42	8,280	-4,400	591,34	-6,459	
40,44	8,280	-4,394	591,05	-6,459	
40,46	8,280	-4,382	590,77	-6,459	
40,48	8,280	-4,332	590,50	-6,459	
40,50	8,280	-4,317	590,22	-6,459	
40,52	8,280	-4,340	589,92	-6,460	
40,54	8,280	-4,381	589,62	-6,460	
40,56	8,280	-4,404	589,33	-6,460	
40,58	8,280	-4,355	589,03	-6,460	
40,60	8,280	-4,342	588,72	-6,460	
40,62	8,280	-4,424	588,42	-6,461	
40,64	8,280	-4,419	588,12	-6,461	
40,66	8,280	-4,373	587,82	-6,461	
40,68	8,280	-4,362	587,50	-6,461	
40,70	8,280	-4,269	587,18	-6,462	
40,72	8,280	-3,086	586,87	-6,462	
40,74	8,280	-1,608	586,56	-6,462	
40,76	8,280	-0,9842	586,24	-6,462	
40,78	8,280	-0,9299	585,92	-6,462	
40,80	8,280	-1,005	585,60	-6,463	
40,82	8,280	-1,061	585,27	-6,463	
40,84	8,280	-1,014	584,94	-6,463	
40,86	8,280	-1,614	584,60	-6,463	
40,88	8,280	-3,157	584,26	-6,463	
40,90	8,280	-4,227	583,93	-6,464	
40,92	8,280	-4,473	583,59	-6,464	
40,94	8,280	-4,477	583,25	-6,464	
40,96	8,280	-4,575	582,90	-6,464	
40,98	8,280	-4,600	582,57	-6,464	
41,00	8,280	-4,617	582,24	-6,465	
41,02	8,280	-4,545	581,90	-6,465	
41,04	8,280	-4,507	581,55	-6,465	
41,06	8,280	-4,539	581,20	-6,465	
41,08	8,280	-4,463	580,85	-6,465	
41,10	8,280	-4,423	580,50	-6,466	
41,12	8,280	-4,443	580,15	-6,466	
41,14	8,280	-4,447	579,81	-6,466	
41,16	8,280	-4,428	579,45	-6,466	
41,18	8,280	-4,417	579,10	-6,466	
41,20	8,280	-4,455	578,75	-6,467	
41,22	8,280	-4,478	578,40	-6,467	
41,24	8,280	-4,512	578,05	-6,467	
41,26	8,280	-4,518	577,70	-6,467	
41,28	8,280	-4,432	577,35	-6,467	
41,30	8,280	-4,398	576,99	-6,468	
41,32	8,280	-4,372	576,62	-6,468	
41,34	8,280	-4,382	576,26	-6,468	
41,36	8,280	-4,479	575,90	-6,468	
41,38	8,280	-4,494	575,55	-6,468	
41,40	8,280	-4,454	575,20	-6,469	
41,42	8,280	-4,427	574,84	-6,469	
41,44	8,280	-4,382	574,48	-6,469	
41,46	8,280	-4,388	574,13	-6,469	
41,48	8,280	-4,391	573,78	-6,469	
41,50	8,280	-4,454	573,44	-6,469	
41,52	8,280	-4,423	573,07	-6,470	
41,54	8,280	-4,403	572,70	-6,470	
41,56	8,280	-4,401	572,34	-6,470	
41,58	8,280	-4,417	571,99	-6,470	
41,60	8,280	-4,442	571,63	-6,471	
41,62	8,280	-4,437	571,26	-6,471	
41,64	8,280	-4,472	570,89	-6,471	
41,66	8,280	-4,498	570,53	-6,471	
41,68	8,280	-4,528	570,16	-6,471	
41,70	8,280	-4,571	569,80	-6,471	
41,72	8,280	-4,577	569,44	-6,471	
41,74	8,280	-4,491	569,08	-6,472	
41,76	8,280	-4,419	568,71	-6,472	
41,78	8,280	-4,434	568,34	-6,472	
41,80	8,280	-4,474	567,97	-6,472	
41,82	8,280	-4,466	567,61	-6,472	
41,84	8,280	-4,478	567,25	-6,473	
41,86	8,280	-4,501	566,88	-6,473	
41,88	8,280	-4,493	566,52	-6,473	
41,90	8,280	-4,529	566,16	-6,473	
41,92	8,280	-4,559	565,79	-6,473	
41,94	8,280	-4,509	565,43	-6,473	
41,96	8,280	-4,443	565,07	-6,474	
41,98	8,280	-4,414	564,70	-6,474	
42,00	8,280	-4,446	564,34	-6,474	
42,02	8,280	-4,452	563,96	-6,474	
42,04	8,280	-4,426	563,59	-6,474	
42,06	8,280	-4,440	563,22	-6,475	
42,08	8,280	-4,457	562,86	-6,475	
42,10	8,280	-4,487	562,50	-6,475	
42,12	8,280	-4,510	562,12	-6,475	
42,14	8,280	-4,596	561,75	-6,475	
42,16	8,280	-4,578	561,39	-6,475	
42,18	8,280	-4,472	561,02	-6,476	
42,20	8,280	-4,490	560,65	-6,476	
42,22	8,280	-4,573	560,28	-6,476	
42,24	8,280	-4,496	559,91	-6,476	
42,26	8,280	-4,443	559,54	-6,476	
42,28	8,280	-4,487	559,17	-6,477	
42,30	8,280	-4,478	558,80	-6,477	
42,32	8,280	-4,434	558,44	-6,477	
42,34	8,280	-4,328	558,10	-6,477	
42,36	8,280	-4,266	557,74	-6,477	
42,38	8,280	-4,311	557,37	-6,477	
42,40	8,280	-4,337	557,01	-6,478	
42,42	8,280	-4,303	556,66	-6,478	
42,44	8,280	-4,241	556,30	-6,478	
42,46	8,280	-4,247	555,94	-6,478	
42,48	8,280	-4,306	555,61	-6,478	
42,50	8,280	-4,375	555,27	-6,478	
42,52	8,280	-4,461	554,93	-6,479	
42,54	8,280	-4,481	554,58	-6,479	
42,56	8,280	-4,436	554,22	-6,479	
42,58	8,280	-4,454	553,84	-6,479	
42,60	8,280	-4,468	553,47	-6,479	
42,62	8,280	-4,385	553,10	-6,480	
42,64	8,280	-4,323	552,75	-6,480	
42,66	8,280	-4,293	552,40	-6,480	
42,68	8,280	-4,347	552,04	-6,480	
42,70	8,280	-4,391	551,68	-6,480	
42,72	8,280	-4,380	551,32	-6,480	
42,74	8,280	-4,375	550,97	-6,481	
42,76	8,280	-4,360	550,60	-6,481	
42,78	8,280	-4,353	550,24	-6,481	
42,80	8,280	-4,358	549,88	-6,481	
42,82	8,280	-4,371	549,52	-6,481	
42,84	8,280	-4,376	549,16	-6,481	
42,86	8,280	-4,453	548,81	-6,482	
42,88	8,280	-4,578	548,46	-6,482	
42,90	8,280	-4,616	548,11	-6,482	
42,92	8,280	-4,554	547,76	-6,482	
42,94	8,280	-4,546	547,40	-6,482	
42,96	8,280	-4,531	547,04	-6,483	
42,98	8,280	-4,534	546,68	-6,483	
43,00	8,280	-4,521	546,31	-6,483	
43,02	8,280	-4,416	545,94	-6,483	
43,04	8,280	-4,402	545,59	-6,484	
43,06	8,280	-4,490	545,24	-6,484	
43,08	8,280	-4,465	544,89	-6,485	
43,10	8,280	-4,424	544,55	-6,485	
43,12	8,280	-4,467	544,20	-6,485	
43,14	8,280	-4,496	543,85	-6,485	
43,16	8,280	-4,443	543,49	-6,486	
43,18	8,280	-4,385	543,11	-6,486	
43,20	8,280	-4,369	542,76	-6,486	
43,22	8,280	-4,431	542,42	-6,486	
43,24	8,280	-4,518	542,08	-6,487	
43,26	8,280	-4,532	541,73	-6,487	
43,28	8,280	-4,481	541,37	-6,487	
43,30	8,280	-4,463	541,02	-6,487	
43,32	8,280	-4,477	540,67	-6,487	
43,34	8,280	-4,455	540,32	-6,488	
43,36	8,280	-4,410	539,97	-6,488	
43,38	8,280	-4,425	539,64	-6,489	
43,40	8,280	-4,441	539,30	-6,490	
43,42	8,280	-4,413	538,95	-6,490	
43,44	8,280	-4,426	538,60	-6,490	
43,46	8,280	-4,458	538,25	-6,490	
43,48	8,280	-4,465	537,89	-6,490	
43,50	8,280	-4,430	537,55	-6,489	
43,52	8,280	-4,359	537,21	-6,489	
43,54	8,280	-4,378	536,87	-6,488	
43,56	8,280	-4,410	536,53	-6,487	
43,58	8,280	-4,437	536,18	-6,487	
43,60	8,280	-4,443	535,83	-6,487	
43,62	8,280	-4,419	535,48	-6,487	
43,64	8,280	-4,416	535,13	-6,487	
43,66	8,280	-4,444	534,77	-6,488	
43,68	8,280	-4,481	534,41	-6,489	
43,70	8,280	-4,518	534,06	-6,489	
43,72	8,280	-4,518	533,72	-6,490	
43,74	8,280	-4,471	533,37	-6,490	
43,76	8,280	-4,455	533,02	-6,491	
43,78	8,280	-4,448	532,68	-6,491	
43,80	8,280	-4,395	532,33	-6,492	
43,82	8,280	-4,338	531,99	-6,492	
43,84	8,280	-4,360	531,64	-6,492	
43,86	8,280	-4,423	531,31	-6,492	
43,88	8,280	-4,493	530,98	-6,493	
43,90	8,280	-4,497	530,63	-6,493	
43,92	8,280	-4,403	530,29	-6,494	
43,94	8,280	-4,315	529,95	-6,494	
43,96	8,280	-4,288	529,61	-6,495	
43,98	8,280	-4,306	529,27	-6,495	
44,00	8,280	-4,357	528,94	-6,496	
44,02	8,280	-4,391	528,62	-6,496	
44,04	8,280	-4,371	528,28	-6,496	
44,06	8,280	-4,349	527,94	-6,497	
44,08	8,280	-4,340	527,60	-6,497	
44,10	8,280	-4,314	527,26	-6,497	
44,12	8,280	-4,349	526,94	-6,496	
44,14	8,280	-4,357	526,61	-6,496	
44,16	8,280	-4,333	526,28	-6,495	
44,18	8,280	-4,317	525,95	-6,494	
44,20	8,280	-4,330	525,62	-6,494	
44,22	8,280	-4,315	525,29	-6,493	
44,24	8,280	-4,303	524,95	-6,494	
44,26	8,280	-4,324	524,60	-6,494	
44,28	8,280	-4,394	524,27	-6,495	
44,30	8,280	-4,400	523,93	-6,496	
44,32	8,280	-4,358	523,60	-6,496	
44,34	8,280	-4,340	523,27	-6,496	
44,36	8,280	-4,378	522,94	-6,497	
44,38	8,280	-4,334	522,60	-6,497	
44,40	8,280	-4,289	522,27	-6,497	
44,42	8,280	-4,320	521,94	-6,497	
44,44	8,280	-4,340	521,61	-6,498	
44,46	8,280	-4,339	521,28	-6,499	
44,48	8,280	-4,298	520,95	-6,499	
44,50	8,280	-4,292	520,63	-6,500	
44,52	8,280	-4,281	520,31	-6,500	
44,54	8,280	-4,356	519,98	-6,500	
44,56	8,280	-4,409	519,66	-6,501	
44,58	8,280	-4,411	519,33	-6,501	
44,60	8,280	-4,406	519,01	-6,501	
44,62	8,280	-4,419	518,69	-6,500	
44,64	8,280	-4,431	518,39	-6,500	
44,66	8,280	-4,463	518,08	-6,499	
44,68	8,280	-4,429	517,76	-6,494	
44,70	8,280	-4,336	517,43	-6,487	
44,72	8,280	-4,335	517,10	-6,482	
44,74	8,280	-4,378	516,76	-6,474	
44,76	8,280	-4,408	516,42	-6,451	
44,78	8,280	-4,445	516,10	-6,410	
44,80	8,280	-4,437	515,77	-6,334	
44,82	8,280	-4,400	515,44	-6,237	
44,84	8,280	-4,408	515,11	-6,156	
44,86	8,280	-4,419	514,78	-6,079	
44,88	8,280	-4,429	514,45	-6,009	
44,90	8,280	-4,438	514,13	-5,921	
44,92	8,280	-4,436	513,81	-5,829	
44,94	8,280	-4,423	513,47	-5,707	
44,96	8,280	-4,397	513,15	-5,528	
44,98	8,280	-4,362	512,83	-5,363	
45,00	8,280	-4,337	512,52	-5,214	
45,02	8,280	-4,388	512,20	-5,054	
45,04	8,280	-4,442	511,89	-4,837	
45,06	8,280	-4,403	511,57	-4,622	
45,08	8,280	-4,395	511,25	-4,431	
45,10	8,280	-4,444	510,93	-4,222	
45,12	8,280	-4,543	510,61	-4,052	
45,14	8,280	-4,549	510,30	-3,908	
45,16	8,280	-4,458	509,97	-3,785	
45,18	8,280	-4,347	509,65	-3,698	
45,20	8,280	-4,299	509,33	-3,650	
45,22	8,280	-4,288	509,00	-3,572	
45,24	8,280	-4,283	508,67	-3,425	
45,26	8,280	-4,318	508,33	-3,311	
45,28	8,280	-4,326	508,01	-3,175	
45,30	8,280	-4,297	507,69	-2,985	
45,32	8,280	-4,293	507,37	-2,862	
45,34	8,280	-4,354	507,06	-2,771	
45,36	8,280	-4,363	506,75	-2,675	
45,38	8,280	-4,323	506,44	-2,616	
45,40	8,280	-4,312	506,12	-2,588	
45,42	8,280	-4,327	505,81	-2,547	
45,44	8,280	-4,347	505,48	-2,502	
45,46	8,280	-4,327	505,16	-2,436	
45,48	8,280	-4,313	504,84	-2,338	
45,50	8,280	-4,311	504,53	-2,258	
45,52	8,280	-4,324	504,21	-2,179	
45,54	8,280	-4,279	503,89	-2,100	
45,56	8,280	-4,325	503,55	-1,950	
45,58	8,280	-4,347	503,23	-1,794	
45,60	8,280	-4,344	502,92	-1,662	
45,62	8,280	-4,317	502,61	-1,503	
45,64	8,280	-4,361	502,29	-1,382	
45,66	8,280	-4,364	501,97	-1,289	
45,68	8,280	-4,388	501,67	-1,226	
45,70	8,280	-4,397	501,37	-1,164	
45,72	8,280	-4,381	501,06	-1,096	
45,74	8,280	-4,394	500,74	-1,048	
45,76	8,280	-4,353	500,43	-0,9962	
45,78	8,280	-4,343	500,11	-0,9473	
45,80	8,280	-4,366	499,80	-0,8621	
45,82	8,280	-4,348	499,48	-0,6550	
45,84	8,280	-4,323	499,17	-0,3902	
45,86	8,280	-4,321	498,85	-0,1681	
45,88	8,280	-4,332	498,54	-0,06454	
45,90	8,280	-4,300	498,23	-0,04272	
45,92	8,280	-4,312	497,92	-0,04394	
45,94	8,280	-4,340	497,60	-0,04527	
45,96	8,280	-4,313	497,28	-0,04507	
45,98	8,280	-4,253	496,97	-0,04478	
46,00	8,280	-4,249	496,66	-0,04469	
46,02	8,280	-4,339	496,37	-0,04468	
46,04	8,280	-4,445	496,07	-0,04469	
46,06	8,280	-4,386	495,76	-0,04483	
46,08	8,280	-4,268	495,45	-0,04496	
46,10	8,280	-4,254	495,12	-0,04498	
46,12	8,280	-4,298	494,81	-0,04495	
46,14	8,280	-4,308	494,50	-0,04484	
46,16	8,280	-4,333	494,20	-0,04474	
46,18	8,280	-4,365	493,87	-0,04470	
46,20	8,280	-4,399	493,56	-0,04473	
46,22	8,280	-4,400	493,25	-0,04484	
46,24	8,280	-4,364	492,94	-0,04493	
46,26	8,280	-4,340	492,63	-0,04494	
46,28	8,280	-4,332	492,34	-0,04487	
46,30	8,280	-4,306	492,05	-0,04480	
46,32	8,280	-4,293	491,75	-0,04470	
46,34	8,280	-4,292	491,46	-0,04469	
46,36	8,280	-4,300	491,16	-0,04484	
46,38	8,280	-4,337	490,86	-0,04501	
46,40	8,280	-4,381	490,56	-0,04507	
46,42	8,280	-4,335	490,26	-0,04497	
46,44	8,280	-4,275	489,96	-0,04487	
46,46	8,280	-4,292	489,66	-0,04482	
46,48	8,280	-4,352	489,35	-0,04475	
46,50	8,280	-4,336	489,05	-0,04479	
46,52	8,280	-4,276	488,74	-0,04489	
46,54	8,280	-4,266	488,44	-0,04493	
46,56	8,280	-4,295	488,14	-0,04488	
46,58	8,280	-4,288	487,84	-0,04473	
46,60	8,280	-4,345	487,53	-0,04457	
46,62	8,280	-4,401	487,23	-0,04459	
46,64	8,280	-4,401	486,93	-0,04467	
46,66	8,280	-4,297	486,62	-0,04486	
46,68	8,280	-4,278	486,32	-0,04498	
46,70	8,280	-4,314	486,02	-0,04496	
46,72	8,280	-4,326	485,72	-0,04481	
46,74	8,280	-4,349	485,44	-0,04469	
46,76	8,280	-4,391	485,15	-0,04471	
46,78	8,280	-4,393	484,85	-0,04469	
46,80	8,280	-4,362	484,55	-0,04468	
46,82	8,280	-4,368	484,25	-0,04483	
46,84	8,280	-4,383	483,95	-0,04491	
46,86	8,280	-4,389	483,65	-0,04485	
46,88	8,280	-4,438	483,35	-0,04466	
46,90	8,280	-4,487	483,06	-0,04455	
46,92	8,280	-4,438	482,78	-0,04457	
46,94	8,280	-4,434	482,50	-0,04459	
46,96	8,280	-4,452	482,21	-0,04471	
46,98	8,280	-4,354	481,92	-0,04485	
47,00	8,280	-4,321	481,63	-0,04490	
47,02	8,280	-4,360	481,34	-0,04482	
47,04	8,280	-4,392	481,05	-0,04469	
47,06	8,280	-4,365	480,76	-0,04453	
47,08	8,280	-4,356	480,48	-0,04453	
47,10	8,280	-4,392	480,19	-0,04468	
47,12	8,280	-4,434	479,90	-0,04483	
47,14	8,280	-4,394	479,62	-0,04491	
47,16	8,280	-4,356	479,34	-0,04486	
47,18	8,280	-4,410	479,06	-0,04476	
47,20	8,280	-4,401	478,77	-0,04468	
47,22	8,280	-4,385	478,48	-0,04470	
47,24	8,280	-4,440	478,20	-0,04479	
47,26	8,280	-4,489	477,93	-0,04491	
47,28	8,280	-4,527	477,66	-0,04489	
47,30	8,280	-4,508	477,39	-0,04482	
47,32	8,280	-4,394	477,12	-0,04473	
47,34	8,280	-4,329	476,84	-0,04461	
47,36	8,280	-4,361	476,56	-0,04457	
47,38	8,280	-4,367	476,26	-0,04468	
47,40	8,280	-4,405	475,97	-0,04473	
47,42	8,280	-4,510	475,68	-0,04482	
47,44	8,280	-4,561	475,40	-0,04480	
47,46	8,280	-4,511	475,12	-0,04465	
47,48	8,280	-4,472	474,85	-0,04450	
47,50	8,280	-4,445	474,57	-0,04447	
47,52	8,280	-4,447	474,30	-0,04454	
47,54	8,280	-4,450	474,02	-0,04470	
47,56	8,280	-4,455	473,73	-0,04476	
47,58	8,280	-4,453	473,45	-0,04477	
47,60	8,280	-4,513	473,17	-0,04464	
47,62	8,280	-4,475	472,90	-0,04453	
47,64	8,280	-4,433	472,62	-0,04452	
47,66	8,280	-4,447	472,35	-0,04451	
47,68	8,280	-4,429	472,08	-0,04456	
47,70	8,280	-4,383	471,81	-0,04470	
47,72	8,280	-4,373	471,54	-0,04476	
47,74	8,280	-4,372	471,27	-0,04472	
47,76	8,280	-4,337	471,01	-0,04466	
47,78	8,280	-4,341	470,73	-0,04456	
47,80	8,280	-4,332	470,46	-0,04454	
47,82	8,280	-4,313	470,17	-0,04464	
47,84	8,280	-4,328	469,88	-0,04480	
47,86	8,280	-4,288	469,60	-0,04482	
47,88	8,280	-4,356	469,33	-0,04474	
47,90	8,280	-4,412	469,07	-0,04468	
47,92	8,280	-4,388	468,80	-0,04460	
47,94	8,280	-4,380	468,53	-0,04448	
47,96	8,280	-4,365	468,25	-0,04440	
47,98	8,280	-4,401	467,97	-0,04450	
48,00	8,280	-4,359	467,69	-0,04468	
48,02	8,280	-4,319	467,42	-0,04474	
48,04	8,280	-4,252	467,14	-0,04470	
48,06	8,280	-4,251	466,86	-0,04465	
48,08	8,280	-4,297	466,59	-0,04458	
48,10	8,280	-4,322	466,32	-0,04445	
48,12	8,280	-4,325	466,05	-0,04451	
48,14	8,280	-4,254	465,78	-0,04464	
48,16	8,280	-4,198	465,51	-0,04473	
48,18	8,280	-4,278	465,24	-0,04472	
48,20	8,280	-4,398	464,97	-0,04463	
48,22	8,280	-4,469	464,70	-0,04449	
48,24	8,280	-4,453	464,43	-0,04444	
48,26	8,280	-4,430	464,17	-0,04449	
48,28	8,280	-4,453	463,90	-0,04464	
48,30	8,280	-4,432	463,62	-0,04476	
48,32	8,280	-4,400	463,33	-0,04482	
48,34	8,280	-4,406	463,05	-0,04481	
48,36	8,280	-4,444	462,77	-0,04473	
48,38	8,280	-4,489	462,49	-0,04463	