Zeit  1 - Standardmessrate [s]	ZwickWeg [mm]	ZwickKraft [N]	Pyrometer [°C]	Maytec [mm]
0	-0,1563	159,29	150,11	0,02262	
0,02000	-0,1563	159,28	150,11	0,02270	
0,04000	-0,1563	159,25	150,11	0,02277	
0,06000	-0,1563	159,17	150,11	0,02283	
0,08000	-0,1563	159,16	150,10	0,02279	
0,1000	-0,1563	159,24	150,10	0,02266	
0,1200	-0,1563	159,33	150,10	0,02262	
0,1400	-0,1563	159,31	150,10	0,02265	
0,1600	-0,1563	159,26	150,10	0,02269	
0,1800	-0,1563	159,26	150,11	0,02272	
0,2000	-0,1563	159,25	150,11	0,02273	
0,2200	-0,1563	159,19	150,11	0,02268	
0,2400	-0,1563	159,16	150,11	0,02258	
0,2600	-0,1563	159,15	150,11	0,02250	
0,2800	-0,1563	159,19	150,10	0,02255	
0,3000	-0,1563	159,22	150,10	0,02263	
0,3200	-0,1563	159,22	150,10	0,02270	
0,3400	-0,1563	159,25	150,10	0,02279	
0,3600	-0,1563	159,24	150,10	0,02280	
0,3800	-0,1563	159,24	150,10	0,02268	
0,4000	-0,1563	159,17	150,10	0,02261	
0,4200	-0,1563	159,11	150,10	0,02258	
0,4400	-0,1563	159,12	150,10	0,02257	
0,4600	-0,1563	159,16	150,10	0,02268	
0,4800	-0,1563	159,18	150,10	0,02278	
0,5000	-0,1563	159,20	150,11	0,02283	
0,5200	-0,1563	159,24	150,11	0,02282	
0,5400	-0,1563	159,28	150,11	0,02269	
0,5600	-0,1563	159,30	150,10	0,02258	
0,5800	-0,1563	159,32	150,10	0,02259	
0,6000	-0,1563	159,32	150,10	0,02269	
0,6200	-0,1563	159,34	150,10	0,02277	
0,6400	-0,1563	159,39	150,10	0,02282	
0,6600	-0,1563	159,42	150,10	0,02275	
0,6800	-0,1563	159,34	150,10	0,02267	
0,7000	-0,1563	159,29	150,10	0,02250	
0,7200	-0,1563	159,28	150,11	0,02239	
0,7400	-0,1563	159,25	150,11	0,02246	
0,7600	-0,1563	159,28	150,11	0,02259	
0,7800	-0,1563	159,32	150,10	0,02271	
0,8000	-0,1563	159,36	150,10	0,02276	
0,8200	-0,1563	159,34	150,10	0,02271	
0,8400	-0,1563	159,31	150,10	0,02260	
0,8600	-0,1563	159,29	150,10	0,02255	
0,8800	-0,1563	159,31	150,10	0,02256	
0,9000	-0,1563	159,33	150,10	0,02259	
0,9200	-0,1563	159,32	150,10	0,02268	
0,9400	-0,1563	159,31	150,10	0,02275	
0,9600	-0,1564	159,26	150,10	0,02275	
0,9800	-0,1566	159,17	150,11	0,02265	
1,000	-0,1568	159,17	150,11	0,02255	
1,020	-0,1569	159,24	150,11	0,02250	
1,040	-0,1567	159,23	150,11	0,02254	
1,060	-0,1564	159,25	150,10	0,02267	
1,080	-0,1563	159,29	150,10	0,02283	
1,100	-0,1563	159,31	150,10	0,02287	
1,120	-0,1563	159,26	150,10	0,02278	
1,140	-0,1563	159,23	150,10	0,02260	
1,160	-0,1563	159,27	150,10	0,02246	
1,180	-0,1563	159,32	150,10	0,02245	
1,200	-0,1563	159,28	150,11	0,02247	
1,220	-0,1563	159,22	150,11	0,02259	
1,240	-0,1563	159,22	150,11	0,02268	
1,260	-0,1563	159,23	150,11	0,02271	
1,280	-0,1563	159,27	150,10	0,02279	
1,300	-0,1563	159,27	150,10	0,02267	
1,320	-0,1563	159,27	150,10	0,02252	
1,340	-0,1563	159,32	150,10	0,02249	
1,360	-0,1563	159,31	150,10	0,02253	
1,380	-0,1563	159,27	150,11	0,02270	
1,400	-0,1563	159,26	150,11	0,02282	
1,420	-0,1563	159,31	150,11	0,02274	
1,440	-0,1563	159,26	150,11	0,02253	
1,460	-0,1563	159,23	150,11	0,02241	
1,480	-0,1563	159,27	150,10	0,02240	
1,500	-0,1563	159,38	150,10	0,02251	
1,520	-0,1563	159,42	150,10	0,02263	
1,540	-0,1563	159,38	150,10	0,02268	
1,560	-0,1563	159,34	150,10	0,02276	
1,580	-0,1563	159,31	150,10	0,02274	
1,600	-0,1563	159,30	150,10	0,02260	
1,620	-0,1563	159,32	150,10	0,02252	
1,640	-0,1563	159,36	150,11	0,02250	
1,660	-0,1563	159,40	150,11	0,02257	
1,680	-0,1563	159,42	150,11	0,02271	
1,700	-0,1563	159,35	150,10	0,02282	
1,720	-0,1563	159,31	150,10	0,02282	
1,740	-0,1563	159,31	150,10	0,02263	
1,760	-0,1563	159,27	150,10	0,02250	
1,780	-0,1563	159,25	150,10	0,02244	
1,800	-0,1563	159,26	150,10	0,02245	
1,820	-0,1563	159,25	150,10	0,02257	
1,840	-0,1563	159,29	150,10	0,02269	
1,860	-0,1563	159,36	150,10	0,02279	
1,880	-0,1563	159,34	150,10	0,02279	
1,900	-0,1563	159,30	150,10	0,02265	
1,920	-0,1563	159,34	150,11	0,02258	
1,940	-0,1563	159,40	150,11	0,02258	
1,960	-0,1563	159,37	150,11	0,02262	
1,980	-0,1563	159,38	150,11	0,02265	
2,000	-0,1563	159,36	150,10	0,02269	
2,020	-0,1563	159,32	150,10	0,02272	
2,040	-0,1563	159,34	150,10	0,02273	
2,060	-0,1563	159,36	150,10	0,02268	
2,080	-0,1563	159,37	150,10	0,02259	
2,100	-0,1563	159,36	150,10	0,02256	
2,120	-0,1563	159,34	150,10	0,02263	
2,140	-0,1563	159,30	150,10	0,02280	
2,160	-0,1563	159,32	150,10	0,02289	
2,180	-0,1563	159,28	150,10	0,02281	
2,200	-0,1563	159,26	150,11	0,02263	
2,220	-0,1563	159,24	150,11	0,02253	
2,240	-0,1563	159,26	150,11	0,02251	
2,260	-0,1563	159,26	150,10	0,02253	
2,280	-0,1563	159,29	150,10	0,02264	
2,300	-0,1563	159,35	150,10	0,02269	
2,320	-0,1563	159,34	150,10	0,02272	
2,340	-0,1563	159,34	150,10	0,02272	
2,360	-0,1563	159,38	150,10	0,02261	
2,380	-0,1563	159,39	150,10	0,02259	
2,400	-0,1563	159,38	150,10	0,02262	
2,420	-0,1563	159,31	150,10	0,02271	
2,440	-0,1563	159,34	150,10	0,02282	
2,460	-0,1563	159,42	150,10	0,02291	
2,480	-0,1563	159,49	150,10	0,02293	
2,500	-0,1563	159,54	150,11	0,02273	
2,520	-0,1563	159,49	150,11	0,02254	
2,540	-0,1563	159,46	150,11	0,02251	
2,560	-0,1563	159,44	150,11	0,02262	
2,580	-0,1563	159,37	150,10	0,02270	
2,600	-0,1563	159,34	150,10	0,02282	
2,620	-0,1563	159,38	150,10	0,02287	
2,640	-0,1563	159,40	150,10	0,02274	
2,660	-0,1563	159,31	150,10	0,02254	
2,680	-0,1563	159,24	150,10	0,02239	
2,700	-0,1563	159,30	150,10	0,02241	
2,720	-0,1563	159,34	150,10	0,02258	
2,740	-0,1563	159,34	150,11	0,02272	
2,760	-0,1563	159,32	150,11	0,02279	
2,780	-0,1563	159,27	150,11	0,02275	
2,800	-0,1563	159,24	150,11	0,02265	
2,820	-0,1563	159,23	150,10	0,02257	
2,840	-0,1563	159,18	150,10	0,02253	
2,860	-0,1563	159,17	150,10	0,02254	
2,880	-0,1563	159,22	150,10	0,02265	
2,900	-0,1563	159,28	150,11	0,02279	
2,920	-0,1563	159,30	150,11	0,02280	
2,940	-0,1563	159,32	150,11	0,02266	
2,960	-0,1563	159,29	150,11	0,02252	
2,980	-0,1563	159,27	150,11	0,02244	
3,000	-0,1563	159,33	150,10	0,02250	
3,020	-0,1563	159,28	150,10	0,02265	
3,040	-0,1563	159,17	150,10	0,02277	
3,060	-0,1563	159,15	150,10	0,02278	
3,080	-0,1563	159,19	150,10	0,02266	
3,100	-0,1563	159,26	150,10	0,02254	
3,120	-0,1563	159,30	150,10	0,02252	
3,140	-0,1563	159,34	150,10	0,02259	
3,160	-0,1563	159,33	150,11	0,02265	
3,180	-0,1563	159,28	150,11	0,02266	
3,200	-0,1563	159,27	150,11	0,02270	
3,220	-0,1563	159,32	150,10	0,02276	
3,240	-0,1563	159,32	150,10	0,02269	
3,260	-0,1563	159,26	150,10	0,02251	
3,280	-0,1563	159,26	150,10	0,02250	
3,300	-0,1563	159,32	150,10	0,02259	
3,320	-0,1563	159,28	150,10	0,02265	
3,340	-0,1563	159,19	150,10	0,02266	
3,360	-0,1563	159,20	150,10	0,02272	
3,380	-0,1563	159,22	150,10	0,02268	
3,400	-0,1563	159,23	150,10	0,02260	
3,420	-0,1563	159,29	150,11	0,02253	
3,440	-0,1563	159,27	150,11	0,02252	
3,460	-0,1563	159,23	150,11	0,02261	
3,480	-0,1563	159,27	150,11	0,02276	
3,500	-0,1563	159,33	150,10	0,02285	
3,520	-0,1563	159,31	150,10	0,02277	
3,540	-0,1563	159,31	150,10	0,02263	
3,560	-0,1563	159,29	150,10	0,02252	
3,580	-0,1563	159,30	150,10	0,02249	
3,600	-0,1563	159,36	150,10	0,02259	
3,620	-0,1563	159,35	150,10	0,02266	
3,640	-0,1563	159,29	150,11	0,02274	
3,660	-0,1563	159,30	150,11	0,02281	
3,680	-0,1563	159,31	150,11	0,02277	
3,700	-0,1563	159,32	150,11	0,02261	
3,720	-0,1563	159,28	150,10	0,02247	
3,740	-0,1563	159,25	150,10	0,02248	
3,760	-0,1563	159,29	150,10	0,02258	
3,780	-0,1563	159,33	150,10	0,02266	
3,800	-0,1563	159,32	150,10	0,02270	
3,820	-0,1563	159,31	150,10	0,02270	
3,840	-0,1563	159,34	150,11	0,02262	
3,860	-0,1563	159,33	150,11	0,02255	
3,880	-0,1563	159,26	150,11	0,02249	
3,900	-0,1563	159,23	150,11	0,02250	
3,920	-0,1563	159,21	150,10	0,02261	
3,940	-0,1563	159,24	150,10	0,02270	
3,960	-0,1564	159,28	150,10	0,02270	
3,980	-0,1567	159,27	150,10	0,02263	
4,000	-0,1569	159,30	150,10	0,02255	
4,020	-0,1570	159,33	150,10	0,02250	
4,040	-0,1570	159,28	150,10	0,02249	
4,060	-0,1570	159,27	150,10	0,02255	
4,080	-0,1570	159,34	150,11	0,02268	
4,100	-0,1570	159,31	150,11	0,02279	
4,120	-0,1570	159,26	150,11	0,02275	
4,140	-0,1570	159,24	150,11	0,02268	
4,160	-0,1570	159,25	150,10	0,02257	
4,180	-0,1570	159,22	150,10	0,02251	
4,200	-0,1570	159,25	150,10	0,02257	
4,220	-0,1570	159,32	150,10	0,02268	
4,240	-0,1570	159,32	150,10	0,02268	
4,260	-0,1570	159,23	150,10	0,02266	
4,280	-0,1569	159,17	150,10	0,02261	
4,300	-0,1569	159,16	150,11	0,02253	
4,320	-0,1569	159,22	150,11	0,02245	
4,340	-0,1569	159,30	150,11	0,02254	
4,360	-0,1569	159,30	150,11	0,02267	
4,380	-0,1569	159,25	150,11	0,02275	
4,400	-0,1569	159,27	150,10	0,02273	
4,420	-0,1569	159,33	150,10	0,02269	
4,440	-0,1570	159,31	150,10	0,02256	
4,460	-0,1570	159,24	150,10	0,02245	
4,480	-0,1570	159,18	150,10	0,02247	
4,500	-0,1570	159,19	150,10	0,02259	
4,520	-0,1570	159,16	150,10	0,02267	
4,540	-0,1569	159,15	150,11	0,02273	
4,560	-0,1570	159,17	150,11	0,02278	
4,580	-0,1570	159,11	150,11	0,02268	
4,600	-0,1569	158,04	150,11	0,02254	
4,620	-0,1569	156,68	150,10	0,02247	
4,640	-0,1569	156,04	150,10	0,02249	
4,660	-0,1569	155,89	150,10	0,02259	
4,680	-0,1569	156,43	150,10	0,02267	
4,700	-0,1569	157,96	150,10	0,02268	
4,720	-0,1569	159,05	150,10	0,02264	
4,740	-0,1569	159,36	150,10	0,02261	
4,760	-0,1569	159,32	150,11	0,02256	
4,780	-0,1569	159,29	150,11	0,02251	
4,800	-0,1569	159,27	150,11	0,02261	
4,820	-0,1569	159,25	150,11	0,02266	
4,840	-0,1570	159,27	150,10	0,02268	
4,860	-0,1570	159,28	150,10	0,02276	
4,880	-0,1570	159,25	150,10	0,02269	
4,900	-0,1570	159,20	150,10	0,02257	
4,920	-0,1570	159,21	150,10	0,02253	
4,940	-0,1570	159,24	150,11	0,02255	
4,960	-0,1570	159,23	150,11	0,02270	
4,980	-0,1570	159,25	150,11	0,02288	
5,000	-0,1569	159,25	150,11	0,02288	
5,020	-0,1569	159,19	150,11	0,02267	
5,040	-0,1569	159,24	150,10	0,02251	
5,060	-0,1570	159,30	150,10	0,02251	
5,080	-0,1570	159,31	150,10	0,02256	
5,100	-0,1570	159,29	150,10	0,02267	
5,120	-0,1570	159,22	150,10	0,02272	
5,140	-0,1574	161,50	150,20	0,02259	
5,160	-0,1572	153,24	150,16	0,02160	
5,180	-0,1566	115,70	150,03	0,02112	
5,200	-0,1567	71,56	150,05	0,02132	
5,220	-0,1568	30,38	150,10	0,02151	
5,240	-0,1556	-4,463	150,13	0,02163	
5,260	-0,1514	-24,36	150,15	0,02170	
5,280	-0,1457	-15,72	150,13	0,02168	
5,300	-0,1407	6,159	150,11	0,02177	
5,320	-0,1369	31,70	150,10	0,02188	
5,340	-0,1338	56,37	150,10	0,02193	
5,360	-0,1311	76,14	150,10	0,02191	
5,380	-0,1287	92,96	150,10	0,02177	
5,400	-0,1270	106,92	150,10	0,02167	
5,420	-0,1258	113,50	150,10	0,02174	
5,440	-0,1250	112,62	150,10	0,02190	
5,460	-0,1243	108,50	150,11	0,02198	
5,480	-0,1234	103,91	150,11	0,02196	
5,500	-0,1224	100,03	150,11	0,02189	
5,520	-0,1214	97,13	150,11	0,02176	
5,540	-0,1202	95,70	150,10	0,02164	
5,560	-0,1189	95,36	150,10	0,02158	
5,580	-0,1175	94,92	150,10	0,02168	
5,600	-0,1162	93,41	150,10	0,02185	
5,620	-0,1149	92,25	150,10	0,02200	
5,640	-0,1139	91,96	150,10	0,02205	
5,660	-0,1128	92,03	150,10	0,02198	
5,680	-0,1115	92,05	150,10	0,02183	
5,700	-0,1101	92,07	150,10	0,02172	
5,720	-0,1088	92,08	150,10	0,02177	
5,740	-0,1074	92,05	150,10	0,02188	
5,760	-0,1061	92,03	150,11	0,02198	
5,780	-0,1048	92,05	150,11	0,02202	
5,800	-0,1034	92,05	150,11	0,02193	
5,820	-0,1021	92,04	150,10	0,02180	
5,840	-0,1007	92,01	150,10	0,02177	
5,860	-0,09937	92,00	150,09	0,02178	
5,880	-0,09804	91,98	150,10	0,02202	
5,900	-0,09669	92,00	150,10	0,02278	
5,920	-0,09534	92,02	150,10	0,02340	
5,940	-0,09400	92,02	150,10	0,02359	
5,960	-0,09265	92,00	150,10	0,02356	
5,980	-0,09131	91,56	150,10	0,02351	
6,000	-0,08998	90,07	150,10	0,02344	
6,020	-0,08863	88,90	150,10	0,02346	
6,040	-0,08729	88,53	150,10	0,02359	
6,060	-0,08594	88,49	150,10	0,02367	
6,080	-0,08459	88,47	150,11	0,02374	
6,100	-0,08325	88,55	150,11	0,02369	
6,120	-0,08191	88,65	150,11	0,02296	
6,140	-0,08056	88,67	150,10	0,02214	
6,160	-0,07923	88,71	150,10	0,02186	
6,180	-0,07788	88,76	150,10	0,02189	
6,200	-0,07654	88,73	150,10	0,02206	
6,220	-0,07519	88,77	150,10	0,02214	
6,240	-0,07384	88,82	150,10	0,02219	
6,260	-0,07248	88,76	150,10	0,02209	
6,280	-0,07105	88,72	150,10	0,02189	
6,300	-0,06942	88,68	150,10	0,02177	
6,320	-0,06786	88,69	150,10	0,02179	
6,340	-0,06645	88,74	150,10	0,02189	
6,360	-0,06511	88,79	150,11	0,02207	
6,380	-0,06377	88,78	150,11	0,02209	
6,400	-0,06241	88,73	150,11	0,02202	
6,420	-0,06107	88,72	150,10	0,02191	
6,440	-0,05973	88,76	150,10	0,02181	
6,460	-0,05838	88,73	150,10	0,02179	
6,480	-0,05702	88,63	150,10	0,02184	
6,500	-0,05548	87,59	150,10	0,02193	
6,520	-0,05384	86,16	150,10	0,02210	
6,540	-0,05235	85,55	150,10	0,02222	
6,560	-0,05098	85,43	150,10	0,02212	
6,580	-0,04965	85,39	150,10	0,02198	
6,600	-0,04832	85,39	150,10	0,02187	
6,620	-0,04698	85,37	150,10	0,02192	
6,640	-0,04563	85,38	150,11	0,02200	
6,660	-0,04407	85,40	150,11	0,02205	
6,680	-0,04242	85,30	150,11	0,02207	
6,700	-0,04095	84,25	150,10	0,02203	
6,720	-0,03958	82,72	150,10	0,02189	
6,740	-0,03824	82,08	150,10	0,02184	
6,760	-0,03682	83,10	150,10	0,02184	
6,780	-0,03519	84,56	150,10	0,02196	
6,800	-0,03362	85,20	150,10	0,02205	
6,820	-0,03220	85,37	150,10	0,02210	
6,840	-0,03085	85,36	150,10	0,02213	
6,860	-0,02929	85,25	150,10	0,02205	
6,880	-0,02767	85,24	150,10	0,02188	
6,900	-0,02621	84,78	150,11	0,02184	
6,920	-0,02484	83,28	150,11	0,02193	
6,940	-0,02350	82,20	150,11	0,02201	
6,960	-0,02207	81,91	150,11	0,02210	
6,980	-0,02043	81,94	150,10	0,02210	
7,000	-0,01885	81,96	150,10	0,02197	
7,020	-0,01744	81,93	150,10	0,02187	
7,040	-0,01601	81,94	150,10	0,02186	
7,060	-0,01438	81,97	150,10	0,02186	
7,080	-0,01282	81,95	150,10	0,02194	
7,100	-0,01132	81,92	150,10	0,02207	
7,120	-0,00969	81,90	150,10	0,02209	
7,140	-0,00812	81,85	150,10	0,02202	
7,160	-0,00669	81,76	150,10	0,02187	
7,180	-0,00526	81,81	150,10	0,02177	
7,200	-0,00363	81,89	150,10	0,02180	
7,220	-0,00204	81,88	150,11	0,02187	
7,240	-0,00055	81,93	150,11	0,02194	
7,260	0,00109	81,94	150,13	0,02207	
7,280	0,00267	81,89	150,54	0,02215	
7,300	0,00429	81,87	151,95	0,02209	
7,320	0,00591	81,84	153,63	0,02193	
7,340	0,00741	81,74	155,18	0,02186	
7,360	0,00887	80,71	156,60	0,02188	
7,380	0,01050	79,25	158,06	0,02200	
7,400	0,01205	78,55	159,50	0,02214	
7,420	0,01354	78,51	160,89	0,02220	
7,440	0,01517	78,56	162,06	0,02218	
7,460	0,01676	78,56	163,32	0,02207	
7,480	0,01838	78,56	164,81	0,02195	
7,500	0,02001	78,55	166,12	0,02191	
7,520	0,02150	78,50	167,26	0,02198	
7,540	0,02308	78,42	168,55	0,02209	
7,560	0,02470	77,39	170,10	0,02210	
7,580	0,02626	75,97	171,52	0,02202	
7,600	0,02794	75,30	172,69	0,02192	
7,620	0,02951	75,18	174,11	0,02184	
7,640	0,03111	75,17	175,57	0,02182	
7,660	0,03277	75,20	176,90	0,02188	
7,680	0,03446	75,18	178,17	0,02201	
7,700	0,03613	75,13	179,55	0,02215	
7,720	0,03782	75,18	181,02	0,02212	
7,740	0,03949	75,19	182,53	0,02196	
7,760	0,04107	75,19	183,91	0,02186	
7,780	0,04273	75,23	185,10	0,02188	
7,800	0,04431	75,24	186,44	0,02199	
7,820	0,04594	75,20	187,98	0,02210	
7,840	0,04760	75,16	189,48	0,02213	
7,860	0,04927	75,20	190,97	0,02206	
7,880	0,05094	75,21	192,40	0,02199	
7,900	0,05263	75,21	193,68	0,02189	
7,920	0,05437	75,20	194,95	0,02182	
7,940	0,05615	75,11	196,23	0,02188	
7,960	0,05782	74,05	197,47	0,02202	
7,980	0,05949	72,59	198,75	0,02210	
8,000	0,06114	71,90	200,12	0,02215	
8,020	0,06286	71,84	201,59	0,02212	
8,040	0,06463	71,86	203,14	0,02202	
8,060	0,06635	71,86	204,54	0,02202	
8,080	0,06806	71,91	205,89	0,02203	
8,100	0,06982	71,90	207,25	0,02203	
8,120	0,07161	71,85	208,62	0,02203	
8,140	0,07340	71,82	209,91	0,02204	
8,160	0,07510	71,84	211,18	0,02212	
8,180	0,07679	71,80	212,54	0,02211	
8,200	0,07854	71,74	214,00	0,02196	
8,220	0,08031	71,71	215,47	0,02189	
8,240	0,08199	71,26	216,89	0,02196	
8,260	0,08370	69,82	218,24	0,02199	
8,280	0,08548	68,78	219,59	0,02208	
8,300	0,08727	68,44	220,99	0,02207	
8,320	0,08907	68,36	222,40	0,02197	
8,340	0,09087	68,41	223,80	0,02189	
8,360	0,09265	68,39	225,22	0,02182	
8,380	0,09442	68,38	226,68	0,02183	
8,400	0,09609	68,03	228,11	0,02195	
8,420	0,09787	66,66	229,49	0,02208	
8,440	0,09974	65,57	230,85	0,02212	
8,460	0,1016	65,22	232,22	0,02207	
8,480	0,1034	65,18	233,65	0,02197	
8,500	0,1052	65,19	235,11	0,02186	
8,520	0,1071	65,23	236,54	0,02187	
8,540	0,1090	65,24	237,94	0,02196	
8,560	0,1107	65,23	239,36	0,02204	
8,580	0,1125	65,19	240,79	0,02209	
8,600	0,1143	65,16	242,22	0,02211	
8,620	0,1162	65,12	243,63	0,02208	
8,640	0,1181	65,10	245,00	0,02195	
8,660	0,1199	65,05	246,36	0,02186	
8,680	0,1217	65,09	247,78	0,02182	
8,700	0,1236	65,14	249,21	0,02190	
8,720	0,1255	65,16	250,65	0,02200	
8,740	0,1274	65,21	252,10	0,02213	
8,760	0,1293	65,22	253,53	0,02214	
8,780	0,1311	65,19	254,93	0,02201	
8,800	0,1330	65,13	256,38	0,02187	
8,820	0,1350	65,18	258,41	0,02181	
8,840	0,1369	65,20	261,67	0,02185	
8,860	0,1388	65,20	265,83	0,02198	
8,880	0,1407	65,18	269,11	0,02204	
8,900	0,1425	65,07	271,01	0,02206	
8,920	0,1445	64,10	272,39	0,02214	
8,940	0,1464	62,66	273,79	0,02209	
8,960	0,1483	61,89	275,24	0,02195	
8,980	0,1502	61,74	276,79	0,02184	
9,000	0,1522	61,40	278,35	0,02184	
9,020	0,1541	59,98	279,82	0,02193	
9,040	0,1560	58,86	281,32	0,02201	
9,060	0,1579	58,50	282,92	0,02207	
9,080	0,1599	58,43	284,42	0,02207	
9,100	0,1619	58,44	285,89	0,02196	
9,120	0,1638	58,44	287,40	0,02186	
9,140	0,1657	58,41	288,87	0,02179	
9,160	0,1676	58,37	290,35	0,02186	
9,180	0,1696	58,36	291,92	0,02207	
9,200	0,1717	58,34	293,48	0,02218	
9,220	0,1737	58,34	295,00	0,02221	
9,240	0,1757	58,36	296,53	0,02205	
9,260	0,1777	58,31	298,12	0,02187	
9,280	0,1797	58,41	299,67	0,02185	
9,300	0,1817	58,52	301,20	0,02186	
9,320	0,1838	58,47	302,75	0,02187	
9,340	0,1858	58,49	304,31	0,02205	
9,360	0,1878	58,49	305,89	0,02214	
9,380	0,1898	58,06	307,56	0,02206	
9,400	0,1919	56,57	309,27	0,02194	
9,420	0,1939	55,43	310,94	0,02184	
9,440	0,1960	55,07	312,57	0,02185	
9,460	0,1981	55,07	314,18	0,02200	
9,480	0,2002	55,07	315,82	0,02204	
9,500	0,2022	55,13	317,51	0,02205	
9,520	0,2043	55,14	319,17	0,02211	
9,540	0,2064	55,12	320,83	0,02205	
9,560	0,2086	55,09	322,53	0,02191	
9,580	0,2106	55,10	324,23	0,02184	
9,600	0,2126	55,14	325,95	0,02190	
9,620	0,2146	55,13	327,69	0,02197	
9,640	0,2166	55,05	329,42	0,02202	
9,660	0,2188	54,11	331,15	0,02210	
9,680	0,2210	52,41	332,88	0,02205	
9,700	0,2232	51,45	334,41	0,02191	
9,720	0,2252	55,93	335,33	0,02185	
9,740	0,2272	67,52	335,67	0,02195	
9,760	0,2293	82,28	335,78	0,02210	
9,780	0,2312	96,09	335,93	0,02211	
9,800	0,2328	108,94	336,21	0,02200	
9,820	0,2338	116,50	336,80	0,02186	
9,840	0,2347	115,63	337,81	0,02181	
9,860	0,2355	111,41	338,90	0,02183	
9,880	0,2363	110,95	339,68	0,02187	
9,900	0,2371	114,96	340,26	0,02191	
9,920	0,2383	119,09	341,02	0,02198	
9,940	0,2395	121,03	342,01	0,02204	
9,960	0,2402	122,41	342,92	0,02200	
9,980	0,2405	122,46	343,61	0,02187	
10,00	0,2410	120,29	344,37	0,02178	
10,02	0,2417	116,25	345,26	0,02176	
10,04	0,2424	115,15	346,05	0,02184	
10,06	0,2430	115,58	346,84	0,02195	
10,08	0,2437	113,17	347,70	0,02205	
10,10	0,2444	110,40	348,51	0,02205	
10,12	0,2450	109,55	349,33	0,02194	
10,14	0,2458	108,23	350,20	0,02179	
10,16	0,2465	107,20	350,97	0,02174	
10,18	0,2472	107,27	351,77	0,02184	
10,20	0,2479	105,50	352,67	0,02200	
10,22	0,2487	103,22	353,55	0,02214	
10,24	0,2493	103,31	354,30	0,02215	
10,26	0,2499	103,87	355,05	0,02205	
10,28	0,2508	101,70	355,96	0,02187	
10,30	0,2517	100,84	356,85	0,02175	
10,32	0,2524	102,75	357,57	0,02178	
10,34	0,2531	103,93	358,32	0,02195	
10,36	0,2538	102,47	359,24	0,02203	
10,38	0,2546	101,94	360,09	0,02201	
10,40	0,2553	104,56	360,82	0,02193	
10,42	0,2560	105,20	361,63	0,02185	
10,44	0,2568	104,04	362,48	0,02183	
10,46	0,2575	104,43	363,30	0,02188	
10,48	0,2581	105,93	364,09	0,02194	
10,50	0,2588	105,53	364,95	0,02201	
10,52	0,2595	104,00	365,85	0,02206	
10,54	0,2602	104,39	366,65	0,02209	
10,56	0,2608	105,12	367,41	0,02202	
10,58	0,2615	104,92	368,23	0,02187	
10,60	0,2622	104,91	369,10	0,02179	
10,62	0,2629	105,09	369,95	0,02183	
10,64	0,2635	104,86	370,73	0,02198	
10,66	0,2642	104,95	371,49	0,02211	
10,68	0,2649	105,63	372,28	0,02213	
10,70	0,2656	106,24	373,17	0,02202	
10,72	0,2663	106,43	374,06	0,02190	
10,74	0,2669	107,58	374,84	0,02185	
10,76	0,2676	108,57	375,58	0,02189	
10,78	0,2683	107,95	376,43	0,02198	
10,80	0,2688	107,38	377,30	0,02213	
10,82	0,2693	108,48	378,12	0,02217	
10,84	0,2699	109,42	378,91	0,02213	
10,86	0,2706	108,62	379,76	0,02209	
10,88	0,2713	109,19	380,58	0,02196	
10,90	0,2719	111,09	381,40	0,02191	
10,92	0,2724	112,06	382,22	0,02195	
10,94	0,2730	112,63	383,01	0,02206	
10,96	0,2736	114,10	383,82	0,02214	
10,98	0,2742	113,98	384,73	0,02213	
11,00	0,2747	113,06	385,61	0,02211	
11,02	0,2752	114,15	386,35	0,02206	
11,04	0,2757	115,70	387,08	0,02200	
11,06	0,2763	114,63	387,96	0,02191	
11,08	0,2769	113,78	388,87	0,02190	
11,10	0,2773	114,94	389,64	0,02199	
11,12	0,2777	115,21	390,40	0,02212	
11,14	0,2783	114,12	391,22	0,02219	
11,16	0,2788	114,44	392,07	0,02215	
11,18	0,2793	115,32	392,92	0,02208	
11,20	0,2798	114,63	393,75	0,02200	
11,22	0,2803	113,80	394,56	0,02201	
11,24	0,2808	114,52	395,36	0,02214	
11,26	0,2813	115,22	396,21	0,02226	
11,28	0,2818	114,88	397,05	0,02223	
11,30	0,2822	115,14	397,83	0,02215	
11,32	0,2826	115,35	398,64	0,02206	
11,34	0,2831	114,50	399,49	0,02193	
11,36	0,2835	113,69	400,34	0,02186	
11,38	0,2840	113,96	401,15	0,02200	
11,40	0,2844	113,90	402,00	0,02208	
11,42	0,2849	113,47	402,84	0,02213	
11,44	0,2853	114,47	403,58	0,02220	
11,46	0,2858	115,95	404,37	0,02217	
11,48	0,2862	115,53	405,24	0,02199	
11,50	0,2867	115,18	406,08	0,02190	
11,52	0,2871	115,36	406,88	0,02196	
11,54	0,2876	114,48	407,72	0,02203	
11,56	0,2880	113,25	408,59	0,02213	
11,58	0,2885	114,46	409,37	0,02217	
11,60	0,2889	115,91	410,15	0,02210	
11,62	0,2894	115,87	411,00	0,02200	
11,64	0,2898	116,57	411,79	0,02193	
11,66	0,2902	118,07	412,59	0,02196	
11,68	0,2906	117,38	413,44	0,02201	
11,70	0,2910	115,99	414,24	0,02208	
11,72	0,2915	116,19	415,05	0,02216	
11,74	0,2919	115,56	415,93	0,02219	
11,76	0,2923	115,25	416,74	0,02211	
11,78	0,2927	116,05	417,52	0,02192	
11,80	0,2932	115,67	418,35	0,02186	
11,82	0,2936	114,20	419,21	0,02196	
11,84	0,2941	113,78	420,04	0,02204	
11,86	0,2945	113,84	420,83	0,02210	
11,88	0,2949	113,63	421,62	0,02219	
11,90	0,2954	113,39	422,44	0,02220	
11,92	0,2959	113,29	423,27	0,02206	
11,94	0,2963	113,30	424,11	0,02192	
11,96	0,2968	113,33	424,92	0,02190	
11,98	0,2971	113,17	425,74	0,02196	
12,00	0,2975	112,61	426,59	0,02208	
12,02	0,2979	112,24	427,42	0,02216	
12,04	0,2983	112,30	428,21	0,02217	
12,06	0,2988	112,40	429,02	0,02208	
12,08	0,2993	112,04	429,89	0,02195	
12,10	0,2997	111,38	430,73	0,02197	
12,12	0,3001	111,26	431,51	0,02202	
12,14	0,3006	111,17	432,32	0,02208	
12,16	0,3010	111,26	433,13	0,02211	
12,18	0,3015	112,02	433,94	0,02214	
12,20	0,3019	111,84	434,79	0,02212	
12,22	0,3024	110,67	435,63	0,02198	
12,24	0,3029	110,15	436,42	0,02187	
12,26	0,3034	110,12	437,22	0,02179	
12,28	0,3039	109,64	438,09	0,02187	
12,30	0,3044	109,12	438,92	0,02200	
12,32	0,3048	109,69	439,67	0,02210	
12,34	0,3053	108,83	440,52	0,02215	
12,36	0,3059	107,28	441,38	0,02213	
12,38	0,3063	108,89	442,13	0,02202	
12,40	0,3068	110,33	442,95	0,02189	
12,42	0,3073	108,40	443,84	0,02190	
12,44	0,3077	107,38	444,66	0,02202	
12,46	0,3082	107,53	445,46	0,02216	
12,48	0,3087	106,23	446,27	0,02220	
12,50	0,3092	106,07	447,08	0,02213	
12,52	0,3097	106,61	447,92	0,02198	
12,54	0,3102	105,94	448,74	0,02194	
12,56	0,3106	105,85	449,51	0,02196	
12,58	0,3111	105,25	450,36	0,02200	
12,60	0,3116	103,75	451,21	0,02204	
12,62	0,3122	102,87	452,00	0,02214	
12,64	0,3127	102,94	452,83	0,02227	
12,66	0,3131	102,32	453,65	0,02218	
12,68	0,3136	101,95	454,47	0,02200	
12,70	0,3142	102,32	455,29	0,02189	
12,72	0,3147	101,28	456,13	0,02194	
12,74	0,3153	100,25	456,94	0,02202	
12,76	0,3157	99,97	457,73	0,02209	
12,78	0,3163	99,22	458,56	0,02215	
12,80	0,3168	98,71	459,40	0,02216	
12,82	0,3173	98,77	460,21	0,02203	
12,84	0,3179	98,83	460,97	0,02200	
12,86	0,3185	98,17	461,83	0,02203	
12,88	0,3191	97,49	462,74	0,02210	
12,90	0,3196	97,88	463,53	0,02217	
12,92	0,3201	98,13	464,30	0,02216	
12,94	0,3207	96,10	465,15	0,02210	
12,96	0,3212	95,03	465,96	0,02193	
12,98	0,3219	95,65	466,75	0,02184	
13,00	0,3225	94,95	467,59	0,02191	
13,02	0,3230	94,19	468,39	0,02203	
13,04	0,3236	94,57	469,22	0,02211	
13,06	0,3243	94,05	470,07	0,02212	
13,08	0,3249	93,83	470,85	0,02208	
13,10	0,3256	93,74	471,69	0,02205	
13,12	0,3261	92,22	472,57	0,02197	
13,14	0,3266	91,80	473,33	0,02189	
13,16	0,3273	91,42	474,16	0,02194	
13,18	0,3280	90,08	475,01	0,02211	
13,20	0,3286	90,21	475,79	0,02220	
13,22	0,3293	90,64	476,64	0,02220	
13,24	0,3300	89,31	477,47	0,02214	
13,26	0,3306	89,17	478,22	0,02204	
13,28	0,3312	88,90	479,08	0,02189	
13,30	0,3318	87,41	479,93	0,02187	
13,32	0,3324	88,18	480,65	0,02192	
13,34	0,3331	88,37	481,50	0,02205	
13,36	0,3338	85,55	482,43	0,02219	
13,38	0,3344	85,00	483,22	0,02220	
13,40	0,3350	86,38	483,95	0,02207	
13,42	0,3357	85,69	484,78	0,02196	
13,44	0,3365	84,23	485,66	0,02197	
13,46	0,3373	84,69	486,51	0,02198	
13,48	0,3379	85,26	487,24	0,02207	
13,50	0,3386	85,56	487,99	0,02222	
13,52	0,3394	85,16	488,89	0,02227	
13,54	0,3401	85,32	489,75	0,02219	
13,56	0,3407	86,86	490,52	0,02200	
13,58	0,3414	86,13	491,37	0,02190	
13,60	0,3421	84,73	492,21	0,02194	
13,62	0,3427	84,77	493,03	0,02200	
13,64	0,3434	84,54	493,89	0,02207	
13,66	0,3441	83,75	494,63	0,02208	
13,68	0,3447	83,58	495,41	0,02207	
13,70	0,3455	82,50	496,37	0,02204	
13,72	0,3462	82,20	497,19	0,02193	
13,74	0,3469	83,59	497,96	0,02192	
13,76	0,3477	82,74	498,81	0,02198	
13,78	0,3483	81,46	499,54	0,02202	
13,80	0,3491	81,76	500,35	0,02213	
13,82	0,3499	80,93	501,27	0,02221	
13,84	0,3505	80,06	502,04	0,02214	
13,86	0,3511	80,17	502,84	0,02201	
13,88	0,3519	78,78	503,74	0,02196	
13,90	0,3526	78,70	504,52	0,02196	
13,92	0,3533	79,76	505,33	0,02206	
13,94	0,3541	78,51	506,21	0,02218	
13,96	0,3548	77,58	506,98	0,02220	
13,98	0,3555	77,43	507,81	0,02216	
14,00	0,3563	75,42	508,66	0,02208	
14,02	0,3570	74,92	509,40	0,02195	
14,04	0,3578	75,69	510,22	0,02192	
14,06	0,3586	74,18	511,10	0,02203	
14,08	0,3593	73,15	511,87	0,02206	
14,10	0,3600	73,02	512,71	0,02211	
14,12	0,3608	71,04	513,59	0,02212	
14,14	0,3615	69,78	514,37	0,02212	
14,16	0,3624	69,94	515,17	0,02209	
14,18	0,3632	68,78	516,00	0,02204	
14,20	0,3640	68,20	516,79	0,02200	
14,22	0,3648	68,36	517,61	0,02207	
14,24	0,3656	66,84	518,42	0,02210	
14,26	0,3665	65,97	519,23	0,02209	
14,28	0,3672	65,55	520,10	0,02215	
14,30	0,3681	64,66	520,92	0,02210	
14,32	0,3689	64,80	521,72	0,02199	
14,34	0,3698	63,64	522,57	0,02198	
14,36	0,3707	62,07	523,34	0,02199	
14,38	0,3715	62,77	524,11	0,02204	
14,40	0,3724	62,22	525,04	0,02209	
14,42	0,3732	61,06	525,87	0,02215	
14,44	0,3740	62,01	526,63	0,02213	
14,46	0,3750	61,24	527,53	0,02201	
14,48	0,3759	59,51	528,38	0,02191	
14,50	0,3768	59,59	529,14	0,02193	
14,52	0,3777	58,92	529,97	0,02201	
14,54	0,3787	57,31	530,78	0,02211	
14,56	0,3796	56,26	531,61	0,02218	
14,58	0,3805	55,63	532,43	0,02222	
14,60	0,3813	55,81	533,13	0,02210	
14,62	0,3823	56,54	533,97	0,02191	
14,64	0,3833	55,17	535,00	0,02189	
14,66	0,3842	55,07	535,83	0,02198	
14,68	0,3850	56,27	536,56	0,02207	
14,70	0,3861	55,21	537,33	0,02215	
14,72	0,3870	54,05	538,09	0,02219	
14,74	0,3880	54,77	538,95	0,02210	
14,76	0,3889	53,45	539,81	0,02200	
14,78	0,3898	51,51	540,55	0,02198	
14,80	0,3908	50,97	541,42	0,02196	
14,82	0,3918	49,61	542,33	0,02196	
14,84	0,3928	49,36	543,07	0,02201	
14,86	0,3937	49,66	543,87	0,02206	
14,88	0,3948	47,89	544,76	0,02202	
14,90	0,3957	47,11	545,53	0,02191	
14,92	0,3968	47,17	546,36	0,02191	
14,94	0,3978	45,19	547,24	0,02195	
14,96	0,3989	44,59	548,00	0,02203	
14,98	0,3999	44,89	548,82	0,02216	
15,00	0,4010	43,26	549,69	0,02221	
15,02	0,4021	42,45	550,46	0,02216	
15,04	0,4031	42,14	551,26	0,02207	
15,06	0,4043	40,14	552,10	0,02195	
15,08	0,4053	39,11	552,88	0,02188	
15,10	0,4064	39,41	553,68	0,02191	
15,12	0,4076	38,47	554,55	0,02208	
15,14	0,4087	37,44	555,36	0,02221	
15,16	0,4097	36,82	556,12	0,02216	
15,18	0,4109	34,86	556,97	0,02213	
15,20	0,4121	32,19	557,80	0,02208	
15,22	0,4131	31,60	558,54	0,02200	
15,24	0,4142	30,88	559,41	0,02195	
15,26	0,4156	28,01	560,40	0,02197	
15,28	0,4167	26,50	561,20	0,02205	
15,30	0,4178	25,69	561,94	0,02218	
15,32	0,4190	23,09	562,76	0,02223	
15,34	0,4203	21,57	563,53	0,02213	
15,36	0,4216	21,54	564,35	0,02208	
15,38	0,4228	19,56	565,22	0,02206	
15,40	0,4238	17,32	565,99	0,02208	
15,42	0,4250	16,13	566,77	0,02206	
15,44	0,4263	14,82	567,67	0,02213	
15,46	0,4277	12,32	568,55	0,02223	
15,48	0,4290	10,78	569,28	0,02214	
15,50	0,4303	10,04	570,08	0,02194	
15,52	0,4318	7,812	571,03	0,02191	
15,54	0,4331	6,935	571,81	0,02204	
15,56	0,4344	6,683	572,56	0,02215	
15,58	0,4358	4,165	573,45	0,02223	
15,60	0,4372	2,318	574,27	0,02228	
15,62	0,4388	2,739	575,03	0,02229	
15,64	0,4404	2,506	575,86	0,02216	
15,66	0,4418	1,230	576,70	0,02205	
15,68	0,4432	1,271	577,53	0,02202	
15,70	0,4445	1,322	578,33	0,02200	
15,72	0,4458	1,886	579,10	0,02205	
15,74	0,4472	1,803	579,98	0,02215	
15,76	0,4486	0,6822	580,86	0,02221	
15,78	0,4502	1,366	581,60	0,02219	
15,80	0,4518	1,646	582,50	0,02209	
15,82	0,4533	0,7421	583,46	0,02200	
15,84	0,4546	2,140	584,20	0,02204	
15,86	0,4559	4,618	584,91	0,02222	
15,88	0,4573	4,680	585,75	0,02232	
15,90	0,4589	5,355	586,56	0,02229	
15,92	0,4605	8,115	587,30	0,02225	
15,94	0,4619	9,659	588,19	0,02212	
15,96	0,4633	10,28	589,16	0,02198	
15,98	0,4646	13,12	589,94	0,02192	
16,00	0,4659	15,78	590,69	0,02190	
16,02	0,4673	16,51	591,56	0,02202	
16,04	0,4686	18,70	592,37	0,02221	
16,06	0,4699	22,24	593,15	0,02232	
16,08	0,4713	23,93	593,98	0,02231	
16,10	0,4727	24,35	594,82	0,02211	
16,12	0,4739	27,27	595,57	0,02197	
16,14	0,4750	30,16	596,41	0,02204	
16,16	0,4762	30,49	597,36	0,02214	
16,18	0,4773	32,18	598,14	0,02221	
16,20	0,4786	35,48	598,90	0,02226	
16,22	0,4797	36,78	599,80	0,02221	
16,24	0,4808	38,51	600,61	0,02203	
16,26	0,4820	41,51	601,32	0,02190	
16,28	0,4831	42,29	602,17	0,02194	
16,30	0,4842	41,39	603,07	0,02203	
16,32	0,4852	43,64	603,77	0,02214	
16,34	0,4862	46,71	604,55	0,02220	
16,36	0,4874	45,63	605,61	0,02218	
16,38	0,4885	46,44	606,52	0,02214	
16,40	0,4895	50,01	607,18	0,02212	
16,42	0,4905	51,19	607,91	0,02208	
16,44	0,4915	49,56	608,79	0,02204	
16,46	0,4925	50,30	609,59	0,02210	
16,48	0,4933	53,23	610,34	0,02218	
16,50	0,4943	52,73	611,27	0,02218	
16,52	0,4954	51,46	612,16	0,02214	
16,54	0,4963	53,12	612,92	0,02216	
16,56	0,4972	54,24	613,73	0,02212	
16,58	0,4982	54,28	614,51	0,02203	
16,60	0,4992	55,77	615,29	0,02201	
16,62	0,5001	56,62	616,18	0,02213	
16,64	0,5010	55,99	617,00	0,02225	
16,66	0,5019	56,95	617,78	0,02225	
16,68	0,5028	57,22	618,67	0,02217	
16,70	0,5037	57,17	619,48	0,02202	
16,72	0,5047	58,70	620,27	0,02188	
16,74	0,5057	59,29	621,12	0,02185	
16,76	0,5066	59,41	621,86	0,02199	
16,78	0,5075	60,73	622,67	0,02204	
16,80	0,5085	59,54	623,62	0,02212	
16,82	0,5093	58,85	624,43	0,02219	
16,84	0,5102	60,66	625,21	0,02206	
16,86	0,5111	61,05	626,05	0,02191	
16,88	0,5120	60,82	626,81	0,02189	
16,90	0,5129	61,55	627,67	0,02194	
16,92	0,5137	61,40	628,52	0,02212	
16,94	0,5145	62,53	629,22	0,02220	
16,96	0,5155	63,74	630,08	0,02219	
16,98	0,5164	61,40	631,10	0,02214	
17,00	0,5172	60,77	631,89	0,02209	
17,02	0,5181	62,20	632,64	0,02203	
17,04	0,5190	61,12	633,43	0,02195	
17,06	0,5198	60,13	634,21	0,02196	
17,08	0,5207	61,68	635,03	0,02208	
17,10	0,5217	61,79	635,89	0,02221	
17,12	0,5225	61,54	636,70	0,02221	
17,14	0,5234	62,13	637,53	0,02211	
17,16	0,5243	62,67	638,34	0,02193	
17,18	0,5252	63,06	639,14	0,02192	
17,20	0,5261	64,01	639,97	0,02202	
17,22	0,5270	64,56	640,78	0,02209	
17,24	0,5279	64,55	641,58	0,02220	
17,26	0,5287	64,47	642,41	0,02220	
17,28	0,5295	64,19	643,23	0,02213	
17,30	0,5303	64,79	644,03	0,02204	
17,32	0,5312	64,78	644,90	0,02199	
17,34	0,5321	64,39	645,73	0,02193	
17,36	0,5330	64,78	646,54	0,02194	
17,38	0,5339	64,63	647,39	0,02210	
17,40	0,5348	64,54	648,20	0,02220	
17,42	0,5357	65,42	649,00	0,02215	
17,44	0,5367	65,10	649,84	0,02210	
17,46	0,5375	65,45	650,61	0,02204	
17,48	0,5384	66,66	651,42	0,02202	
17,50	0,5392	66,72	652,34	0,02202	
17,52	0,5400	67,01	653,10	0,02210	
17,54	0,5409	67,86	653,90	0,02212	
17,56	0,5418	66,26	654,86	0,02209	
17,58	0,5427	65,43	655,68	0,02210	
17,60	0,5435	67,29	656,40	0,02204	
17,62	0,5443	67,85	657,21	0,02191	
17,64	0,5453	66,61	658,07	0,02186	
17,66	0,5462	67,53	658,84	0,02191	
17,68	0,5469	67,87	659,65	0,02206	
17,70	0,5477	66,15	660,55	0,02219	
17,72	0,5485	66,53	661,29	0,02221	
17,74	0,5494	68,70	662,04	0,02221	
17,76	0,5503	67,54	663,00	0,02215	
17,78	0,5512	65,97	663,84	0,02197	
17,80	0,5519	67,51	664,60	0,02190	
17,82	0,5528	66,81	665,46	0,02198	
17,84	0,5536	64,96	666,21	0,02212	
17,86	0,5545	65,64	667,01	0,02222	
17,88	0,5554	65,00	667,96	0,02223	
17,90	0,5562	63,52	668,78	0,02216	
17,92	0,5570	64,39	669,53	0,02205	
17,94	0,5579	64,43	670,37	0,02198	
17,96	0,5588	63,38	671,18	0,02202	
17,98	0,5596	64,34	671,96	0,02204	
18,00	0,5604	64,39	672,80	0,02214	
18,02	0,5613	62,93	673,63	0,02231	
18,04	0,5621	61,91	674,42	0,02225	
18,06	0,5631	60,81	675,24	0,02207	
18,08	0,5639	59,97	676,08	0,02196	
18,10	0,5649	60,07	676,94	0,02193	
18,12	0,5658	60,22	677,73	0,02195	
18,14	0,5666	59,72	678,49	0,02207	
18,16	0,5675	58,50	679,33	0,02219	
18,18	0,5684	57,57	680,17	0,02228	
18,20	0,5693	57,13	680,97	0,02216	
18,22	0,5702	56,36	681,83	0,02190	
18,24	0,5711	56,05	682,64	0,02189	
18,26	0,5720	57,35	683,35	0,02192	
18,28	0,5729	57,39	684,25	0,02197	
18,30	0,5740	55,23	685,19	0,02212	
18,32	0,5749	55,82	685,96	0,02226	
18,34	0,5758	56,18	686,76	0,02220	
18,36	0,5767	54,02	687,57	0,02206	
18,38	0,5776	53,57	688,34	0,02196	
18,40	0,5786	54,18	689,22	0,02198	
18,42	0,5796	52,99	690,07	0,02212	
18,44	0,5805	53,02	690,82	0,02229	
18,46	0,5814	52,63	691,65	0,02229	
18,48	0,5824	50,73	692,52	0,02222	
18,50	0,5834	50,90	693,30	0,02217	
18,52	0,5843	51,56	694,09	0,02211	
18,54	0,5852	49,62	694,95	0,02200	
18,56	0,5863	48,05	695,78	0,02196	
18,58	0,5873	48,82	696,55	0,02208	
18,60	0,5884	48,54	697,38	0,02222	
18,62	0,5894	46,92	698,23	0,02226	
18,64	0,5904	47,29	699,00	0,02222	
18,66	0,5914	47,78	699,82	0,02218	
18,68	0,5925	46,26	700,71	0,02203	
18,70	0,5936	45,68	701,52	0,02192	
18,72	0,5946	45,98	702,28	0,02192	
18,74	0,5956	45,16	703,13	0,02200	
18,76	0,5967	43,58	703,99	0,02214	
18,78	0,5976	43,92	704,73	0,02223	
18,80	0,5986	44,34	705,55	0,02219	
18,82	0,5998	42,43	706,47	0,02203	
18,84	0,6008	42,30	707,25	0,02192	
18,86	0,6018	43,50	708,05	0,02188	
18,88	0,6030	41,43	708,96	0,02198	
18,90	0,6040	39,84	709,77	0,02214	
18,92	0,6051	41,13	710,49	0,02216	
18,94	0,6062	40,59	711,31	0,02220	
18,96	0,6073	38,98	712,18	0,02219	
18,98	0,6084	39,13	712,94	0,02208	
19,00	0,6095	39,90	713,69	0,02201	
19,02	0,6106	38,13	714,62	0,02199	
19,04	0,6118	36,29	715,55	0,02208	
19,06	0,6129	36,21	716,24	0,02217	
19,08	0,6139	36,78	716,89	0,02217	
19,10	0,6151	34,66	717,84	0,02210	
19,12	0,6164	32,31	718,92	0,02205	
19,14	0,6175	32,73	719,68	0,02202	
19,16	0,6185	32,92	720,21	0,02197	
19,18	0,6197	31,45	720,95	0,02191	
19,20	0,6210	29,02	722,07	0,02194	
19,22	0,6221	28,40	723,10	0,02205	
19,24	0,6231	29,08	723,68	0,02205	
19,26	0,6244	30,33	724,15	0,02191	
19,28	0,6257	29,68	725,11	0,02186	
19,30	0,6269	28,40	726,38	0,02191	
19,32	0,6280	29,58	727,19	0,02197	
19,34	0,6289	33,73	727,50	0,02202	
19,36	0,6300	34,86	728,19	0,02207	
19,38	0,6313	32,61	729,55	0,02220	
19,40	0,6327	31,90	730,78	0,02221	
19,42	0,6335	36,66	731,32	0,02209	
19,44	0,6346	39,68	731,89	0,02195	
19,46	0,6359	37,22	733,03	0,02197	
19,48	0,6370	38,87	734,00	0,02210	
19,50	0,6378	45,06	734,43	0,02222	
19,52	0,6387	47,22	734,91	0,02227	
19,54	0,6399	43,72	736,08	0,02221	
19,56	0,6411	42,49	737,38	0,02207	
19,58	0,6419	46,67	737,98	0,02192	
19,60	0,6426	50,40	738,22	0,02183	
19,62	0,6434	50,83	739,02	0,02189	
19,64	0,6446	48,95	740,48	0,02200	
19,66	0,6456	50,14	741,53	0,02216	
19,68	0,6463	53,12	741,75	0,02228	
19,70	0,6469	53,83	742,07	0,02231	
19,72	0,6479	50,96	743,30	0,02217	
19,74	0,6488	48,31	744,83	0,02190	
19,76	0,6494	49,46	745,54	0,02181	
19,78	0,6499	51,07	745,80	0,02189	
19,80	0,6508	46,96	746,74	0,02199	
19,82	0,6518	42,85	748,06	0,02222	
19,84	0,6526	46,17	748,72	0,02227	
19,86	0,6531	49,84	748,93	0,02206	
19,88	0,6539	46,95	749,65	0,02191	
19,90	0,6549	42,28	751,14	0,02196	
19,92	0,6558	42,47	752,29	0,02203	
19,94	0,6564	45,75	752,52	0,02210	
19,96	0,6569	46,87	752,74	0,02219	
19,98	0,6577	43,99	753,89	0,02222	
20,00	0,6585	39,96	755,47	0,02220	
20,02	0,6592	39,78	756,25	0,02208	
20,04	0,6596	41,60	756,36	0,02196	
20,06	0,6603	39,80	757,08	0,02192	
20,08	0,6614	35,06	758,60	0,02195	
20,10	0,6622	33,50	759,67	0,02201	
20,12	0,6627	36,56	759,83	0,02204	
20,14	0,6633	36,08	760,20	0,02210	
20,16	0,6642	31,17	761,56	0,02211	
20,18	0,6652	28,95	762,98	0,02198	
20,20	0,6657	31,96	763,41	0,02186	
20,22	0,6660	34,30	763,48	0,02187	
20,24	0,6668	31,01	764,46	0,02196	
20,26	0,6678	26,48	766,09	0,02203	
20,28	0,6686	26,80	767,03	0,02208	
20,30	0,6691	30,24	767,14	0,02203	
20,32	0,6697	28,68	767,73	0,02194	
20,34	0,6708	23,57	769,19	0,02190	
20,36	0,6716	22,83	770,33	0,02196	
20,38	0,6722	27,58	770,47	0,02200	
20,40	0,6727	27,97	770,63	0,02205	
20,42	0,6735	23,42	771,81	0,02211	
20,44	0,6743	20,73	773,57	0,02213	
20,46	0,6750	21,33	774,57	0,02208	
20,48	0,6754	22,46	774,83	0,02200	
20,50	0,6762	19,17	775,61	0,02195	
20,52	0,6771	16,05	776,68	0,02190	
20,54	0,6777	19,57	777,34	0,02192	
20,56	0,6782	21,57	778,03	0,02202	
20,58	0,6789	17,92	778,72	0,02206	
20,60	0,6795	17,55	779,30	0,02211	
20,62	0,6802	18,86	780,43	0,02211	
20,64	0,6810	16,26	781,70	0,02202	
20,66	0,6816	16,30	782,29	0,02201	
20,68	0,6822	17,68	782,71	0,02203	
20,70	0,6829	15,38	783,64	0,02213	
20,72	0,6837	13,54	784,57	0,02228	
20,74	0,6842	18,52	784,99	0,02227	
20,76	0,6849	20,45	785,79	0,02216	
20,78	0,6857	16,00	787,31	0,02202	
20,80	0,6864	13,92	788,39	0,02189	
20,82	0,6867	18,79	788,49	0,02191	
20,84	0,6872	21,69	788,77	0,02207	
20,86	0,6880	18,41	790,15	0,02217	
20,88	0,6888	15,74	791,79	0,02221	
20,90	0,6893	18,47	792,36	0,02218	
20,92	0,6896	22,35	792,39	0,02208	
20,94	0,6904	20,82	793,29	0,02192	
20,96	0,6914	18,11	794,90	0,02185	
20,98	0,6920	20,55	795,75	0,02190	
21,00	0,6923	25,85	795,71	0,02204	
21,02	0,6929	25,48	796,23	0,02217	
21,04	0,6937	21,95	797,87	0,02223	
21,06	0,6945	21,42	799,30	0,02212	
21,08	0,6948	25,33	799,54	0,02186	
21,10	0,6952	26,98	799,59	0,02175	
21,12	0,6959	25,14	800,13	0,02188	
21,14	0,6965	29,58	800,27	0,02211	
21,16	0,6969	40,49	799,83	0,02226	
21,18	0,6975	45,91	799,66	0,02219	
21,20	0,6981	45,78	799,78	0,02204	
21,22	0,6984	51,63	799,62	0,02196	
21,24	0,6987	57,22	799,59	0,02194	
21,26	0,6992	55,55	799,91	0,02194	
21,28	0,6996	57,11	799,89	0,02206	
21,30	0,6998	64,16	799,62	0,02219	
21,32	0,7003	65,63	799,72	0,02224	
21,34	0,7007	65,38	799,78	0,02219	
21,36	0,7007	71,07	799,55	0,02206	
21,38	0,7011	73,49	799,69	0,02197	
21,40	0,7015	70,85	800,00	0,02190	
21,42	0,7018	73,92	799,84	0,02192	
21,44	0,7020	79,60	799,63	0,02192	
21,46	0,7023	78,13	799,78	0,02200	
21,48	0,7026	78,43	799,72	0,02214	
21,50	0,7027	83,66	799,54	0,02220	
21,52	0,7031	83,01	799,80	0,02212	
21,54	0,7035	80,01	799,93	0,02202	
21,56	0,7037	84,39	799,66	0,02200	
21,58	0,7040	87,50	799,64	0,02207	
21,60	0,7042	84,27	799,85	0,02217	
21,62	0,7044	86,65	799,71	0,02223	
21,64	0,7046	91,05	799,60	0,02225	
21,66	0,7050	88,24	799,83	0,02212	
21,68	0,7053	86,81	799,81	0,02202	
21,70	0,7053	91,73	799,58	0,02196	
21,72	0,7057	91,41	799,73	0,02194	
21,74	0,7060	88,19	799,86	0,02201	
21,76	0,7060	92,04	799,62	0,02216	
21,78	0,7063	94,45	799,67	0,02223	
21,80	0,7067	90,64	799,94	0,02224	
21,82	0,7068	91,86	799,78	0,02213	
21,84	0,7071	96,54	799,58	0,02197	
21,86	0,7075	93,95	799,79	0,02191	
21,88	0,7076	92,06	799,82	0,02192	
21,90	0,7077	96,56	799,59	0,02195	
21,92	0,7081	95,75	799,69	0,02205	
21,94	0,7083	91,93	799,80	0,02220	
21,96	0,7084	95,16	799,59	0,02221	
21,98	0,7087	97,59	799,65	0,02203	
22,00	0,7090	94,01	799,85	0,02185	
22,02	0,7091	95,40	799,68	0,02182	
22,04	0,7093	99,08	799,56	0,02191	
22,06	0,7096	95,70	799,83	0,02207	
22,08	0,7097	94,59	799,83	0,02218	
22,10	0,7099	99,61	799,60	0,02224	
22,12	0,7102	98,29	799,72	0,02218	
22,14	0,7104	94,75	799,80	0,02206	
22,16	0,7106	98,39	799,57	0,02193	
22,18	0,7108	99,78	799,64	0,02191	
22,20	0,7110	96,07	799,90	0,02202	
22,22	0,7112	97,80	799,75	0,02218	
22,24	0,7113	101,52	799,60	0,02223	
22,26	0,7116	98,57	799,84	0,02223	
22,28	0,7119	97,48	799,85	0,02221	
22,30	0,7120	102,29	799,60	0,02214	
22,32	0,7122	101,77	799,70	0,02207	
22,34	0,7124	97,53	799,80	0,02203	
22,36	0,7126	100,32	799,59	0,02208	
22,38	0,7128	102,26	799,65	0,02217	
22,40	0,7131	99,20	799,88	0,02224	
22,42	0,7133	100,62	799,72	0,02218	
22,44	0,7134	104,17	799,58	0,02212	
22,46	0,7136	101,41	799,82	0,02208	
22,48	0,7139	100,11	799,80	0,02211	
22,50	0,7140	104,34	799,58	0,02216	
22,52	0,7142	102,90	799,72	0,02223	
22,54	0,7145	99,38	799,81	0,02229	
22,56	0,7146	103,24	799,59	0,02226	
22,58	0,7148	105,34	799,68	0,02216	
22,60	0,7150	101,40	799,89	0,02203	
22,62	0,7152	103,02	799,70	0,02200	
22,64	0,7154	106,38	799,62	0,02200	
22,66	0,7156	102,83	799,82	0,02209	
22,68	0,7157	101,69	799,73	0,02218	
22,70	0,7159	105,64	799,58	0,02227	
22,72	0,7162	103,45	799,80	0,02223	
22,74	0,7163	100,45	799,84	0,02209	
22,76	0,7165	104,46	799,60	0,02201	
22,78	0,7168	104,65	799,67	0,02202	
22,80	0,7170	100,78	799,80	0,02208	
22,82	0,7169	103,80	799,60	0,02219	
22,84	0,7172	106,45	799,62	0,02230	
22,86	0,7176	102,35	799,88	0,02231	
22,88	0,7176	102,59	799,77	0,02216	
22,90	0,7177	106,81	799,61	0,02200	
22,92	0,7181	104,84	799,77	0,02196	
22,94	0,7183	103,68	799,72	0,02202	
22,96	0,7182	108,37	799,55	0,02207	
22,98	0,7185	107,01	799,80	0,02213	
23,00	0,7188	102,99	799,94	0,02221	
23,02	0,7188	106,02	799,68	0,02222	
23,04	0,7189	108,20	799,63	0,02209	
23,06	0,7193	104,24	799,84	0,02198	
23,08	0,7195	105,11	799,72	0,02196	
23,10	0,7195	108,38	799,59	0,02197	
23,12	0,7198	105,14	799,80	0,02207	
23,14	0,7201	103,49	799,76	0,02218	
23,16	0,7201	108,24	799,57	0,02221	
23,18	0,7203	107,58	799,82	0,02214	
23,20	0,7207	104,58	799,99	0,02201	
23,22	0,7208	108,36	799,72	0,02198	
23,24	0,7209	110,00	799,65	0,02201	
23,26	0,7212	105,77	799,80	0,02209	
23,28	0,7214	106,70	799,64	0,02217	
23,30	0,7215	109,69	799,59	0,02220	
23,32	0,7217	105,98	799,90	0,02221	
23,34	0,7218	104,54	799,89	0,02207	
23,36	0,7220	109,73	799,62	0,02194	
23,38	0,7223	109,37	799,73	0,02198	
23,40	0,7224	106,16	799,82	0,02210	
23,42	0,7225	109,38	799,60	0,02221	
23,44	0,7228	110,81	799,66	0,02223	
23,46	0,7230	106,82	799,83	0,02219	
23,48	0,7230	108,28	799,65	0,02206	
23,50	0,7232	111,61	799,60	0,02195	
23,52	0,7236	108,66	799,86	0,02197	
23,54	0,7236	107,70	799,79	0,02210	
23,56	0,7236	111,45	799,59	0,02214	
23,58	0,7240	109,70	799,74	0,02220	
23,60	0,7243	106,94	799,77	0,02217	
23,62	0,7242	111,13	799,55	0,02209	
23,64	0,7245	111,43	799,72	0,02203	
23,66	0,7249	107,48	799,97	0,02203	
23,68	0,7249	109,71	799,77	0,02212	
23,70	0,7249	113,28	799,60	0,02215	
23,72	0,7252	109,52	799,83	0,02215	
23,74	0,7255	108,00	799,84	0,02221	
23,76	0,7255	112,38	799,59	0,02219	
23,78	0,7257	111,09	799,70	0,02209	
23,80	0,7261	106,96	799,88	0,02200	
23,82	0,7262	110,20	799,68	0,02200	
23,84	0,7263	113,26	799,61	0,02202	
23,86	0,7266	109,29	799,82	0,02206	
23,88	0,7268	109,35	799,72	0,02222	
23,90	0,7269	114,08	799,58	0,02218	
23,92	0,7271	112,27	799,82	0,02209	
23,94	0,7272	109,83	799,87	0,02208	
23,96	0,7274	113,90	799,61	0,02200	
23,98	0,7276	114,29	799,69	0,02203	
24,00	0,7278	110,72	799,85	0,02208	
24,02	0,7279	112,99	799,65	0,02218	
24,04	0,7282	114,97	799,61	0,02227	
24,06	0,7284	110,73	799,83	0,02224	
24,08	0,7284	110,50	799,74	0,02212	
24,10	0,7286	115,39	799,57	0,02205	
24,12	0,7290	113,57	799,79	0,02207	
24,14	0,7291	110,41	799,85	0,02210	
24,16	0,7289	114,55	799,59	0,02213	
24,18	0,7292	115,05	799,68	0,02223	
24,20	0,7296	111,00	799,91	0,02228	
24,22	0,7296	113,08	799,75	0,02215	
24,24	0,7296	116,68	799,61	0,02194	
24,26	0,7301	113,28	799,78	0,02183	
24,28	0,7303	112,93	799,71	0,02183	
24,30	0,7303	117,65	799,55	0,02195	
24,32	0,7304	115,82	799,80	0,02211	
24,34	0,7308	112,40	799,90	0,02218	
24,36	0,7309	115,70	799,64	0,02220	
24,38	0,7310	116,68	799,66	0,02217	
24,40	0,7312	112,38	799,82	0,02205	
24,42	0,7313	114,28	799,64	0,02191	
24,44	0,7315	117,38	799,60	0,02188	
24,46	0,7318	113,25	799,84	0,02199	
24,48	0,7317	112,17	799,78	0,02213	
24,50	0,7317	117,05	799,55	0,02213	
24,52	0,7322	115,44	799,72	0,02212	
24,54	0,7324	112,17	799,84	0,02195	
24,56	0,7323	115,92	799,62	0,02182	
24,58	0,7325	117,07	799,67	0,02190	
24,60	0,7329	113,22	799,87	0,02210	
24,62	0,7330	114,80	799,70	0,02214	
24,64	0,7330	118,46	799,58	0,02212	
24,66	0,7332	115,60	799,81	0,02217	
24,68	0,7335	114,37	799,80	0,02212	
24,70	0,7336	118,21	799,59	0,02195	
24,72	0,7337	117,14	799,74	0,02181	
24,74	0,7339	114,39	799,82	0,02184	
24,76	0,7341	118,43	799,59	0,02193	
24,78	0,7343	119,82	799,69	0,02206	
24,80	0,7345	115,06	799,97	0,02215	
24,82	0,7345	116,03	799,82	0,02216	
24,84	0,7347	120,31	799,63	0,02208	
24,86	0,7351	117,10	799,80	0,02202	
24,88	0,7351	115,13	799,76	0,02201	
24,90	0,7350	119,62	799,56	0,02201	
24,92	0,7354	118,48	799,74	0,02206	
24,94	0,7357	114,40	799,84	0,02214	
24,96	0,7356	117,72	799,62	0,02215	
24,98	0,7357	119,62	799,69	0,02212	
25,00	0,7361	116,47	799,82	0,02203	
25,02	0,7362	118,21	799,62	0,02185	
25,04	0,7363	120,69	799,63	0,02176	
25,06	0,7365	117,31	799,86	0,02182	
25,08	0,7367	117,22	799,73	0,02196	
25,10	0,7369	120,62	799,60	0,02205	
25,12	0,7371	118,34	799,80	0,02209	
25,14	0,7371	116,41	799,77	0,02209	
25,16	0,7370	120,37	799,55	0,02195	
25,18	0,7374	119,39	799,72	0,02184	
25,20	0,7377	114,86	799,90	0,02184	
25,22	0,7377	117,78	799,68	0,02194	
25,24	0,7377	120,06	799,61	0,02202	
25,26	0,7381	115,88	799,84	0,02205	
25,28	0,7383	115,89	799,75	0,02199	
25,30	0,7383	120,24	799,58	0,02186	
25,32	0,7384	118,18	799,77	0,02185	
25,34	0,7386	115,27	799,81	0,02187	
25,36	0,7388	119,21	799,57	0,02189	
25,38	0,7390	120,14	799,70	0,02194	
25,40	0,7392	115,77	799,96	0,02200	
25,42	0,7391	117,43	799,78	0,02203	
25,44	0,7393	121,60	799,61	0,02197	
25,46	0,7397	119,09	799,79	0,02184	
25,48	0,7397	117,92	799,74	0,02179	
25,50	0,7396	121,40	799,56	0,02180	
25,52	0,7399	119,17	799,74	0,02188	
25,54	0,7403	115,71	799,81	0,02200	
25,56	0,7403	118,97	799,58	0,02203	
25,58	0,7404	120,14	799,66	0,02203	
25,60	0,7406	116,46	799,86	0,02193	
25,62	0,7408	118,04	799,68	0,02190	
25,64	0,7410	121,16	799,59	0,02183	
25,66	0,7412	118,25	799,82	0,02178	
25,68	0,7413	117,44	799,78	0,02190	
25,70	0,7414	121,51	799,57	0,02201	
25,72	0,7417	119,95	799,79	0,02200	
25,74	0,7418	116,73	799,92	0,02193	
25,76	0,7417	119,95	799,67	0,02183	
25,78	0,7418	121,26	799,68	0,02172	
25,80	0,7423	117,05	799,86	0,02177	
25,82	0,7424	118,08	799,69	0,02192	
25,84	0,7423	121,78	799,58	0,02206	
25,86	0,7426	118,84	799,89	0,02215	
25,88	0,7430	116,89	799,94	0,02209	
25,90	0,7430	121,37	799,65	0,02196	
25,92	0,7431	121,54	799,69	0,02183	
25,94	0,7433	117,67	799,80	0,02174	
25,96	0,7435	119,73	799,60	0,02174	
25,98	0,7437	121,60	799,65	0,02191	
26,00	0,7439	117,76	799,93	0,02200	
26,02	0,7438	117,84	799,81	0,02194	
26,04	0,7440	121,73	799,60	0,02183	
26,06	0,7444	119,37	799,76	0,02175	
26,08	0,7445	117,22	799,78	0,02176	
26,10	0,7444	121,06	799,56	0,02181	
26,12	0,7446	120,52	799,69	0,02184	
26,14	0,7450	116,88	799,87	0,02192	
26,16	0,7450	119,36	799,67	0,02200	
26,18	0,7451	121,88	799,60	0,02200	
26,20	0,7452	118,69	799,77	0,02186	
26,22	0,7454	119,28	799,65	0,02171	
26,24	0,7456	123,58	799,57	0,02165	
26,26	0,7458	121,00	799,87	0,02174	
26,28	0,7459	117,89	799,91	0,02187	
26,30	0,7457	121,38	799,63	0,02199	
26,32	0,7461	121,40	799,68	0,02201	
26,34	0,7464	117,49	799,85	0,02195	
26,36	0,7464	120,29	799,66	0,02183	
26,38	0,7464	123,47	799,62	0,02175	
26,40	0,7467	119,58	799,86	0,02176	
26,42	0,7469	119,29	799,78	0,02178	
26,44	0,7470	123,55	799,58	0,02176	
26,46	0,7471	121,75	799,75	0,02183	
26,48	0,7473	119,49	799,80	0,02189	
26,50	0,7475	123,79	799,56	0,02197	
26,52	0,7477	124,48	799,68	0,02119	
26,54	0,7479	120,09	799,96	0,01690	
26,56	0,7478	121,28	799,79	0,00694	
26,58	0,7477	125,21	799,61	-0,00876	
26,60	0,7481	122,54	799,79	-0,02394	
26,62	0,7484	121,08	799,78	-0,03261	
26,64	0,7483	125,03	799,56	-0,03441	
26,66	0,7485	123,56	799,76	-0,03234	
26,68	0,7487	119,62	799,97	-0,03100	
26,70	0,7489	122,53	799,74	-0,03089	
26,72	0,7490	125,21	799,63	-0,03110	
26,74	0,7492	121,36	799,82	-0,03107	
26,76	0,7491	121,67	799,73	-0,03058	
26,78	0,7491	125,83	799,56	-0,03006	
26,80	0,7495	123,16	799,77	-0,02971	
26,82	0,7498	120,00	799,85	-0,02950	
26,84	0,7497	123,89	799,60	-0,02933	
26,86	0,7498	124,57	799,66	-0,02906	
26,88	0,7500	120,89	799,87	-0,02866	
26,90	0,7502	122,86	799,70	-0,02811	
26,92	0,7504	126,08	799,58	-0,02785	
26,94	0,7506	122,74	799,84	-0,02782	
26,96	0,7505	121,26	799,83	-0,02773	
26,98	0,7505	125,69	799,58	-0,02765	
27,00	0,7509	124,65	799,72	-0,02775	
27,02	0,7512	121,28	799,88	-0,02794	
27,04	0,7511	124,89	799,66	-0,02811	
27,06	0,7511	126,94	799,61	-0,02832	
27,08	0,7514	122,56	799,84	-0,02839	
27,10	0,7516	122,47	799,75	-0,02854	
27,12	0,7517	126,96	799,57	-0,02892	
27,14	0,7519	124,70	799,77	-0,02944	
27,16	0,7519	122,05	799,82	-0,02969	
27,18	0,7518	125,89	799,58	-0,02980	
27,20	0,7520	125,75	799,68	-0,02996	
27,22	0,7524	121,35	799,85	-0,03007	
27,24	0,7524	123,60	799,66	-0,03015	
27,26	0,7524	126,22	799,59	-0,03009	
27,28	0,7526	122,43	799,81	-0,02980	
27,30	0,7528	122,38	799,73	-0,02945	
27,32	0,7530	127,46	799,57	-0,02919	
27,34	0,7532	125,97	799,83	-0,02895	
27,36	0,7533	122,96	799,94	-0,02853	
27,38	0,7531	126,23	799,66	-0,02809	
27,40	0,7532	127,06	799,64	-0,02795	
27,42	0,7536	122,50	799,80	-0,02787	
27,44	0,7537	124,07	799,65	-0,02781	
27,46	0,7538	126,89	799,60	-0,02773	
27,48	0,7539	123,32	799,82	-0,02761	
27,50	0,7539	122,57	799,73	-0,02756	
27,52	0,7540	126,66	799,55	-0,02786	
27,54	0,7544	125,05	799,76	-0,02838	
27,56	0,7546	122,66	799,86	-0,02865	
27,58	0,7544	126,14	799,62	-0,02874	
27,60	0,7545	126,40	799,67	-0,02907	
27,62	0,7547	122,05	799,83	-0,02940	
27,64	0,7549	123,94	799,64	-0,02958	
27,66	0,7551	127,36	799,58	-0,02982	
27,68	0,7553	123,63	799,83	-0,03014	
27,70	0,7552	122,76	799,79	-0,03035	
27,72	0,7551	127,47	799,56	-0,03037	
27,74	0,7553	125,84	799,75	-0,02997	
27,76	0,7557	122,25	799,89	-0,02921	
27,78	0,7558	125,73	799,64	-0,02867	
27,80	0,7558	127,14	799,61	-0,02838	
27,82	0,7560	121,94	799,84	-0,02804	
27,84	0,7559	121,69	799,75	-0,02777	
27,86	0,7559	125,94	799,57	-0,02777	
27,88	0,7564	124,08	799,78	-0,02791	
27,90	0,7566	121,78	799,84	-0,02786	
27,92	0,7565	125,76	799,60	-0,02762	
27,94	0,7565	125,68	799,68	-0,02760	
27,96	0,7567	121,11	799,89	-0,02781	
27,98	0,7569	122,66	799,71	-0,02811	
28,00	0,7571	125,34	799,59	-0,02848	
28,02	0,7573	121,94	799,78	-0,02888	
28,04	0,7572	120,79	799,73	-0,02917	
28,06	0,7571	124,78	799,55	-0,02934	
28,08	0,7574	123,41	799,75	-0,02960	
28,10	0,7577	120,28	799,87	-0,02964	
28,12	0,7578	123,90	799,63	-0,02963	
28,14	0,7578	125,79	799,62	-0,02990	
28,16	0,7580	121,59	799,79	-0,03014	
28,18	0,7580	122,41	799,65	-0,02971	
28,20	0,7583	125,59	799,56	-0,02897	
28,22	0,7586	122,55	799,80	-0,02868	
28,24	0,7586	120,97	799,78	-0,02833	
28,26	0,7585	124,73	799,56	-0,02785	
28,28	0,7586	123,92	799,72	-0,02758	
28,30	0,7589	120,89	799,88	-0,02749	
28,32	0,7590	124,63	799,65	-0,02730	
28,34	0,7591	126,80	799,59	-0,02712	
28,36	0,7593	121,86	799,86	-0,02719	
28,38	0,7592	121,37	799,82	-0,02754	
28,40	0,7591	125,84	799,57	-0,02798	
28,42	0,7594	124,06	799,71	-0,02813	
28,44	0,7598	120,36	799,86	-0,02823	
28,46	0,7598	123,85	799,64	-0,02849	
28,48	0,7598	125,90	799,62	-0,02893	
28,50	0,7600	121,49	799,86	-0,02928	
28,52	0,7602	121,53	799,76	-0,02920	
28,54	0,7603	125,75	799,56	-0,02911	
28,56	0,7606	123,15	799,79	-0,02917	
28,58	0,7606	119,80	799,91	-0,02909	
28,60	0,7605	123,60	799,66	-0,02875	
28,62	0,7605	124,53	799,67	-0,02839	
28,64	0,7608	120,46	799,84	-0,02820	
28,66	0,7610	122,09	799,66	-0,02776	
28,68	0,7611	125,14	799,57	-0,02736	
28,70	0,7613	121,79	799,88	-0,02716	
28,72	0,7613	119,86	799,92	-0,02707	
28,74	0,7611	124,24	799,64	-0,02705	
28,76	0,7614	124,06	799,68	-0,02720	
28,78	0,7618	120,37	799,80	-0,02743	
28,80	0,7618	122,70	799,59	-0,02773	
28,82	0,7619	124,53	799,61	-0,02813	
28,84	0,7620	120,33	799,89	-0,02832	
28,86	0,7621	119,83	799,80	-0,02835	
28,88	0,7622	123,84	799,57	-0,02821	
28,90	0,7626	121,97	799,77	-0,02820	
28,92	0,7626	119,40	799,88	-0,02832	
28,94	0,7625	123,55	799,63	-0,02835	
28,96	0,7626	124,67	799,64	-0,02836	
28,98	0,7630	120,26	799,86	-0,02838	
29,00	0,7631	121,12	799,73	-0,02830	
29,02	0,7631	124,52	799,57	-0,02830	
29,04	0,7633	121,63	799,81	-0,02838	
29,06	0,7633	119,19	799,89	-0,02848	
29,08	0,7633	123,54	799,61	-0,02847	
29,10	0,7636	124,37	799,66	-0,02856	
29,12	0,7640	119,89	799,92	-0,02860	
29,14	0,7639	121,20	799,78	-0,02842	
29,16	0,7638	125,36	799,60	-0,02828	
29,18	0,7640	122,01	799,86	-0,02835	
29,20	0,7643	118,78	799,94	-0,02848	
29,22	0,7644	123,26	799,66	-0,02855	
29,24	0,7646	124,40	799,67	-0,02869	
29,26	0,7647	119,73	799,84	-0,02880	
29,28	0,7646	121,47	799,66	-0,02864	
29,30	0,7646	124,66	799,63	-0,02854	
29,32	0,7650	121,15	799,92	-0,02856	
29,34	0,7652	120,20	799,87	-0,02855	
29,36	0,7651	124,50	799,62	-0,02864	
29,38	0,7653	122,92	799,73	-0,02881	
29,40	0,7655	119,98	799,76	-0,02879	
29,42	0,7656	123,60	799,56	-0,02865	
29,44	0,7659	123,76	799,72	-0,02868	
29,46	0,7660	119,67	799,93	-0,02870	
29,48	0,7659	121,12	799,72	-0,02860	
29,50	0,7658	124,32	799,60	-0,02869	
29,52	0,7661	121,00	799,83	-0,02884	
29,54	0,7664	120,10	799,80	-0,02890	
29,56	0,7664	124,49	799,56	-0,02889	
29,58	0,7666	122,78	799,73	-0,02885	
29,60	0,7667	118,32	799,91	-0,02874	
29,62	0,7667	121,55	799,69	-0,02868	
29,64	0,7670	124,36	799,65	-0,02874	
29,66	0,7673	120,63	799,89	-0,02886	
29,68	0,7673	121,11	799,79	-0,02891	
29,70	0,7671	125,64	799,59	-0,02891	
29,72	0,7673	123,25	799,83	-0,02891	
29,74	0,7676	119,93	799,92	-0,02882	
29,76	0,7677	123,68	799,65	-0,02873	
29,78	0,7679	124,63	799,66	-0,02881	
29,80	0,7680	120,41	799,84	-0,02891	
29,82	0,7679	121,90	799,68	-0,02898	
29,84	0,7679	124,82	799,59	-0,02909	
29,86	0,7683	121,20	799,84	-0,02910	
29,88	0,7685	120,16	799,81	-0,02895	
29,90	0,7685	124,54	799,60	-0,02890	
29,92	0,7686	122,93	799,83	-0,02894	
29,94	0,7687	119,73	799,96	-0,02899	
29,96	0,7688	123,14	799,69	-0,02910	
29,98	0,7691	125,01	799,68	-0,02922	
30,00	0,7693	120,80	799,86	-0,02924	
30,02	0,7693	121,35	799,70	-0,02914	
30,04	0,7692	124,41	799,58	-0,02900	
30,06	0,7694	120,41	799,86	-0,02905	
30,08	0,7696	118,47	799,88	-0,02918	
30,10	0,7698	123,37	799,63	-0,02929	
30,12	0,7700	122,70	799,71	-0,02941	
30,14	0,7700	119,28	799,78	-0,02931	
30,16	0,7699	122,19	799,57	-0,02922	
30,18	0,7701	123,65	799,70	-0,02921	
30,20	0,7705	120,11	799,97	-0,02918	
30,22	0,7706	120,75	799,81	-0,02916	
30,24	0,7705	123,96	799,60	-0,02934	
30,26	0,7707	121,63	799,77	-0,02960	
30,28	0,7710	120,63	799,75	-0,02958	
30,30	0,7711	124,82	799,54	-0,02939	
30,32	0,7713	123,68	799,76	-0,02937	
30,34	0,7714	119,65	799,98	-0,02940	
30,36	0,7713	122,21	799,74	-0,02936	
30,38	0,7713	125,16	799,61	-0,02945	
30,40	0,7717	121,44	799,84	-0,02962	
30,42	0,7719	120,88	799,79	-0,02961	
30,44	0,7719	125,09	799,58	-0,02952	
30,46	0,7720	123,20	799,77	-0,02954	
30,48	0,7721	119,73	799,90	-0,02951	
30,50	0,7722	122,84	799,66	-0,02939	
30,52	0,7725	124,05	799,68	-0,02946	
30,54	0,7727	120,11	799,87	-0,02955	
30,56	0,7726	121,13	799,69	-0,02963	
30,58	0,7726	124,30	799,60	-0,02970	
30,60	0,7729	120,82	799,89	-0,02973	
30,62	0,7731	119,23	799,88	-0,02962	
30,64	0,7732	123,84	799,62	-0,02955	
30,66	0,7733	122,81	799,74	-0,02960	
30,68	0,7734	119,62	799,85	-0,02967	
30,70	0,7733	122,91	799,62	-0,02966	
30,72	0,7736	124,81	799,66	-0,02983	
30,74	0,7740	120,73	799,91	-0,02992	
30,76	0,7740	121,24	799,76	-0,02976	
30,78	0,7739	125,08	799,60	-0,02972	
30,80	0,7741	122,54	799,82	-0,02982	
30,82	0,7743	120,30	799,81	-0,02993	
30,84	0,7745	124,37	799,58	-0,03001	
30,86	0,7747	123,62	799,76	-0,03013	
30,88	0,7748	119,76	799,93	-0,03006	
30,90	0,7746	122,44	799,70	-0,02989	
30,92	0,7746	124,72	799,63	-0,02981	
30,94	0,7750	120,80	799,80	-0,02993	
30,96	0,7752	121,34	799,67	-0,02997	
30,98	0,7752	124,72	799,56	-0,03007	
31,00	0,7754	121,36	799,86	-0,03017	
31,02	0,7755	118,39	799,93	-0,03013	
31,04	0,7755	122,37	799,64	-0,03003	
31,06	0,7759	122,74	799,69	-0,02999	
31,08	0,7761	118,86	799,89	-0,03008	
31,10	0,7760	121,68	799,71	-0,03020	
31,12	0,7759	125,24	799,59	-0,03032	
31,14	0,7762	121,02	799,85	-0,03041	
31,16	0,7765	119,35	799,86	-0,03043	
31,18	0,7765	124,25	799,61	-0,03030	
31,20	0,7767	123,80	799,71	-0,03028	
31,22	0,7768	120,27	799,85	-0,03028	
31,24	0,7767	123,08	799,63	-0,03017	
31,26	0,7769	124,94	799,64	-0,03020	
31,28	0,7773	120,76	799,91	-0,03033	
31,30	0,7773	120,65	799,80	-0,03036	
31,32	0,7773	124,25	799,62	-0,03042	
31,34	0,7774	122,12	799,77	-0,03042	
31,36	0,7777	120,26	799,73	-0,03027	
31,38	0,7778	124,10	799,56	-0,03022	
31,40	0,7781	122,77	799,80	-0,03037	
31,42	0,7781	119,13	799,94	-0,03051	
31,44	0,7779	122,22	799,67	-0,03063	
31,46	0,7780	124,67	799,64	-0,03075	
31,48	0,7784	120,77	799,90	-0,03072	
31,50	0,7786	121,17	799,79	-0,03050	
31,52	0,7786	125,05	799,60	-0,03042	
31,54	0,7787	122,55	799,74	-0,03050	
31,56	0,7789	120,25	799,71	-0,03056	
31,58	0,7790	124,20	799,54	-0,03064	
31,60	0,7793	123,58	799,78	-0,03080	
31,62	0,7795	119,72	799,95	-0,03083	
31,64	0,7793	122,24	799,70	-0,03072	
31,66	0,7793	124,56	799,67	-0,03061	
31,68	0,7796	120,76	799,90	-0,03056	
31,70	0,7798	121,24	799,78	-0,03061	
31,72	0,7799	125,13	799,60	-0,03083	
31,74	0,7801	122,61	799,78	-0,03101	
31,76	0,7801	120,28	799,79	-0,03093	
31,78	0,7799	124,30	799,57	-0,03081	
31,80	0,7802	123,68	799,73	-0,03079	
31,82	0,7806	119,77	799,87	-0,03069	
31,84	0,7806	122,34	799,63	-0,03064	
31,86	0,7807	124,68	799,62	-0,03085	
31,88	0,7808	120,78	799,88	-0,03104	
31,90	0,7810	121,14	799,79	-0,03102	
31,92	0,7812	125,13	799,59	-0,03097	
31,94	0,7814	122,66	799,78	-0,03100	
31,96	0,7815	119,59	799,85	-0,03094	
31,98	0,7813	123,30	799,61	-0,03084	
32,00	0,7814	123,84	799,67	-0,03096	
32,02	0,7818	120,40	799,85	-0,03110	
32,04	0,7819	122,53	799,66	-0,03115	
32,06	0,7820	125,32	799,61	-0,03119	
32,08	0,7821	121,60	799,89	-0,03116	
32,10	0,7821	120,88	799,84	-0,03108	
32,12	0,7820	124,93	799,62	-0,03102	
32,14	0,7824	123,18	799,74	-0,03110	
32,16	0,7827	120,62	799,74	-0,03114	
32,18	0,7826	124,33	799,56	-0,03119	
32,20	0,7828	123,69	799,77	-0,03127	
32,22	0,7829	119,81	799,93	-0,03119	
32,24	0,7829	122,37	799,69	-0,03097	
32,26	0,7832	124,66	799,65	-0,03097	
32,28	0,7835	120,98	799,82	-0,03112	
32,30	0,7834	122,13	799,66	-0,03120	
32,32	0,7833	125,23	799,59	-0,03134	
32,34	0,7835	122,19	799,87	-0,03152	
32,36	0,7837	120,67	799,86	-0,03129	
32,38	0,7839	124,69	799,63	-0,03104	
32,40	0,7841	123,76	799,75	-0,03103	
32,42	0,7842	120,44	799,83	-0,03105	
32,44	0,7840	123,75	799,60	-0,03119	
32,46	0,7842	124,69	799,69	-0,03150	
32,48	0,7846	120,54	799,95	-0,03163	
32,50	0,7847	121,88	799,78	-0,03155	
32,52	0,7847	125,32	799,60	-0,03145	
32,54	0,7848	122,35	799,80	-0,03138	
32,56	0,7849	120,65	799,78	-0,03130	
32,58	0,7851	124,63	799,57	-0,03137	
32,60	0,7854	123,73	799,78	-0,03159	
32,62	0,7855	119,70	799,97	-0,03166	
32,64	0,7853	122,13	799,73	-0,03149	
32,66	0,7853	124,61	799,64	-0,03146	
32,68	0,7852	120,84	799,82	-0,03145	
32,70	0,7288	121,18	799,70	-0,03139	
32,72	0,5955	124,94	799,57	-0,03138	
32,74	0,5100	122,46	799,79	-0,03151	
32,76	0,4884	120,05	799,79	-0,03155	
32,78	0,4890	124,08	799,57	-0,03160	
32,80	0,4907	123,57	799,74	-0,03173	
32,82	0,4911	120,13	799,90	-0,03167	
32,84	0,4910	122,91	799,68	-0,03152	
32,86	0,4911	124,95	799,64	-0,03155	
32,88	0,4912	120,81	799,86	-0,03170	
32,90	0,4911	120,97	799,74	-0,03177	
32,92	0,4910	124,96	799,56	-0,03180	
32,94	0,4914	122,74	799,80	-0,03188	
32,96	0,4917	120,97	799,89	-0,03191	
32,98	0,4918	126,31	799,63	-0,03194	
33,00	0,4921	128,81	799,67	-0,03214	
33,02	0,4929	128,81	799,86	-0,03258	
33,04	0,4939	138,31	799,68	-0,03320	
33,06	0,4952	152,54	799,63	-0,03397	
33,08	0,4969	162,76	799,88	-0,03470	
33,10	0,4989	178,48	799,81	-0,03530	
33,12	0,5013	202,04	799,60	-0,03614	
33,14	0,5044	222,88	799,74	-0,03725	
33,16	0,5079	245,09	799,74	-0,03840	
33,18	0,5115	275,72	799,56	-0,03986	
33,20	0,5158	304,77	799,77	-0,04160	
33,22	0,5204	332,07	799,93	-0,04336	
33,24	0,5251	366,14	799,69	-0,04521	
33,26	0,5304	401,52	799,64	-0,04735	
33,28	0,5363	431,93	799,81	-0,04965	
33,30	0,5422	467,02	799,66	-0,05206	
33,32	0,5488	504,37	799,60	-0,05486	
33,34	0,5559	534,47	799,86	-0,05804	
33,36	0,5632	564,84	799,81	-0,06137	
33,38	0,5707	599,37	799,59	-0,06494	
33,40	0,5790	626,83	799,77	-0,06865	
33,42	0,5877	650,98	799,86	-0,07246	
33,44	0,5964	679,41	799,62	-0,07664	
33,46	0,6058	702,51	799,67	-0,08125	
33,48	0,6156	719,26	799,88	-0,08609	
33,50	0,6256	740,79	799,70	-0,09116	
33,52	0,6360	761,56	799,62	-0,09644	
33,54	0,6472	773,19	799,87	-0,1018	
33,56	0,6586	786,71	799,79	-0,1073	
33,58	0,6701	803,82	799,58	-0,1133	
33,60	0,6824	812,88	799,84	-0,1196	
33,62	0,6950	819,86	800,00	-0,1261	
33,64	0,7078	833,56	799,72	-0,1330	
33,66	0,7212	843,25	799,68	-0,1401	
33,68	0,7350	846,60	799,87	-0,1473	
33,70	0,7490	855,16	799,72	-0,1547	
33,72	0,7635	864,93	799,63	-0,1624	
33,74	0,7785	866,92	799,89	-0,1704	
33,76	0,7939	870,05	799,89	-0,1787	
33,78	0,8094	879,47	799,62	-0,1873	
33,80	0,8256	883,79	799,74	-0,1961	
33,82	0,8422	884,75	799,91	-0,2051	
33,84	0,8591	891,70	799,69	-0,2142	
33,86	0,8764	897,06	799,64	-0,2236	
33,88	0,8942	895,84	799,88	-0,2331	
33,90	0,9123	898,56	799,79	-0,2430	
33,92	0,9308	905,86	799,60	-0,2532	
33,94	0,9498	906,83	799,87	-0,2634	
33,96	0,9691	906,96	799,96	-0,2735	
33,98	0,9886	914,03	799,67	-0,2835	
34,00	1,009	916,81	799,73	-0,2936	
34,02	1,029	913,58	799,97	-0,3037	
34,04	1,048	916,88	799,75	-0,3139	
34,06	1,068	921,28	799,64	-0,3234	
34,08	1,089	917,77	799,93	-0,3325	
34,10	1,109	917,33	799,89	-0,3421	
34,12	1,128	922,31	799,64	-0,3521	
34,14	1,148	920,85	799,85	-0,3620	
34,16	1,169	918,43	799,93	-0,3718	
34,18	1,189	923,30	799,65	-0,3818	
34,20	1,209	923,52	799,74	-0,3918	
34,22	1,229	919,16	799,91	-0,4018	
34,24	1,248	921,77	799,66	-0,4117	
34,26	1,269	924,34	799,69	-0,4216	
34,28	1,289	920,28	800,01	-0,4317	
34,30	1,308	921,05	799,86	-0,4424	
34,32	1,328	925,33	799,67	-0,4530	
34,34	1,349	922,55	799,93	-0,4630	
34,36	1,369	920,79	799,93	-0,4727	
34,38	1,388	925,73	799,63	-0,4825	
34,40	1,408	924,59	799,82	-0,4922	
34,42	1,429	920,01	800,00	-0,5016	
34,44	1,448	923,08	799,73	-0,5112	
34,46	1,469	924,45	799,72	-0,5210	
34,48	1,488	919,89	799,96	-0,5306	
34,50	1,508	921,45	799,77	-0,5403	
34,52	1,528	925,53	799,66	-0,5501	
34,54	1,549	921,58	800,00	-0,5596	
34,56	1,569	919,52	799,98	-0,5690	
34,58	1,588	924,19	799,68	-0,5784	
34,60	1,608	922,80	799,89	-0,5878	
34,62	1,629	919,64	800,01	-0,5973	
34,64	1,649	923,86	799,71	-0,6069	
34,66	1,669	924,91	799,80	-0,6165	
34,68	1,689	920,07	800,01	-0,6258	
34,70	1,708	920,99	799,76	-0,6351	
34,72	1,728	923,39	799,71	-0,6445	
34,74	1,749	919,68	800,06	-0,6539	
34,76	1,768	919,78	799,98	-0,6632	
34,78	1,788	924,60	799,70	-0,6726	
34,80	1,808	922,65	799,89	-0,6821	
34,82	1,829	919,53	799,96	-0,6913	
34,84	1,849	923,10	799,68	-0,7006	
34,86	1,869	922,74	799,75	-0,7098	
34,88	1,888	918,33	799,87	-0,7190	
34,90	1,908	920,27	799,64	-0,7283	
34,92	1,928	922,31	799,72	-0,7376	
34,94	1,948	919,02	800,01	-0,7468	
34,96	1,968	919,84	799,84	-0,7560	
34,98	1,988	923,45	799,66	-0,7651	
35,00	2,008	921,22	799,86	-0,7741	
35,02	2,029	921,05	799,82	-0,7832	
35,04	2,048	925,70	799,61	-0,7924	
35,06	2,068	923,95	799,86	-0,8016	
35,08	2,088	919,69	800,00	-0,8106	
35,10	2,108	923,21	799,70	-0,8198	
35,12	2,129	925,46	799,69	-0,8290	
35,14	2,149	921,23	799,98	-0,8379	
35,16	2,168	922,25	799,84	-0,8468	
35,18	2,188	926,52	799,63	-0,8558	
35,20	2,209	923,10	799,88	-0,8649	
35,22	2,228	920,59	799,95	-0,8739	
35,24	2,248	925,73	799,66	-0,8830	
35,26	2,268	926,20	799,78	-0,8920	
35,28	2,289	922,25	800,05	-0,9008	
35,30	2,309	924,79	799,82	-0,9095	
35,32	2,329	928,46	799,68	-0,9185	
35,34	2,349	924,50	800,04	-0,9275	
35,36	2,368	923,58	800,08	-0,9365	
35,38	2,388	928,91	799,74	-0,9454	
35,40	2,409	928,18	799,83	-0,9543	
35,42	2,429	924,00	800,03	-0,9629	
35,44	2,448	926,84	799,78	-0,9716	
35,46	2,468	929,52	799,74	-0,9805	
35,48	2,489	924,83	800,13	-0,9893	
35,50	2,509	923,64	800,12	-0,9981	
35,52	2,528	929,05	799,74	-1,007	
35,54	2,548	928,93	799,90	-1,016	
35,56	2,569	925,10	800,21	-1,024	
35,58	2,589	928,15	799,98	-1,033	
35,60	2,609	931,69	799,71	-1,042	
35,62	2,629	927,50	800,05	-1,051	
35,64	2,649	925,42	800,18	-1,059	
35,66	2,668	930,60	799,81	-1,068	
35,68	2,689	931,68	799,79	-1,077	
35,70	2,709	927,35	800,12	-1,085	
35,72	2,728	929,13	800,01	-1,094	
35,74	2,748	933,70	799,68	-1,102	
35,76	2,769	930,43	799,86	-1,111	
35,78	2,789	926,88	800,03	-1,120	
35,80	2,809	931,95	799,75	-1,128	
35,82	2,829	933,67	799,76	-1,137	
35,84	2,849	928,59	800,05	-1,146	
35,86	2,869	929,76	799,91	-1,154	
35,88	2,888	934,42	799,68	-1,163	
35,90	2,908	931,50	799,93	-1,171	
35,92	2,928	928,64	799,99	-1,180	
35,94	2,948	932,96	799,71	-1,188	
35,96	2,969	933,05	799,83	-1,197	
35,98	2,989	929,14	800,05	-1,205	
36,00	3,008	932,32	799,81	-1,214	
36,02	3,028	935,79	799,74	-1,222	
36,04	3,049	931,59	800,08	-1,231	
36,06	3,069	930,50	800,03	-1,239	
36,08	3,089	935,70	799,71	-1,248	
36,10	3,109	934,97	799,91	-1,256	
36,12	3,129	931,95	800,15	-1,265	
36,14	3,149	935,50	799,87	-1,273	
36,16	3,169	937,50	799,68	-1,282	
36,18	3,189	933,19	799,87	-1,290	
36,20	3,208	933,18	799,81	-1,298	
36,22	3,228	937,42	799,61	-1,307	
36,24	3,249	935,38	799,87	-1,315	
36,26	3,269	931,95	800,01	-1,324	
36,28	3,289	935,61	799,72	-1,332	
36,30	3,308	937,28	799,71	-1,340	
36,32	3,329	933,59	799,99	-1,349	
36,34	3,349	935,13	799,87	-1,357	
36,36	3,368	939,24	799,66	-1,366	
36,38	3,388	936,15	799,92	-1,374	
36,40	3,409	933,88	799,99	-1,382	
36,42	3,428	939,10	799,70	-1,391	
36,44	3,449	939,70	799,82	-1,399	
36,46	3,469	934,70	800,11	-1,407	
36,48	3,489	936,20	799,91	-1,415	
36,50	3,508	939,91	799,71	-1,424	
36,52	3,529	936,57	800,03	-1,432	
36,54	3,549	934,78	800,11	-1,440	
36,56	3,569	939,32	799,75	-1,448	
36,58	3,588	939,19	799,73	-1,457	
36,60	3,609	934,73	799,93	-1,465	
36,62	3,629	937,10	799,75	-1,473	
36,64	3,649	940,50	799,68	-1,481	
36,66	3,669	936,82	800,02	-1,490	
36,68	3,689	935,36	800,01	-1,498	
36,70	3,708	940,04	799,69	-1,506	
36,72	3,729	939,21	799,85	-1,514	
36,74	3,749	935,67	800,09	-1,522	
36,76	3,769	938,98	799,83	-1,530	
36,78	3,788	942,12	799,72	-1,539	
36,80	3,809	937,96	800,12	-1,547	
36,82	3,829	936,78	800,18	-1,555	
36,84	3,849	941,65	799,78	-1,563	
36,86	3,868	941,51	799,84	-1,571	
36,88	3,889	935,81	800,30	-1,580	
36,90	3,909	936,65	800,22	-1,588	
36,92	3,929	941,12	799,77	-1,596	
36,94	3,949	939,03	800,00	-1,604	
36,96	3,969	934,26	800,49	-1,612	
36,98	3,989	936,88	800,37	-1,620	
37,00	4,009	941,30	799,84	-1,628	
37,02	4,029	939,79	799,98	-1,636	
37,04	4,049	935,19	800,54	-1,644	
37,06	4,069	937,03	800,52	-1,652	
37,08	4,089	940,74	799,97	-1,660	
37,10	4,109	940,70	799,85	-1,668	
37,12	4,129	936,35	800,45	-1,676	
37,14	4,149	937,06	800,63	-1,684	
37,16	4,169	940,13	800,16	-1,692	
37,18	4,189	940,60	799,79	-1,701	
37,20	4,209	935,89	800,33	-1,709	
37,22	4,229	935,71	800,75	-1,717	
37,24	4,249	939,28	800,44	-1,725	
37,26	4,268	941,56	799,83	-1,733	
37,28	4,289	938,68	800,04	-1,741	
37,30	4,309	935,77	800,83	-1,749	
37,32	4,329	937,28	800,95	-1,756	
37,34	4,348	938,51	800,41	-1,765	
37,36	4,368	939,20	799,79	-1,773	
37,38	4,389	938,48	800,08	-1,781	
37,40	4,409	937,72	800,68	-1,788	
37,42	4,429	937,77	800,59	-1,796	
37,44	4,448	938,52	799,98	-1,804	
37,46	4,468	938,01	799,85	-1,812	
37,48	4,489	934,86	800,54	-1,820	
37,50	4,509	935,34	800,83	-1,828	
37,52	4,528	937,30	800,40	-1,836	
37,54	4,548	938,97	799,81	-1,844	
37,56	4,569	937,15	800,13	-1,852	
37,58	4,589	935,45	800,80	-1,860	
37,60	4,609	936,70	800,77	-1,868	
37,62	4,628	938,22	800,17	-1,876	
37,64	4,648	938,81	799,79	-1,884	
37,66	4,669	936,06	800,27	-1,892	
37,68	4,689	935,96	800,61	-1,900	
37,70	4,709	937,57	800,25	-1,907	
37,72	4,728	938,87	799,78	-1,915	
37,74	4,748	935,72	800,12	-1,923	
37,76	4,769	934,90	800,54	-1,931	
37,78	4,789	937,97	800,29	-1,939	
37,80	4,808	939,71	799,81	-1,947	
37,82	4,828	936,02	800,11	-1,955	
37,84	4,849	932,75	800,58	-1,962	
37,86	4,869	935,67	800,40	-1,970	
37,88	4,889	938,84	799,84	-1,978	
37,90	4,909	937,21	799,94	-1,986	
37,92	4,929	933,53	800,47	-1,994	
37,94	4,949	935,48	800,44	-2,002	
37,96	4,968	938,52	799,90	-2,009	
37,98	4,988	937,23	799,87	-2,017	
38,00	5,008	932,35	800,41	-2,025	
38,02	5,028	933,32	800,48	-2,033	
38,04	5,048	937,11	799,96	-2,040	
38,06	5,069	937,99	799,84	-2,048	
38,08	5,089	933,54	800,55	-2,056	
38,10	5,109	933,34	800,85	-2,064	
38,12	5,128	936,39	800,40	-2,071	
38,14	5,148	938,63	799,83	-2,079	
38,16	5,169	935,76	800,07	-2,087	
38,18	5,188	934,32	800,51	-2,095	
38,20	5,208	935,90	800,32	-2,102	
38,22	5,228	936,76	799,79	-2,110	
38,24	5,249	934,08	799,97	-2,118	
38,26	5,269	930,94	800,49	-2,126	
38,28	5,289	933,40	800,40	-2,133	
38,30	5,308	936,37	799,87	-2,141	
38,32	5,328	934,28	800,02	-2,149	
38,34	5,349	930,16	800,70	-2,156	
38,36	5,369	932,46	800,75	-2,164	
38,38	5,389	935,50	800,18	-2,172	
38,40	5,408	935,97	799,79	-2,180	
38,42	5,429	932,34	800,33	-2,187	
38,44	5,449	931,71	800,74	-2,195	
38,46	5,468	933,56	800,43	-2,202	
38,48	5,488	935,48	799,83	-2,210	
38,50	5,508	933,48	800,05	-2,218	
38,52	5,529	930,71	800,74	-2,225	
38,54	5,549	932,34	800,78	-2,233	
38,56	5,569	933,95	800,21	-2,241	
38,58	5,588	933,35	799,82	-2,248	
38,60	5,609	929,56	800,49	-2,256	
38,62	5,629	929,09	801,07	-2,263	
38,64	5,649	930,59	800,84	-2,271	
38,66	5,668	931,70	800,14	-2,278	
38,68	5,688	932,22	799,81	-2,286	
38,70	5,709	930,63	800,51	-2,294	
38,72	5,729	930,38	800,99	-2,301	
38,74	5,749	931,12	800,68	-2,309	
38,76	5,768	932,03	800,00	-2,316	
38,78	5,788	931,21	799,93	-2,324	
38,80	5,809	929,01	800,68	-2,332	
38,82	5,829	929,69	800,96	-2,339	
38,84	5,849	929,90	800,50	-2,347	
38,86	5,868	929,66	799,86	-2,354	
38,88	5,888	927,72	800,16	-2,362	
38,90	5,909	926,12	800,93	-2,369	
38,92	5,928	926,96	800,99	-2,376	
38,94	5,948	928,01	800,41	-2,384	
38,96	5,968	928,96	799,82	-2,391	
38,98	5,988	927,67	800,26	-2,399	
39,00	6,009	927,09	800,96	-2,406	
39,02	6,029	927,65	800,88	-2,414	
39,04	6,048	928,23	800,23	-2,421	
39,06	6,068	928,68	799,79	-2,429	
39,08	6,089	925,93	800,40	-2,436	
39,10	6,109	925,72	800,96	-2,443	
39,12	6,128	926,73	800,72	-2,451	
39,14	6,148	926,53	800,03	-2,458	
39,16	6,168	925,23	799,92	-2,466	
39,18	6,189	923,15	800,68	-2,473	
39,20	6,209	924,15	800,99	-2,481	
39,22	6,228	925,18	800,54	-2,488	
39,24	6,248	925,82	799,86	-2,495	
39,26	6,268	924,52	799,97	-2,503	
39,28	6,289	922,93	800,73	-2,510	
39,30	6,309	923,72	800,89	-2,518	
39,32	6,328	924,78	800,37	-2,525	
39,34	6,348	925,64	799,81	-2,532	
39,36	6,368	923,27	800,24	-2,540	
39,38	6,389	922,41	800,90	-2,547	
39,40	6,409	923,86	800,79	-2,554	
39,42	6,428	925,09	800,15	-2,561	
39,44	6,448	925,11	799,81	-2,569	
39,46	6,469	921,40	800,53	-2,576	
39,48	6,489	920,06	801,08	-2,583	
39,50	6,509	920,84	800,81	-2,590	
39,52	6,528	921,78	800,10	-2,598	
39,54	6,548	922,42	799,82	-2,605	
39,56	6,569	921,36	800,57	-2,612	
39,58	6,589	921,00	801,06	-2,620	
39,60	6,608	921,33	800,73	-2,627	
39,62	6,628	922,02	800,01	-2,634	
39,64	6,648	921,72	799,90	-2,641	
39,66	6,669	919,25	800,74	-2,649	
39,68	6,689	918,07	801,13	-2,656	
39,70	6,709	918,05	800,71	-2,663	
39,72	6,728	918,76	800,00	-2,670	
39,74	6,748	918,26	800,01	-2,677	
39,76	6,769	917,10	800,70	-2,685	
39,78	6,789	917,45	800,85	-2,692	
39,80	6,808	918,07	800,32	-2,699	
39,82	6,828	918,85	799,79	-2,706	
39,84	6,849	916,48	800,31	-2,713	
39,86	6,869	915,71	800,98	-2,720	
39,88	6,889	917,13	800,86	-2,727	
39,90	6,908	917,79	800,20	-2,734	
39,92	6,928	916,98	799,82	-2,742	
39,94	6,949	914,34	800,50	-2,749	
39,96	6,969	913,69	801,03	-2,756	
39,98	6,989	914,36	800,75	-2,763	
40,00	7,008	915,19	800,04	-2,770	
40,02	7,028	915,10	799,90	-2,777	
40,04	7,049	913,15	800,82	-2,784	
40,06	7,069	913,23	801,34	-2,791	
40,08	7,088	913,14	800,99	-2,798	
40,10	7,108	912,38	800,25	-2,805	
40,12	7,128	912,87	799,81	-2,812	
40,14	7,149	912,89	800,32	-2,819	
40,16	7,169	912,10	800,74	-2,826	
40,18	7,189	911,57	800,43	-2,833	
40,20	7,208	912,26	799,83	-2,840	
40,22	7,228	910,05	800,25	-2,847	
40,24	7,249	907,20	801,24	-2,854	
40,26	7,269	908,70	801,42	-2,861	
40,28	7,288	909,58	800,85	-2,868	
40,30	7,308	909,24	800,07	-2,875	
40,32	7,328	910,10	799,91	-2,882	
40,34	7,349	910,11	800,65	-2,889	
40,36	7,369	908,88	800,99	-2,896	
40,38	7,388	908,15	800,56	-2,902	
40,40	7,408	908,76	799,89	-2,909	
40,42	7,428	907,24	800,09	-2,916	
40,44	7,449	905,33	800,90	-2,923	
40,46	7,468	906,41	801,05	-2,930	
40,48	7,488	907,63	800,49	-2,937	
40,50	7,508	907,63	799,84	-2,944	
40,52	7,528	905,75	800,20	-2,950	
40,54	7,548	904,33	801,03	-2,957	
40,56	7,568	904,32	801,11	-2,964	
40,58	7,588	904,59	800,51	-2,971	
40,60	7,608	905,36	799,85	-2,978	
40,62	7,629	904,26	800,15	-2,984	
40,64	7,649	903,52	800,86	-2,991	
40,66	7,669	902,82	800,87	-2,998	
40,68	7,688	901,92	800,25	-3,005	
40,70	7,708	901,80	799,84	-3,011	
40,72	7,728	899,00	800,60	-3,018	
40,74	7,748	898,80	801,29	-3,025	
40,76	7,768	900,32	801,10	-3,032	
40,78	7,788	900,67	800,39	-3,038	
40,80	7,808	900,26	799,79	-3,045	
40,82	7,829	899,74	800,30	-3,051	
40,84	7,848	898,65	801,08	-3,058	
40,86	7,868	897,99	801,05	-3,065	
40,88	7,888	897,84	800,40	-3,071	
40,90	7,908	898,64	799,80	-3,078	
40,92	7,928	897,53	800,34	-3,084	
40,94	7,948	895,40	801,16	-3,091	
40,96	7,968	894,48	801,14	-3,097	
40,98	7,988	894,47	800,50	-3,104	
41,00	8,008	895,42	799,85	-3,111	
41,02	8,028	895,55	800,23	-3,117	
41,04	8,048	894,74	801,04	-3,124	
41,06	8,068	894,40	801,08	-3,130	
41,08	8,088	894,33	800,47	-3,137	
41,10	8,108	894,13	799,83	-3,143	
41,12	8,128	892,22	800,29	-3,150	
41,14	8,148	890,87	801,14	-3,156	
41,16	8,168	890,96	801,19	-3,163	
41,18	8,189	891,30	800,57	-3,169	
41,20	8,208	892,08	799,86	-3,175	
41,22	8,228	891,70	800,11	-3,182	
41,24	8,248	890,86	800,98	-3,188	
41,26	8,269	890,84	801,14	-3,195	
41,28	8,289	890,03	800,58	-3,201	
41,30	8,309	889,38	799,86	-3,207	
41,32	8,328	888,49	800,07	-3,213	
41,34	8,348	887,48	801,03	-3,220	
41,36	8,369	887,47	801,29	-3,226	
41,38	8,389	887,63	800,77	-3,232	
41,40	8,408	887,09	800,01	-3,239	
41,42	8,428	886,68	799,96	-3,245	
41,44	8,448	885,79	800,90	-3,251	
41,46	8,469	884,82	801,33	-3,258	
41,48	8,489	884,45	800,91	-3,264	
41,50	8,508	884,80	800,14	-3,270	
41,52	8,528	885,19	799,90	-3,276	
41,54	8,548	884,17	800,65	-3,282	
41,56	8,569	882,81	801,08	-3,289	
41,58	8,589	881,67	800,71	-3,295	
41,60	8,608	881,65	799,99	-3,301	
41,62	8,628	881,32	799,98	-3,307	
41,64	8,648	880,00	800,97	-3,313	
41,66	8,669	880,23	801,42	-3,319	
41,68	8,688	880,76	800,98	-3,325	
41,70	8,708	880,11	800,20	-3,331	
41,72	8,728	880,14	799,84	-3,337	
41,74	8,748	879,97	800,56	-3,343	
41,76	8,769	878,78	801,09	-3,349	
41,78	8,789	877,94	800,78	-3,355	
41,80	8,808	878,20	800,07	-3,361	
41,82	8,828	877,96	799,92	-3,367	
41,84	8,848	876,03	800,73	-3,373	
41,86	8,869	876,23	801,12	-3,379	
41,88	8,888	876,23	800,69	-3,385	
41,90	8,908	875,83	799,96	-3,391	
41,92	8,928	874,18	800,05	-3,397	
41,94	8,949	872,36	800,96	-3,403	
41,96	8,969	873,09	801,25	-3,409	
41,98	8,988	873,64	800,75	-3,414	
42,00	9,008	873,07	799,98	-3,420	
42,02	9,028	872,04	799,99	-3,426	
42,04	9,049	870,76	800,89	-3,432	
42,06	9,068	870,64	801,23	-3,438	
42,08	9,088	870,47	800,75	-3,444	
42,10	9,108	869,67	800,00	-3,449	
42,12	9,128	868,52	800,06	-3,455	
42,14	9,148	867,24	800,97	-3,461	
42,16	9,168	867,18	801,27	-3,466	
42,18	9,188	866,98	800,77	-3,472	
42,20	9,208	866,16	800,00	-3,477	
42,22	9,228	865,58	800,03	-3,483	
42,24	9,249	864,75	801,02	-3,489	
42,26	9,269	864,33	801,41	-3,495	
42,28	9,288	863,86	800,95	-3,500	
42,30	9,308	862,71	800,16	-3,506	
42,32	9,328	862,81	799,85	-3,511	
42,34	9,348	862,31	800,58	-3,517	
42,36	9,368	861,32	801,04	-3,522	
42,38	9,388	860,86	800,68	-3,528	
42,40	9,408	861,40	799,96	-3,533	
42,42	9,428	860,15	800,11	-3,539	
42,44	9,448	856,99	801,24	-3,544	
42,46	9,468	856,51	801,69	-3,550	
42,48	9,488	856,66	801,23	-3,555	
42,50	9,508	855,62	800,43	-3,560	
42,52	9,528	856,34	799,86	-3,566	
42,54	9,548	857,29	800,40	-3,571	
42,56	9,568	855,93	801,07	-3,576	
42,58	9,588	854,58	800,92	-3,582	
42,60	9,608	854,40	800,22	-3,587	
42,62	9,628	854,46	799,87	-3,592	
42,64	9,648	851,49	800,76	-3,597	
42,66	9,668	850,14	801,47	-3,603	
42,68	9,688	850,51	801,22	-3,608	
42,70	9,708	849,96	800,47	-3,613	
42,72	9,728	849,44	799,89	-3,618	
42,74	9,748	848,59	800,50	-3,623	
42,76	9,768	847,89	801,29	-3,628	
42,78	9,788	847,73	801,22	-3,633	
42,80	9,808	847,27	800,56	-3,638	
42,82	9,828	846,58	799,86	-3,643	
42,84	9,848	846,40	800,11	-3,648	
42,86	9,868	845,22	800,99	-3,654	
42,88	9,888	844,41	801,16	-3,658	
42,90	9,908	844,19	800,60	-3,663	
42,92	9,928	843,20	799,87	-3,666	
42,94	9,948	836,87	800,10	-3,667	
42,96	9,967	822,79	801,23	-3,668	
42,98	9,980	801,73	801,65	-3,668	
43,00	9,986	774,76	801,20	-3,668	
43,02	9,989	744,01	800,43	-3,668	
43,04	9,990	716,21	799,82	-3,668	
43,06	9,991	692,25	800,25	-3,668	
43,08	9,991	668,53	800,95	-3,668	
43,10	9,992	647,85	800,90	-3,668	
43,12	9,992	630,25	800,32	-3,668	
43,14	9,992	615,46	799,76	-3,668	
43,16	9,992	600,89	800,25	-3,668	
43,18	9,992	586,70	801,13	-3,668	
43,20	9,992	573,93	801,19	-3,668	
43,22	9,992	562,74	800,58	-3,668	
43,24	9,992	553,10	799,88	-3,668	
43,26	9,992	543,44	800,05	-3,668	
43,28	9,992	533,25	800,81	-3,668	
43,30	9,992	523,90	800,92	-3,668	
43,32	9,992	516,07	800,36	-3,668	
43,34	9,992	509,87	799,79	-3,668	
43,36	9,992	501,48	800,42	-3,668	
43,38	9,992	492,67	801,45	-3,668	
43,40	9,992	485,39	801,56	-3,668	
43,42	9,992	478,30	800,95	-3,668	
43,44	9,992	470,56	800,17	-3,668	
43,46	9,992	466,73	799,85	-3,668	
43,48	9,992	462,99	800,61	-3,668	
43,50	9,992	457,90	801,15	-3,668	
43,52	9,992	455,19	800,87	-3,668	
43,54	9,992	454,83	800,16	-3,668	
43,56	9,992	455,49	799,82	-3,668	
43,58	9,992	454,63	800,65	-3,668	
43,60	9,992	454,27	801,34	-3,668	
43,62	9,992	454,54	801,13	-3,668	
43,64	9,992	454,80	800,43	-3,668	
43,66	9,992	455,57	799,81	-3,668	
43,68	9,992	455,03	800,26	-3,668	
43,70	9,992	454,43	801,10	-3,668	
43,72	9,992	454,63	801,14	-3,668	
43,74	9,992	454,84	800,53	-3,668	
43,76	9,992	455,51	799,85	-3,668	
43,78	9,992	455,07	800,17	-3,668	
43,80	9,992	454,31	801,09	-3,668	
43,82	9,992	454,43	801,27	-3,668	
43,84	9,992	454,78	800,71	-3,668	
43,86	9,992	455,45	799,98	-3,668	
43,88	9,992	455,41	800,00	-3,668	
43,90	9,992	454,52	800,84	-3,668	
43,92	9,992	454,46	801,13	-3,668	
43,94	9,992	454,75	800,65	-3,668	
43,96	9,992	455,46	799,94	-3,668	
43,98	9,992	442,21	800,03	-3,668	
44,00	9,992	399,39	800,82	-3,668	
44,02	9,992	366,93	800,99	-3,668	
44,04	9,992	355,87	800,44	-3,668	
44,06	9,991	353,74	799,82	-3,668	
44,08	9,992	350,15	800,35	-3,668	
44,10	9,992	345,70	801,32	-3,668	
44,12	9,992	342,71	801,42	-3,668	
44,14	9,992	339,98	800,81	-3,668	
44,16	9,992	337,34	800,04	-3,668	
44,18	9,992	335,58	799,98	-3,668	
44,20	9,992	332,78	800,87	-3,668	
44,22	9,992	329,34	801,26	-3,668	
44,24	9,992	327,06	800,81	-3,668	
44,26	9,992	325,63	800,04	-3,668	
44,28	9,992	323,52	800,02	-3,668	
44,30	9,992	319,80	800,99	-3,668	
44,32	9,992	317,03	801,41	-3,668	
44,34	9,992	314,52	800,95	-3,668	
44,36	9,992	312,19	800,16	-3,668	
44,38	9,991	311,01	799,87	-3,668	
44,40	9,992	308,58	800,79	-3,668	
44,42	9,992	305,45	801,49	-3,668	
44,44	9,992	303,43	801,25	-3,668	
44,46	9,992	301,60	800,54	-3,668	
44,48	9,992	300,39	799,86	-3,668	
44,50	9,992	300,74	800,16	-3,668	
44,52	9,992	299,22	801,02	-3,668	
44,54	9,992	297,41	801,18	-3,668	
44,56	9,992	295,74	800,64	-3,668	
44,58	9,992	294,87	799,93	-3,668	
44,60	9,992	294,14	800,04	-3,668	
44,62	9,992	292,69	800,95	-3,668	
44,64	9,992	291,08	801,25	-3,668	
44,66	9,992	289,16	800,76	-3,668	
44,68	9,992	287,50	800,01	-3,668	
44,70	9,992	285,70	799,94	-3,668	
44,72	9,992	284,56	800,72	-3,668	
44,74	9,992	284,35	800,98	-3,668	
44,76	9,992	283,47	800,48	-3,668	
44,78	9,992	281,66	799,70	-3,668	
44,80	9,992	281,10	798,91	-3,668	
44,82	9,992	284,41	798,15	-3,668	
44,84	9,992	288,87	797,39	-3,667	
44,86	9,992	293,53	796,62	-3,667	
44,88	9,992	298,38	795,84	-3,667	
44,90	9,992	303,50	795,06	-3,667	
44,92	9,992	308,51	794,27	-3,667	
44,94	9,992	313,24	793,49	-3,667	
44,96	9,992	317,43	792,73	-3,667	
44,98	9,992	321,49	791,95	-3,667	
45,00	9,992	326,31	791,17	-3,667	
45,02	9,992	331,08	790,39	-3,666	
45,04	9,992	335,64	789,62	-3,666	
45,06	9,992	340,13	788,87	-3,666	
45,08	9,992	344,58	788,14	-3,666	
45,10	9,992	349,03	787,40	-3,666	
45,12	9,992	353,59	786,67	-3,666	
45,14	9,992	358,04	785,94	-3,666	
45,16	9,992	362,33	785,19	-3,666	
45,18	9,992	366,08	784,45	-3,666	
45,20	9,992	369,59	783,71	-3,666	
45,22	9,992	373,63	782,98	-3,666	
45,24	9,992	377,70	782,25	-3,666	
45,26	9,992	381,39	781,53	-3,666	
45,28	9,992	384,76	780,81	-3,665	
45,30	9,992	388,10	780,08	-3,665	
45,32	9,992	391,47	779,34	-3,665	
45,34	9,992	394,83	778,59	-3,665	
45,36	9,992	398,58	777,85	-3,665	
45,38	9,992	402,72	777,11	-3,665	
45,40	9,992	406,50	776,39	-3,665	
45,42	9,992	409,93	775,68	-3,665	
45,44	9,992	413,28	774,97	-3,665	
45,46	9,992	416,63	774,27	-3,665	
45,48	9,992	419,98	773,57	-3,664	
45,50	9,992	423,33	772,84	-3,664	
45,52	9,992	426,67	772,11	-3,664	
45,54	9,992	429,66	771,39	-3,664	
45,56	9,992	432,30	770,68	-3,664	
45,58	9,992	435,22	769,97	-3,664	
45,60	9,992	438,43	769,27	-3,664	
45,62	9,992	441,74	768,59	-3,664	
45,64	9,992	444,45	767,92	-3,664	
45,66	9,992	447,16	767,24	-3,664	
45,68	9,992	450,25	766,56	-3,664	
45,70	9,992	453,24	765,87	-3,664	
45,72	9,992	455,76	765,18	-3,664	
45,74	9,992	457,97	764,49	-3,664	
45,76	9,992	460,54	763,79	-3,663	
45,78	9,992	463,26	763,09	-3,663	
45,80	9,992	465,77	762,39	-3,663	
45,82	9,992	468,54	761,69	-3,663	
45,84	9,992	471,14	761,01	-3,663	
45,86	9,992	473,51	760,32	-3,663	
45,88	9,992	475,88	759,62	-3,663	
45,90	9,992	478,15	758,92	-3,663	
45,92	9,992	480,39	758,23	-3,663	
45,94	9,992	482,61	757,55	-3,663	
45,96	9,992	484,40	756,87	-3,663	
45,98	9,992	486,16	756,20	-3,663	
46,00	9,992	488,19	755,53	-3,663	
46,02	9,992	490,33	754,87	-3,662	
46,04	9,992	492,01	754,21	-3,662	
46,06	9,992	493,81	753,54	-3,662	
46,08	9,992	494,95	752,88	-3,662	
46,10	9,992	496,30	752,20	-3,662	
46,12	9,992	497,82	751,52	-3,662	
46,14	9,992	499,55	750,84	-3,662	
46,16	9,992	501,12	750,17	-3,662	
46,18	9,992	502,26	749,51	-3,662	
46,20	9,992	503,86	748,85	-3,662	
46,22	9,992	504,96	748,19	-3,662	
46,24	9,992	505,66	747,55	-3,662	
46,26	9,992	507,06	746,92	-3,662	
46,28	9,992	508,16	746,29	-3,662	
46,30	9,992	508,97	745,65	-3,662	
46,32	9,992	510,49	745,03	-3,661	
46,34	9,992	511,67	744,42	-3,661	
46,36	9,992	512,03	743,79	-3,661	
46,38	9,992	512,00	743,17	-3,661	
46,40	9,992	511,90	742,56	-3,661	
46,42	9,992	511,86	741,96	-3,661	
46,44	9,992	511,83	741,37	-3,661	
46,46	9,992	511,82	740,77	-3,661	
46,48	9,992	511,86	740,17	-3,661	
46,50	9,992	511,85	739,59	-3,661	
46,52	9,992	511,83	739,01	-3,661	
46,54	9,992	511,84	738,44	-3,661	
46,56	9,992	511,87	737,85	-3,661	
46,58	9,992	511,91	737,25	-3,661	
46,60	9,992	511,94	736,64	-3,661	
46,62	9,992	511,93	736,02	-3,661	
46,64	9,992	511,87	735,41	-3,661	
46,66	9,992	511,36	734,83	-3,661	
46,68	9,992	509,90	734,25	-3,661	
46,70	9,992	508,82	733,68	-3,661	
46,72	9,992	508,47	733,12	-3,661	
46,74	9,992	507,44	732,57	-3,661	
46,76	9,992	506,01	732,03	-3,661	
46,78	9,992	505,25	731,48	-3,661	
46,80	9,992	504,11	730,94	-3,661	
46,82	9,992	502,67	730,41	-3,662	
46,84	9,992	501,87	729,90	-3,662	
46,86	9,992	500,69	729,37	-3,662	
46,88	9,992	499,33	728,86	-3,662	
46,90	9,992	498,23	728,36	-3,662	
46,92	9,992	496,54	727,86	-3,662	
46,94	9,992	494,95	727,35	-3,662	
46,96	9,992	493,17	726,84	-3,662	
46,98	9,992	491,58	726,34	-3,662	
47,00	9,992	489,73	725,84	-3,662	
47,02	9,992	487,54	725,34	-3,662	
47,04	9,992	485,63	724,83	-3,662	
47,06	9,992	483,83	724,32	-3,662	
47,08	9,992	481,68	723,80	-3,662	
47,10	9,992	479,34	723,30	-3,663	
47,12	9,992	477,05	722,81	-3,663	
47,14	9,992	474,93	722,33	-3,663	
47,16	9,992	472,79	721,85	-3,663	
47,18	9,992	470,57	721,38	-3,663	
47,20	9,992	468,47	720,92	-3,663	
47,22	9,992	466,35	720,47	-3,663	
47,24	9,992	464,04	720,03	-3,663	
47,26	9,992	461,21	719,58	-3,663	
47,28	9,992	458,68	719,14	-3,664	
47,30	9,992	456,02	718,69	-3,664	
47,32	9,992	453,21	718,26	-3,664	
47,34	9,992	450,62	717,84	-3,664	
47,36	9,992	447,73	717,42	-3,664	
47,38	9,992	445,14	716,99	-3,664	
47,40	9,992	442,47	716,57	-3,664	
47,42	9,992	439,73	716,15	-3,665	
47,44	9,992	437,16	715,73	-3,665	
47,46	9,992	434,22	715,33	-3,665	
47,48	9,992	430,93	714,92	-3,665	
47,50	9,992	427,55	714,52	-3,665	
47,52	9,992	424,18	714,12	-3,665	
47,54	9,992	420,82	713,73	-3,666	
47,56	9,992	417,46	713,35	-3,666	
47,58	9,992	414,19	713,00	-3,666	
47,60	9,992	410,90	712,64	-3,666	
47,62	9,992	407,48	712,27	-3,666	
47,64	9,992	404,09	711,90	-3,666	
47,66	9,992	400,73	711,53	-3,667	
47,68	9,992	397,41	711,17	-3,667	
47,70	9,992	394,07	710,81	-3,667	
47,72	9,992	390,69	710,46	-3,667	
47,74	9,992	387,32	710,11	-3,667	
47,76	9,992	383,63	709,77	-3,668	
47,78	9,992	379,47	709,42	-3,668	
47,80	9,992	375,67	709,07	-3,668	
47,82	9,992	372,28	708,72	-3,668	
47,84	9,992	368,88	708,37	-3,668	
47,86	9,992	365,38	708,02	-3,669	
47,88	9,992	361,37	707,67	-3,669	
47,90	9,992	357,38	707,32	-3,669	
47,92	9,992	353,79	706,99	-3,669	
47,94	9,992	349,96	706,68	-3,670	
47,96	9,992	345,82	706,37	-3,670	
47,98	9,992	341,98	706,05	-3,670	
48,00	9,992	337,88	705,74	-3,670	
48,02	9,992	333,87	705,46	-3,671	
48,04	9,992	329,89	705,18	-3,671	
48,06	9,992	325,66	704,91	-3,671	
48,08	9,992	321,75	704,64	-3,671	
48,10	9,992	317,62	704,38	-3,672	
48,12	9,992	313,59	704,11	-3,672	
48,14	9,992	309,98	703,84	-3,672	
48,16	9,992	306,64	703,59	-3,672	
48,18	9,992	303,01	703,35	-3,673	
48,20	9,992	298,83	703,09	-3,673	
48,22	9,992	293,95	702,81	-3,673	
48,24	9,992	288,40	702,55	-3,674	
48,26	9,992	283,29	702,31	-3,674	
48,28	9,992	278,73	702,07	-3,674	
48,30	9,992	274,32	701,82	-3,675	
48,32	9,992	269,88	701,59	-3,675	
48,34	9,992	265,40	701,35	-3,675	
48,36	9,992	260,86	701,11	-3,675	
48,38	9,992	256,37	700,86	-3,676	
48,40	9,992	251,95	700,60	-3,676	
48,42	9,992	247,47	700,35	-3,677	
48,44	9,992	242,99	700,09	-3,677	
48,46	9,992	238,53	699,84	-3,677	
48,48	9,992	233,98	699,60	-3,677	
48,50	9,992	229,45	699,35	-3,678	
48,52	9,992	225,05	699,10	-3,678	
48,54	9,992	220,29	698,86	-3,679	
48,56	9,992	215,31	698,62	-3,679	
48,58	9,992	210,54	698,37	-3,679	
48,60	9,992	206,06	698,12	-3,680	
48,62	9,992	201,64	697,87	-3,680	
48,64	9,992	196,77	697,63	-3,680	
48,66	9,992	191,77	697,39	-3,681	
48,68	9,992	186,97	697,16	-3,681	
48,70	9,992	182,48	696,93	-3,681	
48,72	9,992	178,17	696,70	-3,682	
48,74	9,992	174,33	696,47	-3,682	
48,76	9,992	170,18	696,25	-3,683	
48,78	9,992	165,76	696,02	-3,683	
48,80	9,992	161,30	695,79	-3,683	
48,82	9,992	156,79	695,57	-3,684	
48,84	9,992	152,64	695,34	-3,684	
48,86	9,992	148,64	695,10	-3,684	
48,88	9,992	144,52	694,86	-3,685	
48,90	9,992	140,69	694,63	-3,685	
48,92	9,992	137,21	694,41	-3,685	
48,94	9,992	133,79	694,19	-3,686	
48,96	9,992	129,80	693,97	-3,686	
48,98	9,992	125,75	693,74	-3,687	
49,00	9,992	122,15	693,51	-3,687	
49,02	9,992	118,82	693,28	-3,687	
49,04	9,992	115,50	693,04	-3,687	
49,06	9,992	112,11	692,80	-3,688	
49,08	9,992	108,75	692,56	-3,688	
49,10	9,992	105,44	692,31	-3,688	
49,12	9,992	102,03	692,07	-3,689	
49,14	9,992	98,63	691,84	-3,689	
49,16	9,992	95,86	691,61	-3,689	
49,18	9,992	93,21	691,37	-3,690	
49,20	9,992	90,50	691,13	-3,690	
49,22	9,992	87,96	690,90	-3,690	
49,24	9,992	85,15	690,67	-3,691	
49,26	9,992	82,58	690,42	-3,691	
49,28	9,992	80,20	690,17	-3,691	
49,30	9,992	77,92	689,92	-3,691	
49,32	9,992	75,74	689,67	-3,692	
49,34	9,992	73,56	689,43	-3,692	
49,36	9,992	71,94	689,19	-3,692	
49,38	9,992	70,13	688,96	-3,692	
49,40	9,992	68,53	688,72	-3,693	
49,42	9,992	66,68	688,47	-3,693	
49,44	9,992	65,13	688,22	-3,693	
49,46	9,992	63,35	687,97	-3,693	
49,48	9,992	62,17	687,72	-3,694	
49,50	9,992	60,84	687,47	-3,694	
49,52	9,992	59,33	687,21	-3,694	
49,54	9,992	58,20	686,96	-3,694	
49,56	9,992	56,64	686,70	-3,695	
49,58	9,992	55,46	686,44	-3,695	
49,60	9,992	54,72	686,19	-3,695	
49,62	9,992	53,31	685,94	-3,695	
49,64	9,992	52,17	685,68	-3,695	
49,66	9,992	51,83	685,43	-3,696	
49,68	9,992	51,43	685,18	-3,696	
49,70	9,992	49,92	684,93	-3,696	
49,72	9,992	48,73	684,68	-3,696	
49,74	9,992	48,38	684,42	-3,697	
49,76	9,992	48,37	684,16	-3,697	
49,78	9,992	48,41	683,90	-3,697	
49,80	9,992	48,02	683,64	-3,697	
49,82	9,992	46,45	683,37	-3,697	
49,84	9,992	45,24	683,10	-3,697	
49,86	9,992	44,79	682,84	-3,698	
49,88	9,992	44,77	682,56	-3,698	
49,90	9,992	44,97	682,27	-3,698	
49,92	9,992	45,10	681,98	-3,698	
49,94	9,992	45,04	681,69	-3,698	
49,96	9,992	44,99	681,41	-3,698	
49,98	9,992	44,96	681,13	-3,699	
50,00	9,992	44,93	680,86	-3,699	
50,02	9,992	44,95	680,57	-3,699	
50,04	9,992	44,99	680,29	-3,699	
50,06	9,992	44,98	680,02	-3,699	
50,08	9,992	44,99	679,75	-3,699	
50,10	9,992	45,06	679,47	-3,699	
50,12	9,992	45,12	679,20	-3,700	
50,14	9,992	46,09	678,92	-3,700	
50,16	9,992	47,56	678,64	-3,700	
50,18	9,992	48,26	678,38	-3,700	
50,20	9,992	48,39	678,11	-3,700	
50,22	9,992	48,41	677,84	-3,700	
50,24	9,992	48,44	677,56	-3,700	
50,26	9,992	48,42	677,28	-3,701	
50,28	9,992	48,40	676,99	-3,701	
50,30	9,992	48,46	676,71	-3,701	
50,32	9,992	49,42	676,42	-3,701	
50,34	9,992	50,99	676,14	-3,701	
50,36	9,992	51,73	675,86	-3,701	
50,38	9,992	51,73	675,57	-3,701	
50,40	9,992	51,68	675,29	-3,701	
50,42	9,992	52,72	675,02	-3,702	
50,44	9,992	54,21	674,76	-3,702	
50,46	9,992	54,94	674,50	-3,702	
50,48	9,992	55,13	674,23	-3,702	
50,50	9,992	55,53	673,96	-3,702	
50,52	9,992	56,91	673,69	-3,702	
50,54	9,992	58,06	673,41	-3,702	
50,56	9,992	58,48	673,15	-3,702	
50,58	9,992	58,61	672,87	-3,702	
50,60	9,992	59,60	672,57	-3,703	
50,62	9,992	61,08	672,28	-3,703	
50,64	9,992	61,70	672,01	-3,703	
50,66	9,992	62,12	671,74	-3,703	
50,68	9,992	63,53	671,44	-3,703	
50,70	9,992	64,71	671,14	-3,703	
50,72	9,992	65,09	670,84	-3,703	
50,74	9,992	65,48	670,53	-3,703	
50,76	9,992	66,92	670,22	-3,703	
50,78	9,992	68,08	669,90	-3,703	
50,80	9,992	68,51	669,60	-3,704	
50,82	9,992	69,55	669,31	-3,704	
50,84	9,992	71,09	669,03	-3,704	
50,86	9,992	71,85	668,76	-3,704	
50,88	9,992	72,04	668,49	-3,704	
50,90	9,992	73,00	668,20	-3,704	
50,92	9,992	74,44	667,92	-3,704	
50,94	9,992	75,22	667,64	-3,704	
50,96	9,992	76,31	667,36	-3,704	
50,98	9,992	77,78	667,09	-3,704	
51,00	9,992	78,59	666,81	-3,704	