Zeit  1 - Standardmessrate [s]	ZwickWeg [mm]	ZwickKraft [N]	Pyrometer [°C]	Maytec [mm]
0	-0,3041	159,55	150,06	0,03120	
0,02000	-0,3041	159,49	150,05	0,03115	
0,04000	-0,3041	159,56	150,06	0,03107	
0,06000	-0,3041	159,64	150,06	0,03092	
0,08000	-0,3041	159,60	150,05	0,03092	
0,1000	-0,3041	159,62	150,06	0,03103	
0,1200	-0,3041	159,69	150,06	0,03114	
0,1400	-0,3041	159,66	150,06	0,03118	
0,1600	-0,3041	159,64	150,06	0,03115	
0,1800	-0,3041	159,64	150,06	0,03111	
0,2000	-0,3041	159,63	150,06	0,03099	
0,2200	-0,3041	159,70	150,06	0,03093	
0,2400	-0,3041	159,63	150,06	0,03093	
0,2600	-0,3041	159,60	150,06	0,03099	
0,2800	-0,3041	159,64	150,06	0,03109	
0,3000	-0,3041	159,63	150,06	0,03118	
0,3200	-0,3041	159,63	150,06	0,03115	
0,3400	-0,3041	159,65	150,06	0,03100	
0,3600	-0,3041	159,68	150,06	0,03085	
0,3800	-0,3041	159,65	150,06	0,03088	
0,4000	-0,3041	159,58	150,06	0,03100	
0,4200	-0,3041	159,55	150,06	0,03114	
0,4400	-0,3041	159,54	150,06	0,03122	
0,4600	-0,3041	159,55	150,06	0,03114	
0,4800	-0,3041	159,59	150,06	0,03099	
0,5000	-0,3041	159,65	150,06	0,03087	
0,5200	-0,3041	159,71	150,06	0,03080	
0,5400	-0,3041	159,71	150,05	0,03084	
0,5600	-0,3041	159,63	150,06	0,03099	
0,5800	-0,3041	159,59	150,06	0,03113	
0,6000	-0,3041	159,59	150,06	0,03122	
0,6200	-0,3041	159,60	150,06	0,03115	
0,6400	-0,3041	159,55	150,06	0,03102	
0,6600	-0,3041	159,58	150,06	0,03096	
0,6800	-0,3041	159,68	150,05	0,03097	
0,7000	-0,3042	159,67	150,05	0,03101	
0,7200	-0,3042	159,68	150,06	0,03108	
0,7400	-0,3041	159,76	150,05	0,03114	
0,7600	-0,3041	159,80	150,06	0,03110	
0,7800	-0,3041	159,77	150,06	0,03101	
0,8000	-0,3041	159,71	150,06	0,03101	
0,8200	-0,3041	159,72	150,06	0,03105	
0,8400	-0,3041	159,70	150,06	0,03104	
0,8600	-0,3042	159,66	150,06	0,03104	
0,8800	-0,3042	159,64	150,06	0,03113	
0,9000	-0,3042	159,61	150,05	0,03119	
0,9200	-0,3041	159,53	150,06	0,03111	
0,9400	-0,3041	159,51	150,06	0,03097	
0,9600	-0,3041	159,54	150,06	0,03088	
0,9800	-0,3041	159,56	150,06	0,03091	
1,000	-0,3041	159,54	150,06	0,03100	
1,020	-0,3042	159,54	150,05	0,03104	
1,040	-0,3041	159,54	150,05	0,03110	
1,060	-0,3041	159,52	150,06	0,03114	
1,080	-0,3041	159,50	150,06	0,03103	
1,100	-0,3041	159,48	150,06	0,03095	
1,120	-0,3041	159,43	150,06	0,03094	
1,140	-0,3041	159,42	150,06	0,03102	
1,160	-0,3041	159,48	150,06	0,03117	
1,180	-0,3041	159,48	150,05	0,03127	
1,200	-0,3041	159,45	150,06	0,03121	
1,220	-0,3041	159,47	150,06	0,03108	
1,240	-0,3041	159,44	150,05	0,03099	
1,260	-0,3041	159,42	150,06	0,03094	
1,280	-0,3041	159,36	150,06	0,03101	
1,300	-0,3041	159,41	150,05	0,03119	
1,320	-0,3041	159,53	150,05	0,03130	
1,340	-0,3042	159,62	150,06	0,03125	
1,360	-0,3042	159,62	150,06	0,03103	
1,380	-0,3041	159,56	150,05	0,03088	
1,400	-0,3041	159,51	150,06	0,03089	
1,420	-0,3041	159,47	150,06	0,03099	
1,440	-0,3041	159,46	150,06	0,03110	
1,460	-0,3041	159,50	150,06	0,03122	
1,480	-0,3041	159,51	150,06	0,03122	
1,500	-0,3041	159,47	150,06	0,03114	
1,520	-0,3041	159,39	150,06	0,03104	
1,540	-0,3041	159,40	150,06	0,03098	
1,560	-0,3041	159,47	150,06	0,03100	
1,580	-0,3041	159,54	150,06	0,03112	
1,600	-0,3041	159,56	150,06	0,03115	
1,620	-0,3041	159,54	150,06	0,03114	
1,640	-0,3041	159,46	150,06	0,03108	
1,660	-0,3042	159,46	150,06	0,03100	
1,680	-0,3041	159,54	150,05	0,03088	
1,700	-0,3041	159,57	150,06	0,03084	
1,720	-0,3041	159,49	150,06	0,03094	
1,740	-0,3041	159,45	150,06	0,03114	
1,760	-0,3041	159,50	150,05	0,03130	
1,780	-0,3041	159,57	150,06	0,03131	
1,800	-0,3041	159,54	150,06	0,03116	
1,820	-0,3041	159,52	150,06	0,03098	
1,840	-0,3041	159,54	150,06	0,03095	
1,860	-0,3041	159,54	150,06	0,03099	
1,880	-0,3041	159,53	150,06	0,03108	
1,900	-0,3041	159,54	150,06	0,03115	
1,920	-0,3041	159,51	150,06	0,03117	
1,940	-0,3041	159,46	150,06	0,03113	
1,960	-0,3041	159,48	150,06	0,03100	
1,980	-0,3041	159,52	150,05	0,03089	
2,000	-0,3041	159,55	150,06	0,03090	
2,020	-0,3041	159,63	150,06	0,03104	
2,040	-0,3041	159,62	150,06	0,03120	
2,060	-0,3041	159,55	150,05	0,03122	
2,080	-0,3041	159,46	150,06	0,03121	
2,100	-0,3041	159,46	150,06	0,03107	
2,120	-0,3041	159,48	150,06	0,03094	
2,140	-0,3041	159,46	150,06	0,03099	
2,160	-0,3041	159,41	150,06	0,03105	
2,180	-0,3041	159,41	150,06	0,03111	
2,200	-0,3041	159,44	150,06	0,03119	
2,220	-0,3042	159,48	150,06	0,03116	
2,240	-0,3042	159,51	150,06	0,03105	
2,260	-0,3042	159,52	150,06	0,03095	
2,280	-0,3042	159,45	150,05	0,03097	
2,300	-0,3041	159,37	150,06	0,03102	
2,320	-0,3041	159,35	150,06	0,03109	
2,340	-0,3041	159,36	150,06	0,03116	
2,360	-0,3041	159,35	150,06	0,03123	
2,380	-0,3041	159,36	150,06	0,03117	
2,400	-0,3041	159,41	150,06	0,03103	
2,420	-0,3041	159,41	150,06	0,03096	
2,440	-0,3042	159,39	150,06	0,03102	
2,460	-0,3042	159,38	150,06	0,03109	
2,480	-0,3042	159,41	150,06	0,03116	
2,500	-0,3041	159,50	150,06	0,03120	
2,520	-0,3041	159,48	150,06	0,03116	
2,540	-0,3041	159,41	150,06	0,03107	
2,560	-0,3041	159,42	150,06	0,03094	
2,580	-0,3041	159,43	150,06	0,03090	
2,600	-0,3041	159,43	150,06	0,03101	
2,620	-0,3041	159,40	150,06	0,03113	
2,640	-0,3041	159,34	150,06	0,03114	
2,660	-0,3041	159,33	150,06	0,03109	
2,680	-0,3041	159,37	150,06	0,03101	
2,700	-0,3041	159,42	150,06	0,03092	
2,720	-0,3041	159,41	150,06	0,03087	
2,740	-0,3041	159,38	150,06	0,03089	
2,760	-0,3041	159,34	150,06	0,03097	
2,780	-0,3041	159,33	150,06	0,03108	
2,800	-0,3041	159,34	150,06	0,03114	
2,820	-0,3041	159,31	150,06	0,03105	
2,840	-0,3041	159,35	150,06	0,03098	
2,860	-0,3041	159,40	150,06	0,03098	
2,880	-0,3041	159,42	150,06	0,03098	
2,900	-0,3041	159,43	150,06	0,03105	
2,920	-0,3041	159,44	150,06	0,03112	
2,940	-0,3042	159,48	150,06	0,03114	
2,960	-0,3041	159,44	150,06	0,03116	
2,980	-0,3041	159,40	150,06	0,03111	
3,000	-0,3041	159,42	150,06	0,03100	
3,020	-0,3041	159,43	150,06	0,03098	
3,040	-0,3041	159,42	150,06	0,03102	
3,060	-0,3041	159,42	150,06	0,03110	
3,080	-0,3042	159,44	150,06	0,03120	
3,100	-0,3042	159,44	150,06	0,03127	
3,120	-0,3042	159,46	150,06	0,03119	
3,140	-0,3042	159,49	150,06	0,03105	
3,160	-0,3041	159,47	150,06	0,03095	
3,180	-0,3041	159,45	150,06	0,03092	
3,200	-0,3041	159,48	150,06	0,03099	
3,220	-0,3042	159,48	150,06	0,03109	
3,240	-0,3042	159,44	150,06	0,03111	
3,260	-0,3042	159,43	150,06	0,03102	
3,280	-0,3041	159,43	150,06	0,03091	
3,300	-0,3041	159,48	150,06	0,03088	
3,320	-0,3041	159,50	150,06	0,03091	
3,340	-0,3041	159,49	150,06	0,03096	
3,360	-0,3041	159,51	150,06	0,03106	
3,380	-0,3041	159,53	150,06	0,03122	
3,400	-0,3041	159,51	150,06	0,03121	
3,420	-0,3041	159,53	150,06	0,03106	
3,440	-0,3041	159,49	150,06	0,03089	
3,460	-0,3041	159,48	150,06	0,03089	
3,480	-0,3041	159,49	150,07	0,03095	
3,500	-0,3041	159,51	150,07	0,03097	
3,520	-0,3041	159,57	150,06	0,03108	
3,540	-0,3041	159,61	150,06	0,03113	
3,560	-0,3041	159,60	150,06	0,03108	
3,580	-0,3041	159,53	150,06	0,03102	
3,600	-0,3041	159,48	150,06	0,03098	
3,620	-0,3041	159,47	150,06	0,03100	
3,640	-0,3041	159,47	150,06	0,03108	
3,660	-0,3042	159,54	150,06	0,03114	
3,680	-0,3042	159,56	150,06	0,03114	
3,700	-0,3041	159,55	150,06	0,03106	
3,720	-0,3041	159,51	150,06	0,03092	
3,740	-0,3041	159,53	150,06	0,03086	
3,760	-0,3041	159,56	150,06	0,03093	
3,780	-0,3041	159,59	150,06	0,03106	
3,800	-0,3041	159,54	150,06	0,03115	
3,820	-0,3041	159,50	150,06	0,03122	
3,840	-0,3041	159,52	150,05	0,03116	
3,860	-0,3041	159,52	150,06	0,03105	
3,880	-0,3041	159,53	150,06	0,03093	
3,900	-0,3041	159,45	150,06	0,03091	
3,920	-0,3041	159,42	150,06	0,03102	
3,940	-0,3041	159,45	150,06	0,03118	
3,960	-0,3041	159,43	150,07	0,03128	
3,980	-0,3041	159,47	150,06	0,03119	
4,000	-0,3041	159,52	150,06	0,03099	
4,020	-0,3041	159,58	150,06	0,03091	
4,040	-0,3041	159,58	150,06	0,03088	
4,060	-0,3041	159,48	150,06	0,03087	
4,080	-0,3041	159,49	150,06	0,03096	
4,100	-0,3041	159,51	150,06	0,03115	
4,120	-0,3041	159,50	150,07	0,03128	
4,140	-0,3041	159,48	150,07	0,03117	
4,160	-0,3041	159,49	150,06	0,03099	
4,180	-0,3041	159,52	150,06	0,03089	
4,200	-0,3041	159,51	150,06	0,03089	
4,220	-0,3041	159,48	150,06	0,03105	
4,240	-0,3041	159,49	150,06	0,03118	
4,260	-0,3041	159,50	150,06	0,03119	
4,280	-0,3041	159,48	150,06	0,03111	
4,300	-0,3041	159,42	150,06	0,03099	
4,320	-0,3041	159,45	150,06	0,03087	
4,340	-0,3041	159,47	150,06	0,03086	
4,360	-0,3041	159,48	150,06	0,03094	
4,380	-0,3041	159,50	150,06	0,03110	
4,400	-0,3041	159,52	150,06	0,03118	
4,420	-0,3041	159,59	150,06	0,03121	
4,440	-0,3041	159,55	150,06	0,03109	
4,460	-0,3041	159,51	150,06	0,03092	
4,480	-0,3041	159,47	150,06	0,03087	
4,500	-0,3041	159,37	150,06	0,03089	
4,520	-0,3041	159,33	150,06	0,03101	
4,540	-0,3042	159,33	150,06	0,03111	
4,560	-0,3041	159,36	150,06	0,03118	
4,580	-0,3041	159,37	150,06	0,03122	
4,600	-0,3041	159,36	150,06	0,03119	
4,620	-0,3041	159,38	150,06	0,03104	
4,640	-0,3041	159,43	150,06	0,03093	
4,660	-0,3041	159,36	150,06	0,03097	
4,680	-0,3041	159,34	150,06	0,03110	
4,700	-0,3041	159,42	150,06	0,03122	
4,720	-0,3041	159,48	150,06	0,03123	
4,740	-0,3041	159,51	150,06	0,03118	
4,760	-0,3041	159,50	150,06	0,03105	
4,780	-0,3041	159,50	150,06	0,03092	
4,800	-0,3041	159,48	150,06	0,03089	
4,820	-0,3041	159,50	150,06	0,03096	
4,840	-0,3041	159,59	150,06	0,03105	
4,860	-0,3041	159,53	150,06	0,03114	
4,880	-0,3041	159,43	150,06	0,03112	
4,900	-0,3041	159,37	150,06	0,03101	
4,920	-0,3041	159,35	150,06	0,03095	
4,940	-0,3041	159,38	150,06	0,03091	
4,960	-0,3041	159,43	150,06	0,03093	
4,980	-0,3046	161,83	150,20	0,03055	
5,000	-0,3040	141,34	150,04	0,02944	
5,020	-0,3038	98,01	149,97	0,02935	
5,040	-0,3040	52,70	150,02	0,02976	
5,060	-0,3039	10,82	150,06	0,02994	
5,080	-0,3019	-23,77	150,06	0,02992	
5,100	-0,2975	-33,22	150,06	0,02992	
5,120	-0,2924	-8,558	150,06	0,03001	
5,140	-0,2879	28,95	150,06	0,03018	
5,160	-0,2841	68,15	150,06	0,03032	
5,180	-0,2812	102,41	150,06	0,03031	
5,200	-0,2792	129,10	150,06	0,03014	
5,220	-0,2783	146,71	150,06	0,03003	
5,240	-0,2780	156,46	150,06	0,03001	
5,260	-0,2780	160,94	150,06	0,03010	
5,280	-0,2780	162,45	150,06	0,03029	
5,300	-0,2779	163,16	150,06	0,03037	
5,320	-0,2780	164,15	150,06	0,03032	
5,340	-0,2781	163,79	150,06	0,03029	
5,360	-0,2784	163,47	150,06	0,03018	
5,380	-0,2786	164,63	150,06	0,03011	
5,400	-0,2786	164,74	150,06	0,03014	
5,420	-0,2786	163,60	150,06	0,03020	
5,440	-0,2786	162,85	150,06	0,03032	
5,460	-0,2788	162,68	150,06	0,03036	
5,480	-0,2791	162,72	150,06	0,03031	
5,500	-0,2793	162,78	150,06	0,03019	
5,520	-0,2793	162,76	150,06	0,03013	
5,540	-0,2793	162,77	150,06	0,03012	
5,560	-0,2793	162,71	150,06	0,03018	
5,580	-0,2793	162,74	150,06	0,03029	
5,600	-0,2793	162,79	150,06	0,03037	
5,620	-0,2795	162,80	150,06	0,03039	
5,640	-0,2798	162,83	150,06	0,03033	
5,660	-0,2799	162,38	150,06	0,03028	
5,680	-0,2800	160,96	150,06	0,03031	
5,700	-0,2800	159,86	150,06	0,03029	
5,720	-0,2799	159,47	150,06	0,03036	
5,740	-0,2799	159,50	150,06	0,03048	
5,760	-0,2799	159,54	150,06	0,03051	
5,780	-0,2799	159,52	150,06	0,03035	
5,800	-0,2799	159,51	150,06	0,03021	
5,820	-0,2800	159,51	150,06	0,03019	
5,840	-0,2800	159,52	150,06	0,03020	
5,860	-0,2800	159,56	150,06	0,03030	
5,880	-0,2800	159,52	150,06	0,03040	
5,900	-0,2799	159,44	150,06	0,03040	
5,920	-0,2799	159,50	150,06	0,03035	
5,940	-0,2800	159,55	150,06	0,03028	
5,960	-0,2803	159,51	150,05	0,03017	
5,980	-0,2806	159,51	150,06	0,03017	
6,000	-0,2806	159,53	150,06	0,03028	
6,020	-0,2806	159,53	150,06	0,03039	
6,040	-0,2806	159,56	150,06	0,03044	
6,060	-0,2806	159,48	150,06	0,03046	
6,080	-0,2806	159,39	150,06	0,03039	
6,100	-0,2806	159,38	150,06	0,03027	
6,120	-0,2806	159,38	150,06	0,03021	
6,140	-0,2806	159,43	150,06	0,03030	
6,160	-0,2806	159,39	150,06	0,03047	
6,180	-0,2806	159,35	150,06	0,03053	
6,200	-0,2806	159,42	150,06	0,03045	
6,220	-0,2806	159,43	150,06	0,03031	
6,240	-0,2806	159,39	150,06	0,03018	
6,260	-0,2806	159,50	150,06	0,03017	
6,280	-0,2806	159,55	150,06	0,03025	
6,300	-0,2806	159,53	150,06	0,03035	
6,320	-0,2806	159,44	150,06	0,03041	
6,340	-0,2806	159,41	150,06	0,03054	
6,360	-0,2806	159,40	150,06	0,03054	
6,380	-0,2806	159,43	150,06	0,03040	
6,400	-0,2806	159,50	150,06	0,03025	
6,420	-0,2806	159,54	150,06	0,03024	
6,440	-0,2806	159,51	150,06	0,03035	
6,460	-0,2806	159,49	150,06	0,03044	
6,480	-0,2806	159,49	150,06	0,03046	
6,500	-0,2806	159,51	150,06	0,03051	
6,520	-0,2806	159,55	150,06	0,03045	
6,540	-0,2807	159,54	150,06	0,03032	
6,560	-0,2809	159,53	150,06	0,03025	
6,580	-0,2811	159,52	150,06	0,03029	
6,600	-0,2813	159,54	150,06	0,03043	
6,620	-0,2813	159,54	150,06	0,03054	
6,640	-0,2813	159,45	150,06	0,03058	
6,660	-0,2813	159,40	150,06	0,03050	
6,680	-0,2813	159,31	150,06	0,03035	
6,700	-0,2813	159,29	150,06	0,03026	
6,720	-0,2813	159,35	150,06	0,03025	
6,740	-0,2813	159,42	150,06	0,03036	
6,760	-0,2813	159,49	150,06	0,03049	
6,780	-0,2813	159,47	150,06	0,03055	
6,800	-0,2813	159,47	150,06	0,03049	
6,820	-0,2813	159,51	150,06	0,03032	
6,840	-0,2813	159,54	150,06	0,03019	
6,860	-0,2813	159,58	150,06	0,03017	
6,880	-0,2813	159,66	150,06	0,03027	
6,900	-0,2813	159,65	150,06	0,03045	
6,920	-0,2813	159,59	150,06	0,03058	
6,940	-0,2813	159,58	150,06	0,03060	
6,960	-0,2813	159,57	150,06	0,03045	
6,980	-0,2813	159,57	150,06	0,03024	
7,000	-0,2813	159,54	150,06	0,03017	
7,020	-0,2813	159,54	150,06	0,03025	
7,040	-0,2813	159,53	150,06	0,03039	
7,060	-0,2813	159,48	150,05	0,03046	
7,080	-0,2813	159,48	150,06	0,03051	
7,100	-0,2813	159,48	150,06	0,03047	
7,120	-0,2813	159,32	150,05	0,03033	
7,140	-0,2812	159,15	150,04	0,03021	
7,160	-0,2812	159,07	150,04	0,03022	
7,180	-0,2812	159,11	150,04	0,03032	
7,200	-0,2812	159,11	150,05	0,03045	
7,220	-0,2812	159,08	150,04	0,03061	
7,240	-0,2812	159,26	150,05	0,03062	
7,260	-0,2813	159,41	150,06	0,03047	
7,280	-0,2813	159,50	150,06	0,03030	
7,300	-0,2814	159,50	150,05	0,03027	
7,320	-0,2817	159,46	150,06	0,03033	
7,340	-0,2819	159,44	150,06	0,03040	
7,360	-0,2819	159,40	150,06	0,03045	
7,380	-0,2820	159,39	150,06	0,03049	
7,400	-0,2819	159,38	150,06	0,03046	
7,420	-0,2819	159,42	150,06	0,03032	
7,440	-0,2819	159,39	150,05	0,03021	
7,460	-0,2819	159,38	150,06	0,03021	
7,480	-0,2820	159,44	150,06	0,03032	
7,500	-0,2820	159,49	150,06	0,03042	
7,520	-0,2819	159,54	150,06	0,03046	
7,540	-0,2819	159,46	150,06	0,03046	
7,560	-0,2819	159,41	150,06	0,03038	
7,580	-0,2819	159,46	150,06	0,03025	
7,600	-0,2819	159,43	150,06	0,03021	
7,620	-0,2819	159,46	150,06	0,03024	
7,640	-0,2820	159,55	150,06	0,03025	
7,660	-0,2820	159,51	150,05	0,03033	
7,680	-0,2820	159,56	150,06	0,03041	
7,700	-0,2820	159,58	150,06	0,03042	
7,720	-0,2820	159,49	150,06	0,03033	
7,740	-0,2820	159,50	150,05	0,03021	
7,760	-0,2820	159,48	150,06	0,03023	
7,780	-0,2819	159,46	150,06	0,03035	
7,800	-0,2820	159,49	150,05	0,03047	
7,820	-0,2820	159,50	150,05	0,03047	
7,840	-0,2820	159,47	150,06	0,03048	
7,860	-0,2820	159,52	150,06	0,03039	
7,880	-0,2820	159,53	150,06	0,03025	
7,900	-0,2820	159,46	150,06	0,03025	
7,920	-0,2820	159,45	150,06	0,03032	
7,940	-0,2820	159,38	150,05	0,03039	
7,960	-0,2820	159,34	150,05	0,03047	
7,980	-0,2820	159,43	150,06	0,03045	
8,000	-0,2820	159,50	150,06	0,03036	
8,020	-0,2820	159,56	150,05	0,03021	
8,040	-0,2820	159,50	150,06	0,03015	
8,060	-0,2820	159,45	150,06	0,03027	
8,080	-0,2820	159,48	150,06	0,03035	
8,100	-0,2820	159,47	150,06	0,03042	
8,120	-0,2820	159,45	150,06	0,03047	
8,140	-0,2820	159,45	150,06	0,03044	
8,160	-0,2820	159,46	150,06	0,03035	
8,180	-0,2820	159,51	150,06	0,03031	
8,200	-0,2819	159,50	150,06	0,03031	
8,220	-0,2820	159,48	150,06	0,03033	
8,240	-0,2820	159,46	150,06	0,03040	
8,260	-0,2820	159,46	150,06	0,03051	
8,280	-0,2819	159,47	150,06	0,03054	
8,300	-0,2819	159,39	150,06	0,03038	
8,320	-0,2821	159,37	150,05	0,03022	
8,340	-0,2824	159,42	150,06	0,03016	
8,360	-0,2826	159,45	150,06	0,03025	
8,380	-0,2826	159,47	150,06	0,03035	
8,400	-0,2826	159,47	150,05	0,03045	
8,420	-0,2826	159,51	150,06	0,03050	
8,440	-0,2826	159,56	150,06	0,03047	
8,460	-0,2826	159,53	150,06	0,03032	
8,480	-0,2826	159,53	150,06	0,03025	
8,500	-0,2826	159,59	150,06	0,03027	
8,520	-0,2827	159,78	150,06	0,03029	
8,540	-0,2828	160,53	150,10	0,03027	
8,560	-0,2828	155,52	150,09	0,03017	
8,580	-0,2827	143,65	150,06	0,03019	
8,600	-0,2826	130,82	150,05	0,03027	
8,620	-0,2825	118,18	150,06	0,03026	
8,640	-0,2820	105,20	150,06	0,03018	
8,660	-0,2809	95,53	150,06	0,03005	
8,680	-0,2799	91,17	150,05	0,03005	
8,700	-0,2788	88,44	150,06	0,03023	
8,720	-0,2775	86,37	150,06	0,03035	
8,740	-0,2762	85,52	150,06	0,03037	
8,760	-0,2748	85,72	150,06	0,03036	
8,780	-0,2733	87,25	150,06	0,03029	
8,800	-0,2716	89,41	150,06	0,03020	
8,820	-0,2703	91,28	150,05	0,03013	
8,840	-0,2693	92,08	150,06	0,03009	
8,860	-0,2681	92,24	150,06	0,03019	
8,880	-0,2668	92,24	150,05	0,03036	
8,900	-0,2654	92,25	150,06	0,03039	
8,920	-0,2641	92,22	150,06	0,03035	
8,940	-0,2628	92,19	150,06	0,03023	
8,960	-0,2614	92,23	150,05	0,03019	
8,980	-0,2601	92,28	150,05	0,03024	
9,000	-0,2587	92,29	150,06	0,03027	
9,020	-0,2575	92,32	150,05	0,03031	
9,040	-0,2564	92,30	150,05	0,03038	
9,060	-0,2553	92,27	150,06	0,03036	
9,080	-0,2540	92,26	150,05	0,03029	
9,100	-0,2527	92,20	150,05	0,03022	
9,120	-0,2513	92,18	150,05	0,03017	
9,140	-0,2500	92,26	150,05	0,03018	
9,160	-0,2487	92,34	150,05	0,03031	
9,180	-0,2473	92,36	150,06	0,03042	
9,200	-0,2460	92,38	150,06	0,03039	
9,220	-0,2446	92,05	150,06	0,03027	
9,240	-0,2433	91,50	150,06	0,03014	
9,260	-0,2420	90,82	150,06	0,03010	
9,280	-0,2406	89,63	150,06	0,03012	
9,300	-0,2393	88,93	150,06	0,03025	
9,320	-0,2379	88,80	150,06	0,03041	
9,340	-0,2366	88,84	150,06	0,03044	
9,360	-0,2353	88,85	150,06	0,03041	
9,380	-0,2339	88,83	150,05	0,03034	
9,400	-0,2326	88,81	150,06	0,03018	
9,420	-0,2312	88,81	150,06	0,03006	
9,440	-0,2299	88,82	150,05	0,03016	
9,460	-0,2285	88,78	150,05	0,03032	
9,480	-0,2272	88,73	150,05	0,03044	
9,500	-0,2259	88,74	150,05	0,03046	
9,520	-0,2245	88,74	150,05	0,03032	
9,540	-0,2232	88,74	150,06	0,03017	
9,560	-0,2218	88,80	150,06	0,03011	
9,580	-0,2201	88,81	150,05	0,03015	
9,600	-0,2186	88,48	150,05	0,03024	
9,620	-0,2171	87,03	150,06	0,03033	
9,640	-0,2158	85,84	150,05	0,03039	
9,660	-0,2145	85,46	150,05	0,03039	
9,680	-0,2131	85,48	150,06	0,03029	
9,700	-0,2118	85,56	150,06	0,03021	
9,720	-0,2104	85,54	150,05	0,03020	
9,740	-0,2091	85,48	150,06	0,03023	
9,760	-0,2077	85,47	150,06	0,03032	
9,780	-0,2064	85,55	150,06	0,03041	
9,800	-0,2050	85,64	150,05	0,03041	
9,820	-0,2035	85,63	150,05	0,03029	
9,840	-0,2019	85,54	150,06	0,03015	
9,860	-0,2004	85,48	150,06	0,03005	
9,880	-0,1990	85,49	150,06	0,03019	
9,900	-0,1977	85,55	150,06	0,03039	
9,920	-0,1963	85,51	150,06	0,03042	
9,940	-0,1948	85,44	150,05	0,03040	
9,960	-0,1931	85,45	150,06	0,03032	
9,980	-0,1916	85,50	150,06	0,03022	
10,00	-0,1903	85,17	150,05	0,03013	
10,02	-0,1889	83,72	150,05	0,03013	
10,04	-0,1875	82,52	150,06	0,03027	
10,06	-0,1861	82,11	150,06	0,03038	
10,08	-0,1845	82,11	150,05	0,03043	
10,10	-0,1829	82,15	150,05	0,03043	
10,12	-0,1815	82,12	150,05	0,03028	
10,14	-0,1801	82,07	150,05	0,03011	
10,16	-0,1786	82,00	150,05	0,03010	
10,18	-0,1770	81,96	150,05	0,03023	
10,20	-0,1754	81,98	150,05	0,03040	
10,22	-0,1741	82,03	150,05	0,03047	
10,24	-0,1727	82,06	150,06	0,03044	
10,26	-0,1710	82,02	150,05	0,03032	
10,28	-0,1695	81,99	150,05	0,03019	
10,30	-0,1680	81,95	150,06	0,03009	
10,32	-0,1665	81,95	150,06	0,03013	
10,34	-0,1649	81,98	150,05	0,03031	
10,36	-0,1634	81,95	150,05	0,03043	
10,38	-0,1619	81,99	150,05	0,03044	
10,40	-0,1603	82,05	150,05	0,03036	
10,42	-0,1587	82,04	150,05	0,03029	
10,44	-0,1573	82,02	150,05	0,03017	
10,46	-0,1559	82,02	150,05	0,03017	
10,48	-0,1543	81,66	150,05	0,03030	
10,50	-0,1527	80,27	150,05	0,03036	
10,52	-0,1513	79,08	150,05	0,03034	
10,54	-0,1497	78,68	150,05	0,03038	
10,56	-0,1481	78,72	150,05	0,03035	
10,58	-0,1466	78,77	150,08	0,03028	
10,60	-0,1450	78,71	150,20	0,03032	
10,62	-0,1434	78,69	150,55	0,03039	
10,64	-0,1419	78,71	151,51	0,03040	
10,66	-0,1404	78,67	153,08	0,03049	
10,68	-0,1388	78,36	154,95	0,03049	
10,70	-0,1372	76,93	156,57	0,03031	
10,72	-0,1357	75,71	158,32	0,03023	
10,74	-0,1341	75,32	160,51	0,03023	
10,76	-0,1324	75,27	162,78	0,03027	
10,78	-0,1307	75,25	164,78	0,03036	
10,80	-0,1291	75,24	166,16	0,03044	
10,82	-0,1276	75,22	166,93	0,03044	
10,84	-0,1259	75,26	167,65	0,03042	
10,86	-0,1243	75,32	168,40	0,03033	
10,88	-0,1227	75,39	169,50	0,03024	
10,90	-0,1211	75,41	170,89	0,03025	
10,92	-0,1195	75,43	172,25	0,03032	
10,94	-0,1178	75,41	173,62	0,03042	
10,96	-0,1163	75,35	175,17	0,03052	
10,98	-0,1146	75,31	177,05	0,03042	
11,00	-0,1131	75,38	178,66	0,03026	
11,02	-0,1115	75,44	179,86	0,03016	
11,04	-0,1098	75,43	181,17	0,03016	
11,06	-0,1081	75,45	182,65	0,03026	
11,08	-0,1064	74,56	184,04	0,03038	
11,10	-0,1047	73,07	185,38	0,03042	
11,12	-0,1031	72,26	186,64	0,03037	
11,14	-0,1014	72,06	187,86	0,03021	
11,16	-0,09968	72,03	189,02	0,03013	
11,18	-0,09801	72,04	190,22	0,03012	
11,20	-0,09628	71,99	191,71	0,03020	
11,22	-0,09451	71,95	193,26	0,03029	
11,24	-0,09283	71,95	194,75	0,03039	
11,26	-0,09111	71,95	196,29	0,03046	
11,28	-0,08945	71,95	197,78	0,03038	
11,30	-0,08774	71,98	199,16	0,03022	
11,32	-0,08609	71,97	200,49	0,03013	
11,34	-0,08439	72,01	201,79	0,03016	
11,36	-0,08275	72,05	203,08	0,03030	
11,38	-0,08104	71,05	204,29	0,03038	
11,40	-0,07926	69,52	205,53	0,03042	
11,42	-0,07752	68,76	206,85	0,03036	
11,44	-0,07584	68,66	208,20	0,03021	
11,46	-0,07419	68,72	209,56	0,03015	
11,48	-0,07251	68,73	210,96	0,03021	
11,50	-0,07077	68,69	212,39	0,03026	
11,52	-0,06899	67,75	213,84	0,03034	
11,54	-0,06719	66,28	215,26	0,03039	
11,56	-0,06540	65,50	216,70	0,03036	
11,58	-0,06362	65,36	218,12	0,03031	
11,60	-0,06182	65,76	219,54	0,03021	
11,62	-0,05991	67,20	220,99	0,03021	
11,64	-0,05804	68,39	222,44	0,03028	
11,66	-0,05623	68,84	223,88	0,03031	
11,68	-0,05455	68,89	225,29	0,03033	
11,70	-0,05284	67,93	226,70	0,03035	
11,72	-0,05107	66,38	228,12	0,03029	
11,74	-0,04928	65,58	229,53	0,03014	
11,76	-0,04749	65,41	230,91	0,03010	
11,78	-0,04570	65,44	232,30	0,03018	
11,80	-0,04379	65,41	233,71	0,03025	
11,82	-0,04192	65,33	235,11	0,03028	
11,84	-0,04010	65,36	236,48	0,03033	
11,86	-0,03830	65,41	237,83	0,03036	
11,88	-0,03642	65,36	239,22	0,03029	
11,90	-0,03456	65,26	240,69	0,03015	
11,92	-0,03268	65,21	242,16	0,03006	
11,94	-0,03077	65,27	243,63	0,03013	
11,96	-0,02893	65,32	245,08	0,03026	
11,98	-0,02704	65,27	246,53	0,03032	
12,00	-0,02518	65,27	247,98	0,03035	
12,02	-0,02337	64,98	249,41	0,03026	
12,04	-0,02156	63,56	250,82	0,03014	
12,06	-0,01965	62,36	252,26	0,03015	
12,08	-0,01779	61,91	253,68	0,03021	
12,10	-0,01591	61,78	255,09	0,03031	
12,12	-0,01401	61,81	256,54	0,03041	
12,14	-0,01216	61,96	258,02	0,03044	
12,16	-0,01025	61,73	259,86	0,03040	
12,18	-0,00838	60,32	262,77	0,03030	
12,20	-0,00652	59,05	266,69	0,03022	
12,22	-0,00456	58,59	270,31	0,03017	
12,24	-0,00260	58,61	272,57	0,03022	
12,26	-0,00074	58,69	274,10	0,03035	
12,28	0,00119	58,70	275,57	0,03040	
12,30	0,00318	58,62	277,16	0,03037	
12,32	0,00520	58,62	278,69	0,03027	
12,34	0,00720	58,65	280,15	0,03017	
12,36	0,00924	58,58	281,63	0,03015	
12,38	0,01137	57,95	283,00	0,03023	
12,40	0,01328	60,41	283,78	0,03033	
12,42	0,01502	69,49	283,96	0,03035	
12,44	0,01689	82,30	283,98	0,03030	
12,46	0,01880	95,34	284,11	0,03022	
12,48	0,02041	105,55	284,49	0,03014	
12,50	0,02152	111,50	285,02	0,03010	
12,52	0,02239	111,80	285,82	0,03016	
12,54	0,02323	111,00	286,56	0,03026	
12,56	0,02415	111,04	287,18	0,03036	
12,58	0,02516	112,45	287,84	0,03039	
12,60	0,02611	115,49	288,53	0,03030	
12,62	0,02697	118,36	289,19	0,03021	
12,64	0,02767	120,03	289,83	0,03017	
12,66	0,02838	119,00	290,46	0,03014	
12,68	0,02923	115,91	291,22	0,03020	
12,70	0,03010	112,14	292,13	0,03039	
12,72	0,03074	110,96	292,80	0,03051	
12,74	0,03151	111,11	293,21	0,03045	
12,76	0,03249	110,35	293,83	0,03026	
12,78	0,03362	109,04	294,81	0,03012	
12,80	0,03466	109,26	295,65	0,03013	
12,82	0,03540	111,76	296,10	0,03028	
12,84	0,03618	113,05	296,54	0,03036	
12,86	0,03708	112,25	297,32	0,03034	
12,88	0,03807	111,48	298,26	0,03035	
12,90	0,03881	112,65	298,92	0,03027	
12,92	0,03942	112,91	299,40	0,03014	
12,94	0,04024	111,44	300,05	0,03004	
12,96	0,04119	109,75	300,82	0,03008	
12,98	0,04198	110,53	301,50	0,03025	
13,00	0,04254	111,61	302,12	0,03035	
13,02	0,04318	110,22	302,80	0,03024	
13,04	0,04402	107,89	303,54	0,03018	
13,06	0,04480	106,90	304,25	0,03014	
13,08	0,04548	106,07	304,87	0,03008	
13,10	0,04612	104,98	305,51	0,03007	
13,12	0,04684	103,39	306,31	0,03019	
13,14	0,04769	102,66	307,04	0,03035	
13,16	0,04839	105,02	307,54	0,03042	
13,18	0,04914	104,92	308,27	0,03032	
13,20	0,04995	100,63	309,23	0,03024	
13,22	0,05059	99,45	309,89	0,03024	
13,24	0,05114	102,15	310,26	0,03020	
13,26	0,05186	101,55	310,85	0,03017	
13,28	0,05280	97,34	311,82	0,03026	
13,30	0,05359	94,50	312,78	0,03039	
13,32	0,05404	94,35	313,28	0,03038	
13,34	0,05453	94,75	313,64	0,03029	
13,36	0,05539	92,16	314,38	0,03021	
13,38	0,05644	89,06	315,42	0,03018	
13,40	0,05715	89,18	316,15	0,03020	
13,42	0,05753	91,68	316,50	0,03030	
13,44	0,05811	90,57	317,04	0,03035	
13,46	0,05893	85,49	318,01	0,03038	
13,48	0,05970	83,07	318,94	0,03037	
13,50	0,06020	83,63	319,47	0,03025	
13,52	0,06067	82,01	319,90	0,03017	
13,54	0,06147	77,57	320,59	0,03016	
13,56	0,06246	75,20	321,48	0,03024	
13,58	0,06313	76,99	322,10	0,03039	
13,60	0,06356	79,71	322,56	0,03044	
13,62	0,06425	76,79	323,34	0,03036	
13,64	0,06518	73,08	324,30	0,03023	
13,66	0,06585	74,00	324,96	0,03015	
13,68	0,06629	75,73	325,34	0,03017	
13,70	0,06688	72,98	325,95	0,03020	
13,72	0,06769	69,04	326,95	0,03024	
13,74	0,06838	68,83	327,82	0,03040	
13,76	0,06897	69,39	328,34	0,03041	
13,78	0,06958	67,97	328,79	0,03026	
13,80	0,07028	65,01	329,45	0,03012	
13,82	0,07106	63,90	330,33	0,03005	
13,84	0,07173	64,30	331,03	0,03013	
13,86	0,07227	65,14	331,53	0,03025	
13,88	0,07297	63,41	332,23	0,03035	
13,90	0,07389	60,77	333,12	0,03044	
13,92	0,07469	61,55	333,83	0,03036	
13,94	0,07532	63,53	334,34	0,03022	
13,96	0,07598	62,89	334,93	0,03018	
13,98	0,07676	59,94	335,74	0,03023	
14,00	0,07740	59,77	336,48	0,03037	
14,02	0,07801	61,22	337,09	0,03048	
14,04	0,07875	60,97	337,75	0,03049	
14,06	0,07962	59,36	338,49	0,03038	
14,08	0,08038	60,45	339,09	0,03022	
14,10	0,08101	62,88	339,67	0,03012	
14,12	0,08174	61,43	340,50	0,03014	
14,14	0,08247	59,42	341,36	0,03027	
14,16	0,08310	60,92	341,96	0,03044	
14,18	0,08371	63,16	342,47	0,03051	
14,20	0,08455	61,97	343,18	0,03044	
14,22	0,08546	60,63	344,01	0,03039	
14,24	0,08616	62,15	344,68	0,03027	
14,26	0,08677	63,85	345,21	0,03020	
14,28	0,08744	63,54	345,87	0,03026	
14,30	0,08822	61,58	346,71	0,03038	
14,32	0,08887	62,56	347,45	0,03047	
14,34	0,08947	64,37	348,01	0,03050	
14,36	0,09017	64,30	348,61	0,03043	
14,38	0,09109	63,09	349,43	0,03028	
14,40	0,09189	63,29	350,21	0,03022	
14,42	0,09252	65,36	350,82	0,03026	
14,44	0,09318	65,53	351,46	0,03032	
14,46	0,09385	65,09	352,07	0,03036	
14,48	0,09461	66,17	352,74	0,03043	
14,50	0,09536	66,04	353,54	0,03047	
14,52	0,09596	65,21	354,25	0,03041	
14,54	0,09666	66,07	354,87	0,03030	
14,56	0,09749	66,10	355,54	0,03026	
14,58	0,09820	65,97	356,19	0,03037	
14,60	0,09888	67,02	356,87	0,03053	
14,62	0,09958	67,75	357,59	0,03061	
14,64	0,1003	67,20	358,27	0,03056	
14,66	0,1009	67,53	358,92	0,03044	
14,68	0,1016	67,96	359,62	0,03033	
14,70	0,1023	67,31	360,34	0,03030	
14,72	0,1029	68,50	360,95	0,03036	
14,74	0,1035	71,03	361,56	0,03038	
14,76	0,1043	70,44	362,41	0,03039	
14,78	0,1050	68,68	363,22	0,03048	
14,80	0,1056	70,38	363,82	0,03054	
14,82	0,1062	72,31	364,38	0,03041	
14,84	0,1070	70,81	365,13	0,03020	
14,86	0,1079	69,53	365,90	0,03014	
14,88	0,1084	71,95	366,51	0,03021	
14,90	0,1089	73,02	367,14	0,03040	
14,92	0,1096	71,88	367,84	0,03050	
14,94	0,1103	72,06	368,52	0,03052	
14,96	0,1109	74,05	369,19	0,03036	
14,98	0,1116	74,01	369,89	0,03017	
15,00	0,1123	72,93	370,60	0,03015	
15,02	0,1129	75,50	371,15	0,03026	
15,04	0,1136	77,54	371,82	0,03037	
15,06	0,1144	74,79	372,80	0,03047	
15,08	0,1151	73,53	373,64	0,03050	
15,10	0,1155	75,45	374,12	0,03045	
15,12	0,1160	77,36	374,57	0,03033	
15,14	0,1166	76,18	375,35	0,03017	
15,16	0,1174	75,06	376,30	0,03014	
15,18	0,1180	76,34	376,95	0,03025	
15,20	0,1184	78,51	377,36	0,03042	
15,22	0,1190	77,81	378,02	0,03046	
15,24	0,1198	76,21	378,94	0,03042	
15,26	0,1204	79,05	379,67	0,03026	
15,28	0,1209	82,01	380,14	0,03014	
15,30	0,1214	81,14	380,76	0,03012	
15,32	0,1220	77,79	381,64	0,03023	
15,34	0,1225	78,57	382,38	0,03039	
15,36	0,1229	81,41	382,96	0,03047	
15,38	0,1234	80,66	383,58	0,03045	
15,40	0,1240	78,24	384,28	0,03040	
15,42	0,1245	79,18	384,94	0,03030	
15,44	0,1249	80,82	385,58	0,03021	
15,46	0,1255	78,91	386,35	0,03020	
15,48	0,1261	77,27	387,06	0,03035	
15,50	0,1265	78,55	387,65	0,03044	
15,52	0,1270	78,91	388,38	0,03045	
15,54	0,1275	77,38	389,16	0,03040	
15,56	0,1280	78,66	389,81	0,03027	
15,58	0,1285	80,80	390,40	0,03022	
15,60	0,1291	80,25	391,08	0,03018	
15,62	0,1297	79,21	391,82	0,03023	
15,64	0,1301	80,08	392,50	0,03031	
15,66	0,1305	80,01	393,15	0,03037	
15,68	0,1311	78,70	393,81	0,03039	
15,70	0,1316	77,87	394,53	0,03031	
15,72	0,1321	78,11	395,27	0,03020	
15,74	0,1326	78,32	395,94	0,03017	
15,76	0,1331	78,71	396,58	0,03022	
15,78	0,1337	78,26	397,32	0,03025	
15,80	0,1342	78,08	398,02	0,03033	
15,82	0,1346	79,29	398,63	0,03040	
15,84	0,1351	79,46	399,32	0,03037	
15,86	0,1357	78,19	400,07	0,03029	
15,88	0,1361	78,46	400,73	0,03019	
15,90	0,1366	79,16	401,38	0,03019	
15,92	0,1372	78,29	402,09	0,03032	
15,94	0,1377	78,43	402,78	0,03048	
15,96	0,1382	80,11	403,40	0,03051	
15,98	0,1387	80,06	404,07	0,03041	
16,00	0,1393	78,52	404,82	0,03031	
16,02	0,1397	78,52	405,54	0,03029	
16,04	0,1402	80,06	406,16	0,03031	
16,06	0,1408	80,14	406,82	0,03030	
16,08	0,1413	78,42	407,60	0,03036	
16,10	0,1417	78,89	408,29	0,03043	
16,12	0,1422	80,98	408,93	0,03045	
16,14	0,1428	81,16	409,62	0,03036	
16,16	0,1433	80,67	410,30	0,03025	
16,18	0,1437	81,75	410,95	0,03023	
16,20	0,1442	82,14	411,63	0,03034	
16,22	0,1448	80,74	412,41	0,03044	
16,24	0,1453	80,23	413,11	0,03055	
16,26	0,1457	81,59	413,71	0,03048	
16,28	0,1462	81,88	414,39	0,03031	
16,30	0,1468	81,26	415,10	0,03019	
16,32	0,1473	81,65	415,76	0,03016	
16,34	0,1478	81,82	416,43	0,03022	
16,36	0,1482	80,75	417,11	0,03034	
16,38	0,1487	80,25	417,82	0,03040	
16,40	0,1492	80,64	418,51	0,03044	
16,42	0,1497	80,89	419,18	0,03041	
16,44	0,1502	80,94	419,85	0,03030	
16,46	0,1507	81,49	420,53	0,03030	
16,48	0,1512	82,36	421,23	0,03032	
16,50	0,1517	82,96	421,90	0,03036	
16,52	0,1522	83,24	422,56	0,03045	
16,54	0,1527	83,16	423,28	0,03046	
16,56	0,1531	83,05	424,01	0,03044	
16,58	0,1536	83,71	424,70	0,03034	
16,60	0,1542	83,91	425,36	0,03025	
16,62	0,1547	83,75	426,02	0,03021	
16,64	0,1551	84,02	426,71	0,03025	
16,66	0,1556	84,32	427,42	0,03037	
16,68	0,1561	84,40	428,09	0,03044	
16,70	0,1565	84,45	428,76	0,03046	
16,72	0,1570	84,26	429,46	0,03047	
16,74	0,1576	84,50	430,14	0,03039	
16,76	0,1581	85,67	430,80	0,03026	
16,78	0,1585	85,48	431,50	0,03020	
16,80	0,1590	85,03	432,21	0,03032	
16,82	0,1596	86,03	432,89	0,03044	
16,84	0,1601	86,99	433,55	0,03048	
16,86	0,1605	86,96	434,21	0,03044	
16,88	0,1610	86,59	434,93	0,03033	
16,90	0,1614	86,40	435,66	0,03026	
16,92	0,1618	86,58	436,30	0,03029	
16,94	0,1623	86,33	436,95	0,03040	
16,96	0,1628	84,78	437,66	0,03046	
16,98	0,1633	84,42	438,36	0,03050	
17,00	0,1638	85,66	439,00	0,03048	
17,02	0,1643	86,30	439,68	0,03051	
17,04	0,1648	85,77	440,41	0,03103	
17,06	0,1652	86,20	441,11	0,03159	
17,08	0,1657	86,97	441,78	0,03191	
17,10	0,1661	86,07	442,47	0,03203	
17,12	0,1667	85,06	443,16	0,03212	
17,14	0,1672	85,62	443,83	0,03209	
17,16	0,1677	85,50	444,50	0,03203	
17,18	0,1681	84,71	445,16	0,03188	
17,20	0,1687	84,32	445,86	0,03180	
17,22	0,1693	84,20	446,57	0,03191	
17,24	0,1697	85,17	447,24	0,03198	
17,26	0,1702	85,87	447,94	0,03174	
17,28	0,1706	84,75	448,67	0,03102	
17,30	0,1710	84,58	449,33	0,03049	
17,32	0,1715	85,05	450,00	0,03029	
17,34	0,1721	85,40	450,69	0,03025	
17,36	0,1726	85,58	451,35	0,03030	
17,38	0,1730	86,03	452,02	0,03040	
17,40	0,1735	85,58	452,70	0,03048	
17,42	0,1740	85,12	453,37	0,03051	
17,44	0,1746	85,08	454,10	0,03048	
17,46	0,1751	84,73	454,81	0,03032	
17,48	0,1755	85,37	455,46	0,03019	
17,50	0,1760	85,72	456,15	0,03022	
17,52	0,1765	85,31	456,82	0,03032	
17,54	0,1770	86,29	457,45	0,03048	
17,56	0,1776	86,37	458,17	0,03059	
17,58	0,1780	84,53	458,92	0,03046	
17,60	0,1785	84,28	459,61	0,03032	
17,62	0,1789	85,49	460,23	0,03027	
17,64	0,1794	84,88	460,93	0,03027	
17,66	0,1799	83,89	461,67	0,03032	
17,68	0,1804	85,06	462,31	0,03041	
17,70	0,1809	85,42	462,96	0,03049	
17,72	0,1814	84,09	463,66	0,03046	
17,74	0,1818	84,27	464,34	0,03037	
17,76	0,1824	84,78	465,03	0,03024	
17,78	0,1830	83,78	465,75	0,03026	
17,80	0,1834	83,28	466,42	0,03035	
17,82	0,1838	83,71	467,09	0,03049	
17,84	0,1843	84,01	467,76	0,03058	
17,86	0,1847	83,77	468,42	0,03055	
17,88	0,1852	83,79	469,10	0,03041	
17,90	0,1858	82,74	469,82	0,03031	
17,92	0,1863	81,62	470,53	0,03026	
17,94	0,1867	81,18	471,20	0,03027	
17,96	0,1872	80,52	471,88	0,03036	
17,98	0,1877	80,16	472,55	0,03043	
18,00	0,1882	80,20	473,20	0,03046	
18,02	0,1887	80,07	473,91	0,03041	
18,04	0,1892	79,86	474,65	0,03028	
18,06	0,1897	80,78	475,32	0,03022	
18,08	0,1902	81,58	475,96	0,03022	
18,10	0,1908	80,87	476,64	0,03029	
18,12	0,1912	80,21	477,34	0,03046	
18,14	0,1917	80,30	478,01	0,03053	
18,16	0,1921	80,64	478,70	0,03051	
18,18	0,1926	79,46	479,43	0,03035	
18,20	0,1932	78,44	480,10	0,03020	
18,22	0,1936	79,25	480,72	0,03017	
18,24	0,1942	79,04	481,42	0,03023	
18,26	0,1948	78,16	482,14	0,03033	
18,28	0,1952	77,79	482,82	0,03046	
18,30	0,1957	77,45	483,49	0,03049	
18,32	0,1963	76,86	484,17	0,03041	
18,34	0,1968	77,09	484,87	0,03034	
18,36	0,1973	78,10	485,55	0,03025	
18,38	0,1977	79,21	486,23	0,03025	
18,40	0,1983	79,73	486,92	0,03040	
18,42	0,1988	79,67	487,61	0,03052	
18,44	0,1993	79,32	488,26	0,03057	
18,46	0,1997	78,66	488,96	0,03057	
18,48	0,2003	77,38	489,70	0,03042	
18,50	0,2008	77,71	490,37	0,03030	
18,52	0,2013	78,42	491,04	0,03027	
18,54	0,2019	78,13	491,74	0,03030	
18,56	0,2024	78,10	492,40	0,03038	
18,58	0,2028	78,54	493,07	0,03047	
18,60	0,2034	78,22	493,78	0,03055	
18,62	0,2039	77,93	494,48	0,03054	
18,64	0,2044	77,80	495,16	0,03041	
18,66	0,2050	77,76	495,82	0,03030	
18,68	0,2055	78,29	496,50	0,03032	
18,70	0,2060	79,23	497,17	0,03034	
18,72	0,2066	79,51	497,86	0,03039	
18,74	0,2071	78,56	498,57	0,03049	
18,76	0,2075	78,76	499,24	0,03052	
18,78	0,2080	78,93	499,93	0,03045	
18,80	0,2086	78,87	500,64	0,03032	
18,82	0,2091	78,88	501,30	0,03024	
18,84	0,2097	78,74	501,99	0,03030	
18,86	0,2102	78,14	502,70	0,03047	
18,88	0,2107	78,16	503,36	0,03061	
18,90	0,2112	78,37	504,05	0,03057	
18,92	0,2117	78,00	504,73	0,03046	
18,94	0,2122	78,82	505,36	0,03033	
18,96	0,2128	79,22	506,10	0,03026	
18,98	0,2134	78,34	506,84	0,03028	
19,00	0,2138	78,91	507,45	0,03031	
19,02	0,2142	79,89	508,12	0,03043	
19,04	0,2148	79,11	508,84	0,03052	
19,06	0,2153	79,02	509,51	0,03045	
19,08	0,2158	79,72	510,20	0,03030	
19,10	0,2163	78,57	510,89	0,03021	
19,12	0,2167	78,16	511,55	0,03024	
19,14	0,2173	78,11	512,25	0,03036	
19,16	0,2179	77,27	512,98	0,03048	
19,18	0,2184	76,86	513,63	0,03050	
19,20	0,2189	77,46	514,25	0,03044	
19,22	0,2195	77,26	515,00	0,03037	
19,24	0,2201	76,87	515,73	0,03027	
19,26	0,2205	79,03	516,31	0,03019	
19,28	0,2210	79,40	517,04	0,03026	
19,30	0,2216	77,62	517,79	0,03042	
19,32	0,2220	78,56	518,38	0,03054	
19,34	0,2226	78,89	519,13	0,03062	
19,36	0,2232	76,10	519,89	0,03061	
19,38	0,2236	75,63	520,47	0,03045	
19,40	0,2241	77,01	521,12	0,03030	
19,42	0,2246	75,41	521,85	0,03028	
19,44	0,2251	74,34	522,51	0,03037	
19,46	0,2258	75,51	523,21	0,03045	
19,48	0,2264	75,04	523,90	0,03051	
19,50	0,2268	74,80	524,54	0,03049	
19,52	0,2274	75,19	525,24	0,03039	
19,54	0,2281	74,82	525,89	0,03030	
19,56	0,2285	75,50	526,52	0,03028	
19,58	0,2292	75,08	527,32	0,03030	
19,60	0,2297	74,17	528,05	0,03046	
19,62	0,2301	74,94	528,67	0,03060	
19,64	0,2308	73,97	529,40	0,03067	
19,66	0,2313	72,27	530,06	0,03059	
19,68	0,2318	73,40	530,68	0,03036	
19,70	0,2324	73,22	531,42	0,03027	
19,72	0,2329	71,55	532,08	0,03035	
19,74	0,2335	72,35	532,72	0,03044	
19,76	0,2342	71,74	533,50	0,03051	
19,78	0,2348	70,65	534,16	0,03055	
19,80	0,2352	71,87	534,83	0,03053	
19,82	0,2359	70,76	535,61	0,03036	
19,84	0,2365	69,54	536,23	0,03023	
19,86	0,2370	70,65	536,88	0,03023	
19,88	0,2376	69,78	537,65	0,03032	
19,90	0,2382	69,17	538,24	0,03046	
19,92	0,2387	69,78	538,91	0,03057	
19,94	0,2394	67,51	539,70	0,03061	
19,96	0,2398	66,68	540,31	0,03048	
19,98	0,2405	67,49	540,98	0,03033	
20,00	0,2413	65,39	541,75	0,03034	
20,02	0,2418	64,75	542,36	0,03040	
20,04	0,2424	66,19	543,07	0,03043	
20,06	0,2430	64,41	543,78	0,03052	
20,08	0,2435	64,10	544,30	0,03058	
20,10	0,2442	64,80	545,04	0,03051	
20,12	0,2450	62,45	545,92	0,03038	
20,14	0,2456	61,84	546,56	0,03030	
20,16	0,2462	62,59	547,16	0,03024	
20,18	0,2468	60,25	547,80	0,03032	
20,20	0,2474	58,55	548,43	0,03047	
20,22	0,2480	58,50	549,17	0,03053	
20,24	0,2487	57,81	549,82	0,03057	
20,26	0,2492	57,88	550,40	0,03056	
20,28	0,2499	56,93	551,22	0,03037	
20,30	0,2507	55,04	552,05	0,03023	
20,32	0,2513	55,18	552,67	0,03026	
20,34	0,2520	54,13	553,35	0,03042	
20,36	0,2526	51,53	553,98	0,03051	
20,38	0,2533	51,04	554,58	0,03053	
20,40	0,2540	49,89	555,36	0,03046	
20,42	0,2547	47,13	556,05	0,03035	
20,44	0,2553	47,20	556,63	0,03030	
20,46	0,2560	46,41	557,43	0,03032	
20,48	0,2567	44,03	558,16	0,03035	
20,50	0,2575	44,61	558,77	0,03033	
20,52	0,2583	43,54	559,49	0,03043	
20,54	0,2590	40,05	560,12	0,03052	
20,56	0,2596	39,31	560,74	0,03047	
20,58	0,2604	38,50	561,52	0,03033	
20,60	0,2612	36,05	562,17	0,03029	
20,62	0,2619	35,89	562,79	0,03038	
20,64	0,2628	34,49	563,62	0,03049	
20,66	0,2635	32,48	564,32	0,03053	
20,68	0,2642	32,38	564,93	0,03050	
20,70	0,2651	30,69	565,64	0,03047	
20,72	0,2658	27,80	566,27	0,03039	
20,74	0,2667	27,50	566,92	0,03033	
20,76	0,2675	26,05	567,66	0,03034	
20,78	0,2681	24,40	568,28	0,03041	
20,80	0,2689	24,15	568,95	0,03046	
20,82	0,2699	21,59	569,77	0,03055	
20,84	0,2708	19,73	570,45	0,03053	
20,86	0,2716	19,60	571,07	0,03038	
20,88	0,2725	17,82	571,75	0,03021	
20,90	0,2733	16,06	572,38	0,03022	
20,92	0,2743	15,33	573,06	0,03031	
20,94	0,2752	13,08	573,81	0,03042	
20,96	0,2760	11,18	574,43	0,03052	
20,98	0,2769	10,42	575,10	0,03053	
21,00	0,2779	8,125	575,91	0,03048	
21,02	0,2788	6,782	576,57	0,03034	
21,04	0,2796	6,263	577,14	0,03025	
21,06	0,2807	3,642	577,92	0,03025	
21,08	0,2817	0,7586	578,65	0,03031	
21,10	0,2825	1,964	579,05	0,03040	
21,12	0,2834	2,584	579,64	0,03049	
21,14	0,2846	-1,821	580,79	0,03052	
21,16	0,2856	-5,633	581,81	0,03047	
21,18	0,2865	-4,182	582,12	0,03035	
21,20	0,2874	-2,764	582,27	0,03027	
21,22	0,2885	-6,069	583,11	0,03026	
21,24	0,2898	-10,71	584,43	0,03032	
21,26	0,2908	-12,52	585,24	0,03041	
21,28	0,2915	-11,73	585,43	0,03048	
21,30	0,2925	-13,86	585,96	0,03048	
21,32	0,2939	-19,05	587,05	0,03036	
21,34	0,2952	-20,34	587,86	0,03028	
21,36	0,2962	-17,52	588,07	0,03031	
21,38	0,2972	-18,53	588,40	0,03041	
21,40	0,2985	-24,26	589,44	0,03043	
21,42	0,2997	-28,43	590,68	0,03041	
21,44	0,3007	-28,26	591,27	0,03036	
21,46	0,3015	-25,85	591,39	0,03026	
21,48	0,3026	-27,42	592,01	0,03021	
21,50	0,3040	-31,91	593,18	0,03026	
21,52	0,3053	-34,41	594,03	0,03033	
21,54	0,3061	-32,99	594,22	0,03039	
21,56	0,3072	-34,66	594,59	0,03046	
21,58	0,3086	-39,42	595,64	0,03048	
21,60	0,3100	-42,35	596,80	0,03032	
21,62	0,3110	-41,00	597,30	0,03017	
21,64	0,3120	-40,56	597,51	0,03015	
21,66	0,3133	-44,71	598,29	0,03020	
21,68	0,3148	-49,19	599,44	0,03034	
21,70	0,3161	-49,26	600,09	0,03046	
21,72	0,3169	-45,49	600,22	0,03048	
21,74	0,3180	-46,77	600,74	0,03038	
21,76	0,3194	-50,73	601,93	0,03028	
21,78	0,3208	-52,81	603,06	0,03019	
21,80	0,3220	-50,69	603,51	0,03019	
21,82	0,3232	-50,65	603,89	0,03023	
21,84	0,3247	-54,18	604,78	0,03030	
21,86	0,3261	-54,57	605,61	0,03038	
21,88	0,3272	-50,84	606,04	0,03033	
21,90	0,3282	-49,70	606,51	0,03021	
21,92	0,3295	-53,33	607,40	0,03012	
21,94	0,3308	-54,29	608,30	0,03018	
21,96	0,3321	-49,56	608,84	0,03033	
21,98	0,3334	-46,76	609,38	0,03046	
22,00	0,3348	-46,96	610,08	0,03049	
22,02	0,3360	-44,59	610,73	0,03043	
22,04	0,3370	-40,01	611,33	0,03030	
22,06	0,3382	-38,79	612,12	0,03023	
22,08	0,3395	-38,30	612,86	0,03025	
22,10	0,3407	-33,41	613,42	0,03035	
22,12	0,3419	-29,60	614,17	0,03040	
22,14	0,3430	-28,44	614,98	0,03047	
22,16	0,3441	-23,99	615,59	0,03051	
22,18	0,3452	-19,63	616,25	0,03042	
22,20	0,3463	-17,35	616,94	0,03029	
22,22	0,3475	-13,28	617,58	0,03019	
22,24	0,3486	-8,961	618,29	0,03022	
22,26	0,3495	-6,595	618,98	0,03033	
22,28	0,3504	-3,610	619,64	0,03043	
22,30	0,3515	-0,05489	620,36	0,03043	
22,32	0,3524	3,526	621,00	0,03036	
22,34	0,3533	8,472	621,65	0,03028	
22,36	0,3542	12,03	622,41	0,03028	
22,38	0,3551	14,88	623,08	0,03030	
22,40	0,3560	19,45	623,73	0,03029	
22,42	0,3569	22,36	624,47	0,03041	
22,44	0,3578	24,07	625,13	0,03052	
22,46	0,3586	27,32	625,79	0,03050	
22,48	0,3594	29,57	626,51	0,03036	
22,50	0,3602	32,39	627,15	0,03020	
22,52	0,3610	36,35	627,84	0,03017	
22,54	0,3618	37,85	628,60	0,03028	
22,56	0,3625	39,18	629,24	0,03046	
22,58	0,3633	42,23	629,89	0,03052	
22,60	0,3641	43,79	630,62	0,03052	
22,62	0,3647	45,28	631,28	0,03042	
22,64	0,3654	47,67	631,99	0,03028	
22,66	0,3661	48,38	632,68	0,03030	
22,68	0,3667	49,16	633,26	0,03034	
22,70	0,3674	50,53	634,01	0,03046	
22,72	0,3682	51,01	634,80	0,03048	
22,74	0,3687	53,47	635,40	0,03048	
22,76	0,3694	55,27	636,07	0,03038	
22,78	0,3701	54,38	636,79	0,03024	
22,80	0,3707	55,23	637,42	0,03017	
22,82	0,3715	56,61	638,15	0,03025	
22,84	0,3722	55,61	638,83	0,03043	
22,86	0,3728	56,39	639,42	0,03052	
22,88	0,3735	57,09	640,18	0,03050	
22,90	0,3741	55,76	640,96	0,03045	
22,92	0,3746	57,00	641,58	0,03036	
22,94	0,3752	57,73	642,26	0,03028	
22,96	0,3759	56,17	642,92	0,03024	
22,98	0,3765	57,06	643,55	0,03026	
23,00	0,3772	57,59	644,32	0,03041	
23,02	0,3779	56,27	644,97	0,03050	
23,04	0,3785	57,13	645,56	0,03045	
23,06	0,3792	56,74	646,35	0,03037	
23,08	0,3799	54,78	647,08	0,03029	
23,10	0,3805	55,58	647,69	0,03028	
23,12	0,3810	55,88	648,38	0,03035	
23,14	0,3816	53,97	649,04	0,03042	
23,16	0,3822	53,25	649,70	0,03051	
23,18	0,3829	52,48	650,47	0,03052	
23,20	0,3835	51,83	651,10	0,03044	
23,22	0,3842	52,44	651,78	0,03028	
23,24	0,3849	51,82	652,57	0,03019	
23,26	0,3855	51,93	653,17	0,03026	
23,28	0,3862	53,07	653,82	0,03032	
23,30	0,3870	50,97	654,60	0,03034	
23,32	0,3876	49,80	655,18	0,03036	
23,34	0,3881	50,45	655,84	0,03031	
23,36	0,3887	47,82	656,68	0,03030	
23,38	0,3894	46,41	657,35	0,03025	
23,40	0,3900	47,14	657,98	0,03024	
23,42	0,3907	45,24	658,70	0,03034	
23,44	0,3914	44,06	659,31	0,03047	
23,46	0,3922	45,22	659,99	0,03053	
23,48	0,3930	43,81	660,74	0,03045	
23,50	0,3936	42,48	661,35	0,03034	
23,52	0,3943	42,68	662,04	0,03028	
23,54	0,3950	41,36	662,82	0,03024	
23,56	0,3956	41,18	663,45	0,03026	
23,58	0,3963	41,75	664,13	0,03040	
23,60	0,3970	40,40	664,82	0,03050	
23,62	0,3976	40,22	665,43	0,03053	
23,64	0,3983	40,43	666,18	0,03045	
23,66	0,3990	38,83	666,87	0,03026	
23,68	0,3996	39,40	667,43	0,03013	
23,70	0,4004	39,40	668,23	0,03017	
23,72	0,4013	36,82	669,07	0,03030	
23,74	0,4020	36,90	669,68	0,03040	
23,76	0,4027	36,99	670,28	0,03040	
23,78	0,4034	34,65	670,98	0,03033	
23,80	0,4040	34,19	671,62	0,03023	
23,82	0,4047	35,68	672,25	0,03014	
23,84	0,4055	34,17	673,01	0,03020	
23,86	0,4064	33,26	673,70	0,03036	
23,88	0,4070	35,22	674,23	0,03044	
23,90	0,4077	35,21	675,00	0,03047	
23,92	0,4087	32,29	675,93	0,03043	
23,94	0,4094	32,60	676,58	0,03030	
23,96	0,4100	33,99	677,12	0,03023	
23,98	0,4107	32,31	677,79	0,03017	
24,00	0,4115	30,60	678,47	0,03016	
24,02	0,4123	31,59	679,08	0,03034	
24,04	0,4131	30,97	679,77	0,03055	
24,06	0,4138	28,07	680,56	0,03058	
24,08	0,4146	28,70	681,20	0,03048	
24,10	0,4154	30,57	681,86	0,03037	
24,12	0,4162	29,36	682,62	0,03027	
24,14	0,4169	28,94	683,24	0,03022	
24,16	0,4177	29,61	683,91	0,03028	
24,18	0,4185	28,00	684,68	0,03035	
24,20	0,4193	26,73	685,28	0,03042	
24,22	0,4201	27,71	685,96	0,03040	
24,24	0,4209	25,79	686,81	0,03029	
24,26	0,4216	24,27	687,48	0,03017	
24,28	0,4224	25,49	688,07	0,03016	
24,30	0,4232	24,03	688,77	0,03018	
24,32	0,4240	22,19	689,41	0,03030	
24,34	0,4248	23,30	689,99	0,03040	
24,36	0,4256	21,48	690,77	0,03045	
24,38	0,4266	18,69	691,55	0,03045	
24,40	0,4273	20,75	692,05	0,03036	
24,42	0,4281	22,47	692,67	0,03020	
24,44	0,4291	19,27	693,69	0,03011	
24,46	0,4301	17,67	694,54	0,03027	
24,48	0,4308	20,49	694,95	0,03043	
24,50	0,4315	21,08	695,40	0,03049	
24,52	0,4324	16,44	696,30	0,03047	
24,54	0,4334	13,58	697,20	0,03034	
24,56	0,4342	15,82	697,76	0,03025	
24,58	0,4350	15,15	698,32	0,03027	
24,60	0,4359	11,61	698,98	0,03025	
24,62	0,4368	12,29	699,49	0,03035	
24,64	0,4377	15,64	699,72	0,03045	
24,66	0,4384	18,93	699,69	0,03043	
24,68	0,4392	24,96	699,53	0,03029	
24,70	0,4400	32,18	699,46	0,03020	
24,72	0,4409	36,82	699,56	0,03024	
24,74	0,4417	40,38	699,70	0,03024	
24,76	0,4423	45,98	699,65	0,03029	
24,78	0,4429	52,84	699,51	0,03039	
24,80	0,4436	58,36	699,47	0,03048	
24,82	0,4444	63,19	699,60	0,03042	
24,84	0,4451	69,01	699,70	0,03031	
24,86	0,4455	75,31	699,63	0,03030	
24,88	0,4459	80,28	699,50	0,03039	
24,90	0,4463	83,74	699,48	0,03044	
24,92	0,4470	87,00	699,61	0,03046	
24,94	0,4474	90,83	699,67	0,03050	
24,96	0,4477	95,01	699,57	0,03049	
24,98	0,4480	98,30	699,47	0,03039	
25,00	0,4484	100,45	699,53	0,03025	
25,02	0,4488	102,33	699,66	0,03025	
25,04	0,4491	105,94	699,65	0,03038	
25,06	0,4493	110,05	699,52	0,03048	
25,08	0,4495	111,68	699,47	0,03052	
25,10	0,4499	112,64	699,58	0,03048	
25,12	0,4502	114,92	699,68	0,03035	
25,14	0,4503	117,81	699,62	0,03031	
25,16	0,4505	119,42	699,50	0,03032	
25,18	0,4507	120,36	699,48	0,03029	
25,20	0,4510	121,51	699,61	0,03031	
25,22	0,4513	123,50	699,69	0,03041	
25,24	0,4514	125,47	699,59	0,03045	
25,26	0,4514	126,56	699,47	0,03033	
25,28	0,4516	127,65	699,51	0,03022	
25,30	0,4520	128,55	699,68	0,03015	
25,32	0,4522	130,30	699,70	0,03017	
25,34	0,4521	132,30	699,57	0,03028	
25,36	0,4521	133,10	699,46	0,03046	
25,38	0,4524	132,81	699,53	0,03050	
25,40	0,4528	132,87	699,67	0,03045	
25,42	0,4529	134,38	699,66	0,03029	
25,44	0,4528	135,97	699,53	0,03018	
25,46	0,4528	136,55	699,45	0,03022	
25,48	0,4531	136,10	699,57	0,03034	
25,50	0,4534	136,34	699,70	0,03044	
25,52	0,4535	138,18	699,64	0,03049	
25,54	0,4534	139,67	699,50	0,03046	
25,56	0,4534	139,88	699,46	0,03033	
25,58	0,4535	139,22	699,60	0,03017	
25,60	0,4536	138,77	699,72	0,03012	
25,62	0,4536	139,27	699,64	0,03024	
25,64	0,4539	139,83	699,50	0,03033	
25,66	0,4541	139,74	699,49	0,03041	
25,68	0,4542	139,87	699,61	0,03047	
25,70	0,4542	141,25	699,66	0,03042	
25,72	0,4541	142,60	699,55	0,03036	
25,74	0,4541	141,99	699,44	0,03027	
25,76	0,4544	140,10	699,57	0,03018	
25,78	0,4548	139,72	699,77	0,03028	
25,80	0,4548	141,33	699,75	0,03043	
25,82	0,4547	143,12	699,58	0,03048	
25,84	0,4547	144,03	699,50	0,03043	
25,86	0,4548	143,61	699,56	0,03031	
25,88	0,4548	144,14	699,59	0,03022	
25,90	0,4548	144,31	699,52	0,03016	
25,92	0,4549	142,94	699,48	0,03020	
25,94	0,4553	140,55	699,58	0,03032	
25,96	0,4555	140,05	699,68	0,03045	
25,98	0,4555	143,12	699,61	0,03052	
26,00	0,4554	145,82	699,47	0,03045	
26,02	0,4554	144,96	699,51	0,03029	
26,04	0,4555	143,14	699,68	0,03019	
26,06	0,4555	143,96	699,68	0,03022	
26,08	0,4554	145,72	699,54	0,03034	
26,10	0,4555	145,11	699,46	0,03042	
26,12	0,4559	143,26	699,58	0,03042	
26,14	0,4562	142,27	699,69	0,03041	
26,16	0,4562	142,68	699,62	0,03031	
26,18	0,4561	143,07	699,48	0,03021	
26,20	0,4561	141,57	699,51	0,03021	
26,22	0,4562	140,28	699,67	0,03027	
26,24	0,4562	142,04	699,68	0,03037	
26,26	0,4561	144,81	699,54	0,03049	
26,28	0,4562	143,57	699,47	0,03050	
26,30	0,4566	141,19	699,59	0,03043	
26,32	0,4569	141,47	699,67	0,03025	
26,34	0,4568	143,40	699,58	0,03016	
26,36	0,4568	143,27	699,45	0,03027	
26,38	0,4569	140,82	699,55	0,03038	
26,40	0,4570	139,97	699,73	0,03047	
26,42	0,4569	142,60	699,69	0,03056	
26,44	0,4568	144,20	699,52	0,03055	
26,46	0,4570	142,33	699,49	0,03039	
26,48	0,4574	140,08	699,63	0,03028	
26,50	0,4576	140,71	699,67	0,03026	
26,52	0,4575	142,44	699,54	0,03032	
26,54	0,4574	141,99	699,45	0,03042	
26,56	0,4575	139,54	699,60	0,03046	
26,58	0,4576	138,88	699,75	0,03044	
26,60	0,4575	141,06	699,68	0,03033	
26,62	0,4575	142,84	699,50	0,03027	
26,64	0,4579	141,72	699,49	0,03028	
26,66	0,4582	140,33	699,65	0,03033	
26,68	0,4583	141,18	699,67	0,03044	
26,70	0,4581	142,64	699,53	0,03058	
26,72	0,4581	141,31	699,46	0,03060	
26,74	0,4582	139,11	699,62	0,03047	
26,76	0,4583	139,37	699,73	0,03034	
26,78	0,4582	141,64	699,61	0,03028	
26,80	0,4583	142,42	699,47	0,03028	
26,82	0,4587	140,65	699,54	0,03027	
26,84	0,4589	139,25	699,68	0,03034	
26,86	0,4589	140,58	699,64	0,03044	
26,88	0,4587	141,82	699,48	0,03050	
26,90	0,4588	139,53	699,48	0,03043	
26,92	0,4590	136,73	699,68	0,03031	
26,94	0,4594	137,78	699,74	0,03033	
26,96	0,4594	140,63	699,59	0,03040	
26,98	0,4594	140,36	699,46	0,03042	
27,00	0,4595	137,85	699,55	0,03051	
27,02	0,4596	137,31	699,69	0,03058	
27,04	0,4595	138,76	699,64	0,03051	
27,06	0,4594	139,83	699,48	0,03030	
27,08	0,4597	138,56	699,48	0,03022	
27,10	0,4601	136,60	699,67	0,03030	
27,12	0,4602	137,19	699,72	0,03042	
27,14	0,4601	139,19	699,58	0,03052	
27,16	0,4601	139,33	699,47	0,03052	
27,18	0,4602	137,37	699,55	0,03045	
27,20	0,4603	136,51	699,67	0,03027	
27,22	0,4602	138,10	699,62	0,03020	
27,24	0,4604	138,97	699,47	0,03021	
27,26	0,4607	137,58	699,50	0,03028	
27,28	0,4609	136,07	699,69	0,03036	
27,30	0,4609	136,97	699,73	0,03045	
27,32	0,4608	139,07	699,57	0,03051	
27,34	0,4608	139,30	699,46	0,03042	
27,36	0,4611	137,23	699,57	0,03024	
27,38	0,4615	136,43	699,68	0,03022	
27,40	0,4615	138,14	699,59	0,03032	
27,42	0,4614	138,86	699,45	0,03040	
27,44	0,4615	136,49	699,52	0,03051	
27,46	0,4616	134,57	699,73	0,03054	
27,48	0,4616	136,33	699,74	0,03047	
27,50	0,4615	138,96	699,56	0,03043	
27,52	0,4617	138,54	699,48	0,03035	
27,54	0,4621	136,67	699,60	0,03026	
27,56	0,4623	137,02	699,67	0,03027	
27,58	0,4622	138,96	699,55	0,03037	
27,60	0,4621	139,10	699,44	0,03048	
27,62	0,4623	135,71	699,58	0,03049	
27,64	0,4627	133,67	699,74	0,03039	
27,66	0,4629	136,10	699,67	0,03029	
27,68	0,4628	138,74	699,50	0,03025	
27,70	0,4628	137,56	699,48	0,03032	
27,72	0,4629	135,93	699,62	0,03044	
27,74	0,4629	136,87	699,66	0,03051	
27,76	0,4629	138,81	699,53	0,03051	
27,78	0,4631	137,96	699,44	0,03044	
27,80	0,4634	135,30	699,59	0,03031	
27,82	0,4636	134,56	699,77	0,03018	
27,84	0,4636	136,81	699,71	0,03018	
27,86	0,4634	139,16	699,52	0,03027	
27,88	0,4635	138,45	699,48	0,03038	
27,90	0,4639	136,62	699,62	0,03044	
27,92	0,4642	137,14	699,65	0,03044	
27,94	0,4642	138,41	699,51	0,03026	
27,96	0,4641	137,13	699,44	0,03010	
27,98	0,4643	134,25	699,62	0,03011	
28,00	0,4643	134,54	699,78	0,03023	
28,02	0,4643	137,50	699,70	0,03037	
28,04	0,4643	139,61	699,51	0,03043	
28,06	0,4646	138,43	699,51	0,03043	
28,08	0,4649	137,03	699,62	0,03033	
28,10	0,4649	138,12	699,59	0,03021	
28,12	0,4648	138,78	699,45	0,03012	
28,14	0,4648	135,62	699,49	0,03011	
28,16	0,4651	132,50	699,72	0,03017	
28,18	0,4654	134,03	699,78	0,03021	
28,20	0,4655	137,91	699,61	0,03027	
28,22	0,4654	139,25	699,45	0,03027	
28,24	0,4656	137,37	699,54	0,03019	
28,26	0,4657	136,34	699,69	0,03009	
28,28	0,4656	137,24	699,64	0,03007	
28,30	0,4655	137,35	699,47	0,03014	
28,32	0,4658	135,79	699,48	0,03024	
28,34	0,4662	134,29	699,68	0,03031	
28,36	0,4663	135,41	699,74	0,03031	
28,38	0,4662	138,15	699,59	0,03023	
28,40	0,4662	137,88	699,47	0,03008	
28,42	0,4663	136,11	699,53	0,02997	
28,44	0,4667	136,02	699,65	0,03000	
28,46	0,4669	137,99	699,61	0,03014	
28,48	0,4668	139,19	699,47	0,03026	
28,50	0,4669	137,83	699,48	0,03026	
28,52	0,4670	136,15	699,69	0,03021	
28,54	0,4670	137,02	699,75	0,03012	
28,56	0,4669	139,12	699,60	0,02998	
28,58	0,4671	139,39	699,46	0,02997	
28,60	0,4675	137,51	699,53	0,03010	
28,62	0,4677	136,65	699,66	0,03024	
28,64	0,4676	138,20	699,61	0,03035	
28,66	0,4675	138,98	699,47	0,03037	
28,68	0,4676	136,77	699,50	0,03034	
28,70	0,4679	134,66	699,70	0,03026	
28,72	0,4682	136,17	699,76	0,03027	
28,74	0,4682	138,94	699,60	0,03038	
28,76	0,4682	139,48	699,47	0,03048	
28,78	0,4683	137,42	699,57	0,03056	
28,80	0,4684	136,56	699,68	0,03068	
28,82	0,4683	138,29	699,59	0,03064	
28,84	0,4682	139,00	699,45	0,03046	
28,86	0,4685	136,06	699,54	0,03033	
28,88	0,4689	133,87	699,73	0,03035	
28,90	0,4690	136,04	699,71	0,03050	
28,92	0,4689	138,91	699,54	0,03056	
28,94	0,4688	138,59	699,47	0,03055	
28,96	0,4690	136,81	699,59	0,03051	
28,98	0,4690	137,11	699,66	0,03045	
29,00	0,4691	138,75	699,55	0,03039	
29,02	0,4693	138,62	699,43	0,03037	
29,04	0,4695	136,31	699,57	0,03046	
29,06	0,4697	135,02	699,76	0,03050	
29,08	0,4697	136,86	699,73	0,03050	
29,10	0,4695	139,09	699,54	0,03047	
29,12	0,4696	138,40	699,48	0,03028	
29,14	0,4701	136,64	699,60	0,02998	
29,16	0,4703	137,12	699,64	0,02962	
29,18	0,4703	138,88	699,51	0,02942	
29,20	0,4702	137,93	699,44	0,02934	
29,22	0,4703	134,61	699,61	0,02916	
29,24	0,4704	134,44	699,77	0,02882	
29,26	0,4704	137,41	699,69	0,02826	
29,28	0,4705	139,53	699,49	0,02744	
29,30	0,4708	138,41	699,48	0,02688	
29,32	0,4710	136,37	699,67	0,02677	
29,34	0,4710	137,01	699,72	0,02684	
29,36	0,4709	138,92	699,57	0,02671	
29,38	0,4708	138,69	699,44	0,02648	
29,40	0,4712	136,90	699,55	0,02634	
29,42	0,4716	136,34	699,74	0,02620	
29,44	0,4717	137,96	699,72	0,02606	
29,46	0,4715	139,51	699,54	0,02599	
29,48	0,4715	138,48	699,48	0,02595	
29,50	0,4717	136,64	699,60	0,02591	
29,52	0,4717	137,06	699,64	0,02593	
29,54	0,4716	138,87	699,52	0,02589	
29,56	0,4718	139,15	699,45	0,02578	
29,58	0,4722	136,53	699,62	0,02561	
29,60	0,4724	135,61	699,76	0,02540	
29,62	0,4723	139,03	699,67	0,02536	
29,64	0,4722	141,58	699,49	0,02540	
29,66	0,4724	139,58	699,48	0,02543	
29,68	0,4728	137,18	699,64	0,02544	
29,70	0,4730	137,68	699,68	0,02539	
29,72	0,4729	139,11	699,54	0,02527	
29,74	0,4729	138,52	699,45	0,02515	
29,76	0,4730	136,60	699,59	0,02490	
29,78	0,4731	136,27	699,74	0,02463	
29,80	0,4730	139,19	699,67	0,02440	
29,82	0,4730	140,84	699,50	0,02419	
29,84	0,4733	139,17	699,47	0,02388	
29,86	0,4737	137,89	699,62	0,02351	
29,88	0,4738	138,31	699,68	0,02307	
29,90	0,4737	139,40	699,56	0,02258	
29,92	0,4736	139,48	699,44	0,02207	
29,94	0,4738	138,00	699,56	0,02153	
29,96	0,4742	137,01	699,75	0,02110	
29,98	0,4743	139,28	699,71	0,02053	
30,00	0,4742	140,82	699,54	0,01995	
30,02	0,4742	139,68	699,47	0,01943	
30,04	0,4744	138,72	699,59	0,01913	
30,06	0,4744	138,71	699,69	0,01904	
30,08	0,4743	139,44	699,58	0,01892	
30,10	0,4743	139,62	699,44	0,01753	
30,12	0,4747	138,29	699,54	0,01580	
30,14	0,4750	137,05	699,77	0,01498	
30,16	0,4751	138,47	699,80	0,01465	
30,18	0,4749	140,30	699,60	0,01443	
30,20	0,4749	140,04	699,47	0,01429	
30,22	0,4750	138,91	699,56	0,01434	
30,24	0,4752	139,22	699,64	0,01449	
30,26	0,4754	140,27	699,55	0,01459	
30,28	0,4755	139,66	699,45	0,01461	
30,30	0,4757	136,66	699,56	0,01458	
30,32	0,4758	135,89	699,72	0,01441	
30,34	0,4757	139,19	699,68	0,01422	
30,36	0,4756	141,67	699,51	0,01415	
30,38	0,4756	139,93	699,47	0,01424	
30,40	0,4760	138,20	699,60	0,01432	
30,42	0,4763	138,32	699,68	0,01436	
30,44	0,4763	139,39	699,56	0,01432	
30,46	0,4762	139,41	699,45	0,01424	
30,48	0,4763	137,35	699,56	0,01418	
30,50	0,4764	136,50	699,72	0,01417	
30,52	0,4763	139,35	699,66	0,01425	
30,54	0,4762	141,70	699,49	0,01432	
30,56	0,4764	139,72	699,48	0,01434	
30,58	0,4768	137,20	699,66	0,01431	
30,60	0,4771	137,71	699,72	0,01421	
30,62	0,4770	139,42	699,58	0,01409	
30,64	0,4769	139,51	699,46	0,01398	
30,66	0,4770	137,42	699,56	0,01398	
30,68	0,4771	136,43	699,70	0,01408	
30,70	0,4770	138,10	699,65	0,01426	
30,72	0,4770	139,09	699,49	0,01439	
30,74	0,4774	137,77	699,49	0,01436	
30,76	0,4777	136,19	699,64	0,01421	
30,78	0,4777	137,07	699,68	0,01411	
30,80	0,4776	138,85	699,54	0,01408	
30,82	0,4776	138,94	699,44	0,01412	
30,84	0,4777	137,30	699,58	0,01422	
30,86	0,4780	136,51	699,75	0,01430	
30,88	0,4783	138,05	699,69	0,01426	
30,90	0,4783	139,57	699,51	0,01416	
30,92	0,4783	138,54	699,49	0,01397	
30,94	0,4784	137,06	699,63	0,01391	
30,96	0,4784	137,90	699,67	0,01400	
30,98	0,4783	139,35	699,54	0,01412	
31,00	0,4783	138,79	699,44	0,01415	
31,02	0,4786	136,80	699,58	0,01419	
31,04	0,4790	136,21	699,76	0,01421	
31,06	0,4790	137,91	699,71	0,01413	
31,08	0,4789	139,61	699,53	0,01405	
31,10	0,4789	138,73	699,47	0,01408	
31,12	0,4790	137,20	699,61	0,01425	
31,14	0,4791	137,61	699,70	0,01441	
31,16	0,4790	139,12	699,59	0,01433	
31,18	0,4790	139,45	699,45	0,01423	
31,20	0,4794	137,48	699,53	0,01412	
31,22	0,4797	136,31	699,74	0,01400	
31,24	0,4797	137,77	699,74	0,01403	
31,26	0,4796	139,40	699,56	0,01414	
31,28	0,4796	139,15	699,45	0,01424	
31,30	0,4798	138,12	699,57	0,01426	
31,32	0,4802	138,21	699,71	0,01426	
31,34	0,4803	139,27	699,63	0,01419	
31,36	0,4802	140,05	699,47	0,01401	
31,38	0,4803	138,68	699,48	0,01389	
31,40	0,4804	136,59	699,69	0,01396	
31,42	0,4804	137,11	699,76	0,01414	
31,44	0,4803	139,13	699,61	0,01423	
31,46	0,4803	139,42	699,48	0,01428	
31,48	0,4806	138,15	699,54	0,01421	
31,50	0,4810	138,04	699,66	0,01403	
31,52	0,4810	139,06	699,61	0,01398	
31,54	0,4809	139,84	699,47	0,01401	
31,56	0,4810	138,42	699,49	0,01403	
31,58	0,4811	137,12	699,67	0,01411	
31,60	0,4811	139,33	699,69	0,01422	
31,62	0,4810	142,25	699,53	0,01419	
31,64	0,4812	141,93	699,46	0,01407	
31,66	0,4816	139,28	699,61	0,01397	
31,68	0,4818	139,01	699,71	0,01398	
31,70	0,4817	141,38	699,60	0,01412	
31,72	0,4816	141,41	699,46	0,01425	
31,74	0,4816	139,06	699,54	0,01427	
31,76	0,4818	138,00	699,71	0,01422	
31,78	0,4817	140,05	699,66	0,01407	
31,80	0,4817	142,36	699,50	0,01391	
31,82	0,4820	140,40	699,50	0,01387	
31,84	0,4823	137,73	699,64	0,01396	
31,86	0,4824	139,30	699,64	0,01412	
31,88	0,4823	142,15	699,49	0,01421	
31,90	0,4823	141,29	699,47	0,01415	
31,92	0,4824	137,76	699,68	0,01405	
31,94	0,4824	137,71	699,80	0,01400	
31,96	0,4824	140,86	699,66	0,01390	
31,98	0,4825	142,41	699,50	0,01381	
32,00	0,4829	140,91	699,52	0,01387	
32,02	0,4831	139,92	699,63	0,01396	
32,04	0,4831	141,43	699,60	0,01401	
32,06	0,4829	142,47	699,46	0,01403	
32,08	0,4829	140,55	699,48	0,01393	
32,10	0,4831	137,76	699,72	0,01387	
32,12	0,4832	138,45	699,83	0,01383	
32,14	0,4835	141,30	699,68	0,01393	
32,16	0,4835	143,19	699,49	0,01405	
32,18	0,4836	141,97	699,51	0,01414	
32,20	0,4837	141,05	699,64	0,01416	
32,22	0,4837	142,00	699,60	0,01400	
32,24	0,4836	142,37	699,46	0,01384	
32,26	0,4836	139,09	699,51	0,01385	
32,28	0,4839	136,40	699,72	0,01393	
32,30	0,4842	138,64	699,76	0,01405	
32,32	0,4843	141,93	699,59	0,01420	
32,34	0,4843	142,06	699,46	0,01423	
32,36	0,4844	140,36	699,56	0,01414	
32,38	0,4844	140,33	699,70	0,01401	
32,40	0,4844	141,96	699,64	0,01391	
32,42	0,4843	142,56	699,48	0,01391	
32,44	0,4843	141,06	699,49	0,01395	
32,46	0,4847	139,43	699,67	0,01401	
32,48	0,4850	140,20	699,73	0,01408	
32,50	0,4850	142,26	699,59	0,01403	
32,52	0,4849	142,64	699,45	0,01392	
32,54	0,4850	140,67	699,55	0,01381	
32,56	0,4851	139,65	699,73	0,01388	
32,58	0,4851	141,29	699,70	0,01398	
32,60	0,4850	142,88	699,54	0,01407	
32,62	0,4851	142,03	699,47	0,01412	
32,64	0,4855	140,15	699,58	0,01410	
32,66	0,4857	140,29	699,67	0,01397	
32,68	0,4857	142,08	699,57	0,01386	
32,70	0,4856	142,69	699,44	0,01383	
32,72	0,4857	140,94	699,52	0,01383	
32,74	0,4858	139,73	699,72	0,01391	
32,76	0,4858	141,50	699,73	0,01404	
32,78	0,4856	143,65	699,56	0,01412	
32,80	0,4857	143,13	699,46	0,01409	
32,82	0,4861	141,29	699,57	0,01394	
32,84	0,4864	141,31	699,68	0,01387	
32,86	0,4864	142,51	699,60	0,01389	
32,88	0,4863	142,80	699,46	0,01393	
32,90	0,4864	141,00	699,51	0,01399	
32,92	0,4865	139,94	699,70	0,01403	
32,94	0,4865	142,34	699,72	0,01403	
32,96	0,4863	145,41	699,56	0,01398	
32,98	0,4864	145,45	699,45	0,01388	
33,00	0,4868	143,62	699,56	0,01381	
33,02	0,4871	142,43	699,71	0,01388	
33,04	0,4871	142,62	699,67	0,01414	
33,06	0,4870	143,25	699,51	0,01427	
33,08	0,4870	142,63	699,47	0,01425	
33,10	0,4871	142,29	699,59	0,01410	
33,12	0,4871	143,65	699,64	0,01399	
33,14	0,4870	145,66	699,53	0,01396	
33,16	0,4870	144,97	699,44	0,01398	
33,18	0,4873	142,15	699,59	0,01406	
33,20	0,4877	141,23	699,76	0,01410	
33,22	0,4877	143,49	699,68	0,01411	
33,24	0,4876	145,30	699,51	0,01410	
33,26	0,4877	143,69	699,49	0,01405	
33,28	0,4878	142,31	699,63	0,01398	
33,30	0,4878	143,42	699,66	0,01392	
33,32	0,4877	144,37	699,52	0,01396	
33,34	0,4877	142,76	699,44	0,01405	
33,36	0,4880	140,17	699,60	0,01417	
33,38	0,4884	139,67	699,76	0,01417	
33,40	0,4884	142,07	699,70	0,01399	
33,42	0,4883	143,76	699,52	0,01386	
33,44	0,4883	143,50	699,49	0,01385	
33,46	0,4885	142,71	699,65	0,01387	
33,48	0,4885	143,74	699,70	0,01389	
33,50	0,4884	145,62	699,57	0,01400	
33,52	0,4883	144,84	699,45	0,01406	
33,54	0,4886	142,76	699,53	0,01401	
33,56	0,4890	141,99	699,70	0,01411	
33,58	0,4892	143,61	699,69	0,01481	
33,60	0,4891	145,77	699,54	0,01919	
33,62	0,4890	145,38	699,46	0,02404	
33,64	0,4891	143,73	699,55	0,02744	
33,66	0,4892	143,82	699,67	0,03113	
33,68	0,4891	145,41	699,62	0,03295	
33,70	0,4891	146,02	699,48	0,03480	
33,72	0,4893	144,63	699,47	0,03978	
33,74	0,4897	143,06	699,63	0,04336	
33,76	0,4899	143,67	699,71	0,04548	
33,78	0,4898	145,66	699,58	0,04800	
33,80	0,4897	146,20	699,44	0,05132	
33,82	0,4897	144,31	699,53	0,05049	
33,84	0,4899	143,09	699,76	0,05217	
33,86	0,4899	144,36	699,81	0,05622	
33,88	0,4898	145,55	699,63	0,05777	
33,90	0,4900	145,34	699,48	0,05843	
33,92	0,4904	143,81	699,55	0,06115	
33,94	0,4906	143,75	699,65	0,06342	
33,96	0,4904	145,37	699,57	0,06472	
33,98	0,4903	145,85	699,45	0,06831	
34,00	0,4905	142,97	699,53	0,07093	
34,02	0,4906	140,54	699,74	0,07493	
34,04	0,4905	142,37	699,76	0,07853	
34,06	0,4903	145,44	699,58	0,08007	
34,08	0,4905	146,14	699,47	0,08045	
34,10	0,4910	144,65	699,59	0,08061	
34,12	0,4912	144,67	699,69	0,08074	
34,14	0,4912	145,96	699,60	0,08076	
34,16	0,4910	146,24	699,46	0,08071	
34,18	0,4911	144,45	699,51	0,08057	
34,20	0,4912	143,24	699,70	0,08058	
34,22	0,4911	144,49	699,71	0,08073	
34,24	0,4910	146,15	699,56	0,08096	
34,26	0,4911	145,44	699,47	0,08104	
34,28	0,4915	143,59	699,58	0,08110	
34,30	0,4918	143,75	699,66	0,08114	
34,32	0,4918	145,38	699,56	0,08116	
34,34	0,4917	145,35	699,45	0,08117	
34,36	0,4917	143,18	699,54	0,08114	
34,38	0,4919	141,69	699,71	0,08108	
34,40	0,4918	143,38	699,70	0,08081	
34,42	0,4916	145,71	699,54	0,08041	
34,44	0,4918	145,31	699,47	0,07986	
34,46	0,4922	143,55	699,58	0,07934	
34,48	0,4925	143,66	699,67	0,07901	
34,50	0,4925	144,87	699,59	0,07888	
34,52	0,4924	144,55	699,45	0,07888	
34,54	0,4924	142,81	699,53	0,07868	
34,56	0,4925	141,63	699,71	0,07844	
34,58	0,4925	143,21	699,72	0,07830	
34,60	0,4924	145,59	699,56	0,07820	
34,62	0,4926	145,40	699,45	0,07797	
34,64	0,4930	143,60	699,57	0,07776	
34,66	0,4932	143,63	699,70	0,07771	
34,68	0,4932	145,38	699,63	0,07784	
34,70	0,4930	146,05	699,47	0,07816	
34,72	0,4931	144,39	699,49	0,07845	
34,74	0,4932	142,61	699,67	0,07867	
34,76	0,4932	143,41	699,71	0,07890	
34,78	0,4931	145,51	699,56	0,07933	
34,80	0,4933	145,31	699,46	0,07989	
34,82	0,4937	143,41	699,57	0,08056	
34,84	0,4939	142,83	699,68	0,08126	
34,86	0,4938	144,70	699,59	0,08168	
34,88	0,4937	145,81	699,46	0,08190	
34,90	0,4938	143,84	699,51	0,08214	
34,92	0,4939	141,87	699,70	0,08243	
34,94	0,4939	143,19	699,71	0,08260	
34,96	0,4939	145,58	699,55	0,08243	
34,98	0,4941	145,40	699,46	0,08167	
35,00	0,4944	143,52	699,58	0,08060	
35,02	0,4946	143,03	699,70	0,07970	
35,04	0,4945	144,92	699,60	0,07900	
35,06	0,4944	145,49	699,46	0,07847	
35,08	0,4944	143,19	699,51	0,07797	
35,10	0,4945	141,58	699,69	0,07767	
35,12	0,4946	143,13	699,70	0,07757	
35,14	0,4947	145,60	699,55	0,07758	
35,16	0,4949	145,36	699,46	0,07776	
35,18	0,4951	143,51	699,57	0,07821	
35,20	0,4952	142,54	699,69	0,07892	
35,22	0,4952	143,46	699,62	0,07968	
35,24	0,4951	143,50	699,47	0,08000	
35,26	0,4952	142,12	699,48	0,07983	
35,28	0,4956	140,63	699,67	0,07968	
35,30	0,4958	141,76	699,75	0,08005	
35,32	0,4958	144,15	699,61	0,08066	
35,34	0,4957	144,43	699,46	0,08090	
35,36	0,4958	143,23	699,54	0,08087	
35,38	0,4959	142,81	699,71	0,08090	
35,40	0,4959	144,46	699,69	0,08127	
35,42	0,4958	146,12	699,52	0,08152	
35,44	0,4960	145,40	699,45	0,08170	
35,46	0,4964	143,28	699,60	0,08170	
35,48	0,4966	142,81	699,72	0,08135	
35,50	0,4965	144,83	699,63	0,08071	
35,52	0,4964	145,93	699,49	0,08010	
35,54	0,4964	144,53	699,50	0,07970	
35,56	0,4966	142,92	699,64	0,07955	
35,58	0,4966	143,71	699,67	0,07943	
35,60	0,4965	145,68	699,53	0,07927	
35,62	0,4968	145,37	699,46	0,07895	
35,64	0,4971	143,43	699,59	0,07856	
35,66	0,4972	142,89	699,71	0,07823	
35,68	0,4972	144,75	699,62	0,07816	
35,70	0,4971	145,83	699,47	0,07824	
35,72	0,4971	144,46	699,50	0,07840	
35,74	0,4973	142,88	699,67	0,07858	
35,76	0,4976	143,77	699,71	0,07877	
35,78	0,4977	145,74	699,56	0,07889	
35,80	0,4977	145,42	699,45	0,07886	
35,82	0,4978	143,49	699,56	0,07880	
35,84	0,4979	142,88	699,71	0,07897	
35,86	0,4979	144,64	699,66	0,07939	
35,88	0,4977	145,84	699,50	0,08001	
35,90	0,4978	144,56	699,47	0,08069	
35,92	0,4983	142,97	699,61	0,08124	
35,94	0,4985	143,58	699,68	0,08135	
35,96	0,4985	145,46	699,56	0,08166	
35,98	0,4984	145,46	699,44	0,08207	
36,00	0,4985	143,76	699,53	0,08266	
36,02	0,4986	142,48	699,74	0,08309	
36,04	0,4986	143,66	699,75	0,08305	
36,06	0,4984	145,97	699,58	0,08269	
36,08	0,4985	146,31	699,47	0,08207	
36,10	0,4989	144,43	699,55	0,08149	
36,12	0,4992	143,89	699,67	0,08095	
36,14	0,4992	145,34	699,61	0,08061	
36,16	0,4991	146,13	699,46	0,08033	
36,18	0,4991	143,37	699,51	0,07993	
36,20	0,4993	140,70	699,72	0,07971	
36,22	0,4993	142,36	699,76	0,07963	
36,24	0,4992	145,32	699,59	0,07949	
36,26	0,4992	145,40	699,47	0,07930	
36,28	0,4996	143,65	699,54	0,07917	
36,30	0,4999	142,96	699,66	0,07924	
36,32	0,4999	144,64	699,62	0,07938	
36,34	0,4998	145,87	699,47	0,07958	
36,36	0,4998	144,51	699,49	0,07986	
36,38	0,4999	142,82	699,67	0,08005	
36,40	0,4999	143,57	699,71	0,08043	
36,42	0,4999	145,63	699,57	0,08098	
36,44	0,5002	145,38	699,47	0,08158	
36,46	0,5005	143,73	699,55	0,08203	
36,48	0,5006	143,75	699,65	0,08254	
36,50	0,5006	145,38	699,59	0,08281	
36,52	0,5005	146,11	699,45	0,08282	
36,54	0,5005	144,56	699,51	0,08275	
36,56	0,5006	142,86	699,71	0,08256	
36,58	0,5007	143,66	699,75	0,08252	
36,60	0,5009	145,72	699,59	0,08268	
36,62	0,5011	146,15	699,46	0,08306	
36,64	0,5012	144,31	699,56	0,08342	
36,66	0,5013	143,82	699,69	0,08351	
36,68	0,5012	145,29	699,63	0,08323	
36,70	0,5011	145,96	699,47	0,08272	
36,72	0,5012	143,73	699,51	0,08204	
36,74	0,5015	142,12	699,69	0,08164	
36,76	0,5018	143,40	699,71	0,08160	
36,78	0,5018	145,71	699,55	0,08177	
36,80	0,5018	145,43	699,46	0,08184	
36,82	0,5019	143,64	699,57	0,08189	
36,84	0,5020	143,71	699,67	0,08201	
36,86	0,5019	145,41	699,59	0,08202	
36,88	0,5018	145,48	699,46	0,08213	
36,90	0,5020	143,92	699,50	0,08218	
36,92	0,5024	142,65	699,69	0,08229	
36,94	0,5026	143,71	699,71	0,08237	
36,96	0,5025	145,86	699,55	0,08245	
36,98	0,5024	145,58	699,47	0,08239	
37,00	0,5026	143,65	699,60	0,08219	
37,02	0,5026	143,77	699,67	0,08209	
37,04	0,5025	145,60	699,57	0,08222	
37,06	0,5025	145,01	699,45	0,08226	
37,08	0,5028	142,32	699,53	0,08216	
37,10	0,5032	141,91	699,68	0,08223	
37,12	0,5033	144,24	699,66	0,08237	
37,14	0,5032	146,22	699,50	0,08235	
37,16	0,5031	145,48	699,47	0,08216	
37,18	0,5033	143,42	699,64	0,08205	
37,20	0,5033	143,70	699,72	0,08211	
37,22	0,5032	145,66	699,59	0,08228	
37,24	0,5032	146,18	699,47	0,08241	
37,26	0,5036	144,37	699,55	0,08241	
37,28	0,5039	143,93	699,67	0,08236	
37,30	0,5039	145,38	699,60	0,08229	
37,32	0,5038	146,15	699,45	0,08222	
37,34	0,5038	144,53	699,51	0,08213	
37,36	0,5040	142,75	699,72	0,08213	
37,38	0,5040	143,49	699,76	0,08224	
37,40	0,5039	145,55	699,59	0,08242	
37,42	0,5040	145,53	699,45	0,08253	
37,44	0,5044	143,65	699,55	0,08252	
37,46	0,5047	142,83	699,73	0,08237	
37,48	0,5046	144,42	699,70	0,08224	
37,50	0,5045	146,20	699,53	0,08222	
37,52	0,5045	145,38	699,47	0,08219	
37,54	0,5046	143,34	699,60	0,08222	
37,56	0,5047	143,63	699,65	0,08230	
37,58	0,5047	145,56	699,53	0,08242	
37,60	0,5049	145,13	699,44	0,08237	
37,62	0,5052	142,40	699,59	0,08217	
37,64	0,5053	141,62	699,78	0,08219	
37,66	0,5053	143,88	699,74	0,08236	
37,68	0,5051	146,16	699,55	0,08243	
37,70	0,5051	146,03	699,48	0,08240	
37,72	0,5054	144,33	699,60	0,08240	
37,74	0,5057	144,61	699,62	0,08237	
37,76	0,5058	145,97	699,50	0,08228	
37,78	0,5058	144,97	699,45	0,08217	
37,80	0,5060	141,37	699,64	0,08216	
37,82	0,5060	140,85	699,77	0,08231	
37,84	0,5059	143,93	699,67	0,08248	
37,86	0,5058	145,73	699,50	0,08255	
37,88	0,5060	144,53	699,48	0,08250	
37,90	0,5064	143,34	699,62	0,08232	
37,92	0,5066	144,02	699,66	0,08221	
37,94	0,5066	145,32	699,53	0,08217	
37,96	0,5065	145,21	699,44	0,08213	
37,98	0,5066	143,49	699,58	0,08218	
38,00	0,5067	142,86	699,74	0,08227	
38,02	0,5066	144,52	699,68	0,08243	
38,04	0,5065	146,24	699,51	0,08238	
38,06	0,5066	145,41	699,48	0,08221	
38,08	0,5070	143,40	699,62	0,08212	
38,10	0,5073	143,67	699,66	0,08219	
38,12	0,5072	145,60	699,53	0,08235	
38,14	0,5072	145,12	699,45	0,08240	
38,16	0,5073	142,35	699,61	0,08239	
38,18	0,5074	141,70	699,78	0,08237	
38,20	0,5073	144,12	699,70	0,08237	
38,22	0,5072	146,28	699,52	0,08225	
38,24	0,5074	145,50	699,48	0,08209	
38,26	0,5079	143,44	699,64	0,08210	
38,28	0,5080	143,74	699,69	0,08231	
38,30	0,5079	145,69	699,56	0,08244	
38,32	0,5078	145,23	699,44	0,08244	
38,34	0,5079	142,92	699,56	0,08239	
38,36	0,5080	142,50	699,72	0,08228	
38,38	0,5080	144,59	699,67	0,08222	
38,40	0,5080	145,96	699,50	0,08223	
38,42	0,5083	144,67	699,47	0,08226	
38,44	0,5086	143,40	699,62	0,08236	
38,46	0,5087	144,26	699,68	0,08256	
38,48	0,5086	145,85	699,56	0,08266	
38,50	0,5085	145,45	699,46	0,08257	
38,52	0,5086	143,50	699,58	0,08239	
38,54	0,5087	142,85	699,72	0,08225	
38,56	0,5086	144,63	699,65	0,08222	
38,58	0,5088	146,28	699,49	0,08226	
38,60	0,5091	145,43	699,46	0,08231	
38,62	0,5093	143,33	699,63	0,08238	
38,64	0,5094	143,58	699,73	0,08236	
38,66	0,5093	145,59	699,61	0,08224	
38,68	0,5092	146,20	699,47	0,08213	
38,70	0,5092	144,49	699,52	0,08208	
38,72	0,5093	143,20	699,68	0,08218	
38,74	0,5096	144,44	699,67	0,08237	
38,76	0,5097	146,11	699,52	0,08245	
38,78	0,5099	145,39	699,47	0,08246	
38,80	0,5100	143,39	699,62	0,08236	
38,82	0,5100	143,54	699,71	0,08222	
38,84	0,5099	145,39	699,59	0,08215	
38,86	0,5098	145,44	699,45	0,08217	
38,88	0,5100	143,68	699,54	0,08223	
38,90	0,5104	142,84	699,73	0,08223	
38,92	0,5106	144,36	699,72	0,08232	
38,94	0,5106	146,09	699,56	0,08241	
38,96	0,5105	145,37	699,48	0,08234	
38,98	0,5106	143,45	699,57	0,08221	
39,00	0,5107	143,53	699,64	0,08214	
39,02	0,5106	145,27	699,54	0,08220	
39,04	0,5106	145,29	699,44	0,08228	
39,06	0,5109	143,45	699,56	0,08234	
39,08	0,5113	142,69	699,73	0,08236	
39,10	0,5113	144,77	699,69	0,08228	
39,12	0,5112	146,96	699,52	0,08217	
39,14	0,5112	145,83	699,47	0,08204	
39,16	0,5113	143,92	699,60	0,08199	
39,18	0,5114	144,44	699,65	0,08209	
39,20	0,5113	145,92	699,53	0,08231	
39,22	0,5113	145,56	699,44	0,08246	
39,24	0,5117	143,54	699,59	0,08242	
39,26	0,5120	142,78	699,76	0,08229	
39,28	0,5120	144,45	699,71	0,08220	
39,30	0,5119	146,14	699,53	0,08219	
39,32	0,5119	145,45	699,47	0,08223	
39,34	0,5120	143,91	699,59	0,08227	
39,36	0,5121	144,32	699,67	0,08235	
39,38	0,5120	145,74	699,56	0,08240	
39,40	0,5120	145,42	699,45	0,08228	
39,42	0,5123	143,57	699,54	0,08209	
39,44	0,5127	142,75	699,69	0,08199	
39,46	0,5127	144,39	699,65	0,08207	
39,48	0,5126	146,12	699,49	0,08223	
39,50	0,5126	145,38	699,46	0,08236	
39,52	0,5127	143,31	699,64	0,08239	
39,54	0,5127	143,50	699,74	0,08233	
39,56	0,5126	145,44	699,62	0,08225	
39,58	0,5128	146,07	699,48	0,08210	
39,60	0,5131	144,39	699,52	0,08207	
39,62	0,5134	143,71	699,65	0,08216	
39,64	0,5134	144,98	699,63	0,08235	
39,66	0,5132	145,84	699,48	0,08246	
39,68	0,5132	144,54	699,47	0,08243	
39,70	0,5134	142,80	699,66	0,08228	
39,72	0,5134	143,31	699,75	0,08212	
39,74	0,5134	145,33	699,62	0,08215	
39,76	0,5136	145,99	699,47	0,08221	
39,78	0,5139	144,32	699,52	0,08222	
39,80	0,5141	143,03	699,69	0,08228	
39,82	0,5141	144,21	699,69	0,08230	
39,84	0,5139	145,91	699,53	0,08228	
39,86	0,5139	144,64	699,47	0,08215	
39,88	0,5142	142,68	699,62	0,08203	
39,90	0,5145	143,21	699,70	0,08201	
39,92	0,5146	145,24	699,58	0,08213	
39,94	0,5146	144,96	699,45	0,08223	
39,96	0,5146	142,78	699,54	0,08225	
39,98	0,5147	142,32	699,73	0,08230	
40,00	0,5147	144,28	699,72	0,08233	
40,02	0,5146	146,15	699,54	0,08224	
40,04	0,5147	145,50	699,46	0,08210	
40,06	0,5151	143,38	699,61	0,08206	
40,08	0,5154	143,38	699,73	0,08215	
40,10	0,5153	145,18	699,62	0,08230	
40,12	0,5152	144,96	699,46	0,08234	
40,14	0,5153	142,98	699,51	0,08229	
40,16	0,5154	142,02	699,72	0,08216	
40,18	0,5154	143,34	699,76	0,08204	
40,20	0,5153	145,56	699,61	0,08204	
40,22	0,5153	145,34	699,49	0,08208	
40,24	0,5157	143,62	699,54	0,08212	
40,26	0,5160	143,59	699,62	0,08221	
40,28	0,5160	144,74	699,56	0,08233	
40,30	0,5159	144,07	699,44	0,08230	
40,32	0,5159	141,33	699,53	0,08217	
40,34	0,5161	139,75	699,74	0,08211	
40,36	0,5161	142,00	699,76	0,08208	
40,38	0,5159	145,23	699,59	0,08215	
40,40	0,5161	145,43	699,47	0,08220	
40,42	0,5165	143,63	699,56	0,08226	
40,44	0,5167	143,51	699,65	0,08231	
40,46	0,5167	145,14	699,57	0,08229	
40,48	0,5166	144,94	699,44	0,08215	
40,50	0,5166	141,74	699,54	0,08206	
40,52	0,5167	139,80	699,75	0,08210	
40,54	0,5167	142,08	699,74	0,08222	
40,56	0,5167	144,89	699,56	0,08235	
40,58	0,5170	143,43	699,49	0,08239	
40,60	0,5173	140,79	699,60	0,08228	
40,62	0,5174	142,07	699,63	0,08214	
40,64	0,5173	144,57	699,50	0,08204	
40,66	0,5173	142,80	699,45	0,08206	
40,68	0,5174	139,39	699,61	0,08209	
40,70	0,5177	139,94	699,71	0,08220	
40,72	0,5179	143,65	699,59	0,08241	
40,74	0,5179	144,53	699,46	0,08245	
40,76	0,5173	141,65	699,54	0,08232	
40,78	0,5083	139,82	699,70	0,08212	
40,80	0,4961	142,12	699,66	0,08208	
40,82	0,4903	144,22	699,50	0,08214	
40,84	0,4895	142,70	699,48	0,08218	
40,86	0,4901	140,39	699,64	0,08219	
40,88	0,4904	141,34	699,69	0,08224	
40,90	0,4904	144,15	699,55	0,08229	
40,92	0,4904	144,14	699,44	0,08215	
40,94	0,4904	141,33	699,58	0,08195	
40,96	0,4905	140,40	699,78	0,08192	
40,98	0,4905	142,37	699,74	0,08202	
41,00	0,4904	144,20	699,55	0,08205	
41,02	0,4906	144,89	699,48	0,08189	
41,04	0,4911	148,36	699,59	0,08157	
41,06	0,4919	158,49	699,63	0,08106	
41,08	0,4933	175,24	699,51	0,08030	
41,10	0,4955	196,56	699,44	0,07937	
41,12	0,4986	223,90	699,65	0,07838	
41,14	0,5024	262,89	699,82	0,07728	
41,16	0,5069	313,70	699,71	0,07603	
41,18	0,5121	370,21	699,51	0,07447	
41,20	0,5183	429,41	699,50	0,07253	
41,22	0,5252	494,67	699,62	0,06998	
41,24	0,5330	567,27	699,61	0,06692	
41,26	0,5415	643,31	699,47	0,06321	
41,28	0,5509	716,87	699,46	0,05859	
41,30	0,5613	786,71	699,68	0,05301	
41,32	0,5723	855,23	699,80	0,04648	
41,34	0,5839	919,77	699,67	0,03880	
41,36	0,5963	974,35	699,51	0,02991	
41,38	0,6097	1017,8	699,53	0,02010	
41,40	0,6239	1054,2	699,65	0,00946	
41,42	0,6389	1085,8	699,61	-0,00190	
41,44	0,6545	1112,1	699,44	-0,01392	
41,46	0,6710	1130,9	699,46	-0,02663	
41,48	0,6886	1145,2	699,68	-0,04003	
41,50	0,7067	1161,4	699,67	-0,05410	
41,52	0,7255	1177,7	699,44	-0,06895	
41,54	0,7454	1187,2	699,54	-0,08456	
41,56	0,7660	1193,3	699,88	-0,1006	
41,58	0,7873	1205,6	699,87	-0,1172	
41,60	0,8094	1219,5	699,58	-0,1346	
41,62	0,8322	1226,2	699,53	-0,1528	
41,64	0,8560	1229,6	699,76	-0,1716	
41,66	0,8806	1239,2	699,79	-0,1910	
41,68	0,9058	1249,7	699,56	-0,2112	
41,70	0,9319	1254,6	699,48	-0,2322	
41,72	0,9591	1257,0	699,72	-0,2535	
41,74	0,9869	1264,4	699,88	-0,2753	
41,76	1,015	1273,7	699,75	-0,2980	
41,78	1,044	1281,2	699,54	-0,3215	
41,80	1,075	1286,4	699,50	-0,3457	
41,82	1,106	1291,9	699,59	-0,3705	
41,84	1,138	1298,2	699,63	-0,3958	
41,86	1,170	1304,0	699,55	-0,4216	
41,88	1,203	1308,6	699,48	-0,4481	
41,90	1,237	1313,1	699,52	-0,4754	
41,92	1,273	1318,3	699,66	-0,5033	
41,94	1,308	1325,6	699,70	-0,5319	
41,96	1,345	1332,7	699,60	-0,5613	
41,98	1,382	1338,0	699,50	-0,5911	
42,00	1,420	1342,3	699,53	-0,6210	
42,02	1,459	1347,4	699,61	-0,6510	
42,04	1,499	1352,4	699,60	-0,6811	
42,06	1,538	1356,1	699,52	-0,7116	
42,08	1,578	1358,5	699,48	-0,7421	
42,10	1,618	1360,3	699,56	-0,7728	
42,12	1,658	1361,6	699,67	-0,8034	
42,14	1,698	1364,6	699,65	-0,8340	
42,16	1,738	1367,6	699,55	-0,8647	
42,18	1,778	1369,1	699,50	-0,8956	
42,20	1,818	1370,4	699,54	-0,9264	
42,22	1,858	1371,1	699,61	-0,9573	
42,24	1,898	1372,6	699,60	-0,9884	
42,26	1,938	1374,6	699,52	-1,020	
42,28	1,978	1375,4	699,48	-1,051	
42,30	2,018	1375,2	699,55	-1,082	
42,32	2,058	1375,2	699,68	-1,113	
42,34	2,098	1376,7	699,67	-1,145	
42,36	2,138	1378,7	699,56	-1,176	
42,38	2,178	1380,1	699,50	-1,208	
42,40	2,218	1381,0	699,54	-1,239	
42,42	2,258	1381,3	699,61	-1,271	
42,44	2,298	1381,7	699,58	-1,303	
42,46	2,338	1381,7	699,51	-1,334	
42,48	2,378	1381,4	699,48	-1,366	
42,50	2,418	1380,9	699,60	-1,398	
42,52	2,458	1380,5	699,69	-1,430	
42,54	2,498	1381,4	699,63	-1,462	
42,56	2,538	1382,1	699,52	-1,494	
42,58	2,578	1382,1	699,50	-1,527	
42,60	2,618	1381,7	699,59	-1,559	
42,62	2,658	1381,5	699,62	-1,591	
42,64	2,698	1381,4	699,55	-1,624	
42,66	2,738	1380,2	699,48	-1,656	
42,68	2,778	1378,9	699,54	-1,689	
42,70	2,818	1378,1	699,67	-1,721	
42,72	2,858	1378,2	699,65	-1,754	
42,74	2,898	1378,6	699,54	-1,787	
42,76	2,938	1377,6	699,49	-1,820	
42,78	2,978	1375,8	699,58	-1,853	
42,80	3,018	1374,7	699,65	-1,886	
42,82	3,058	1375,0	699,59	-1,919	
42,84	3,098	1375,1	699,48	-1,952	
42,86	3,138	1372,9	699,54	-1,985	
42,88	3,178	1370,2	699,68	-2,018	
42,90	3,218	1370,4	699,66	-2,052	
42,92	3,258	1371,2	699,54	-2,085	
42,94	3,298	1369,0	699,49	-2,119	
42,96	3,338	1366,1	699,58	-2,153	
42,98	3,378	1364,8	699,62	-2,186	
43,00	3,418	1365,0	699,54	-2,220	
43,02	3,458	1363,8	699,48	-2,254	
43,04	3,498	1360,5	699,56	-2,287	
43,06	3,538	1358,3	699,68	-2,321	
43,08	3,578	1358,7	699,64	-2,355	
43,10	3,618	1358,9	699,52	-2,389	
43,12	3,658	1356,4	699,53	-2,424	
43,14	3,698	1353,1	699,64	-2,458	
43,16	3,738	1352,8	699,62	-2,492	
43,18	3,778	1352,9	699,51	-2,526	
43,20	3,818	1349,0	699,52	-2,561	
43,22	3,858	1344,3	699,65	-2,596	
43,24	3,898	1343,5	699,66	-2,630	
43,26	3,938	1344,3	699,53	-2,665	
43,28	3,978	1341,7	699,51	-2,699	
43,30	4,018	1337,1	699,63	-2,734	
43,32	4,058	1335,8	699,63	-2,769	
43,34	4,098	1336,2	699,52	-2,804	
43,36	4,138	1333,0	699,51	-2,839	
43,38	4,178	1327,6	699,64	-2,874	
43,40	4,218	1325,9	699,66	-2,909	
43,42	4,258	1326,9	699,54	-2,944	
43,44	4,298	1324,2	699,49	-2,980	
43,46	4,338	1319,5	699,60	-3,015	
43,48	4,378	1317,1	699,68	-3,051	
43,50	4,418	1317,2	699,58	-3,086	
43,52	4,458	1315,0	699,49	-3,122	
43,54	4,498	1310,2	699,58	-3,158	
43,56	4,538	1307,1	699,68	-3,193	
43,58	4,578	1306,9	699,60	-3,229	
43,60	4,618	1304,6	699,50	-3,265	
43,62	4,658	1299,2	699,57	-3,301	
43,64	4,698	1295,1	699,68	-3,337	
43,66	4,738	1294,3	699,61	-3,373	
43,68	4,778	1292,8	699,51	-3,409	
43,70	4,818	1287,1	699,59	-3,446	
43,72	4,858	1283,3	699,65	-3,482	
43,74	4,898	1283,6	699,56	-3,518	
43,76	4,938	1281,8	699,50	-3,555	
43,78	4,978	1275,3	699,64	-3,591	
43,80	5,018	1271,1	699,72	-3,628	
43,82	5,058	1270,4	699,60	-3,665	
43,84	5,098	1267,8	699,52	-3,702	
43,86	5,138	1262,3	699,61	-3,738	
43,88	5,178	1258,8	699,63	-3,775	
43,90	5,218	1258,2	699,51	-3,812	
43,92	5,258	1253,7	699,53	-3,849	
43,94	5,298	1246,7	699,70	-3,886	
43,96	5,338	1243,7	699,70	-3,923	
43,98	5,378	1243,6	699,56	-3,960	
44,00	5,418	1239,8	699,55	-3,997	
44,02	5,458	1233,8	699,65	-4,035	
44,04	5,498	1231,1	699,60	-4,072	
44,06	5,538	1228,8	699,51	-4,109	
44,08	5,578	1221,6	699,61	-4,147	
44,10	5,618	1215,1	699,68	-4,185	
44,12	5,658	1214,2	699,56	-4,222	
44,14	5,698	1211,6	699,52	-4,260	
44,16	5,738	1204,0	699,66	-4,298	
44,18	5,778	1199,5	699,70	-4,336	
44,20	5,818	1198,4	699,56	-4,373	
44,22	5,858	1193,6	699,52	-4,411	
44,24	5,898	1185,9	699,65	-4,449	
44,26	5,938	1181,3	699,65	-4,487	
44,28	5,978	1179,1	699,52	-4,525	
44,30	6,018	1173,4	699,54	-4,563	
44,32	6,058	1166,2	699,69	-4,601	
44,34	6,098	1163,0	699,68	-4,640	
44,36	6,138	1161,4	699,55	-4,678	
44,38	6,178	1154,6	699,57	-4,716	
44,40	6,218	1147,0	699,62	-4,754	
44,42	6,258	1143,5	699,53	-4,793	
44,44	6,298	1138,7	699,51	-4,831	
44,46	6,338	1129,8	699,70	-4,869	
44,48	6,378	1123,7	699,78	-4,908	
44,50	6,418	1121,5	699,62	-4,946	
44,52	6,458	1116,7	699,57	-4,985	
44,54	6,498	1108,6	699,71	-5,023	
44,56	6,538	1103,9	699,71	-5,062	
44,58	6,578	1100,7	699,55	-5,101	
44,60	6,618	1092,4	699,60	-5,139	
44,62	6,658	1083,0	699,69	-5,178	
44,64	6,698	1079,0	699,61	-5,217	
44,66	6,738	1074,6	699,53	-5,256	
44,68	6,778	1065,0	699,62	-5,295	
44,70	6,818	1057,6	699,64	-5,334	
44,72	6,858	1054,5	699,52	-5,372	
44,74	6,898	1047,5	699,55	-5,411	
44,76	6,938	1037,4	699,70	-5,450	
44,78	6,978	1032,3	699,65	-5,489	
44,80	7,018	1028,8	699,52	-5,528	
44,82	7,058	1019,6	699,61	-5,568	
44,84	7,098	1010,0	699,70	-5,607	
44,86	7,138	1004,9	699,59	-5,646	
44,88	7,178	997,98	699,55	-5,685	
44,90	7,218	986,30	699,69	-5,724	
44,92	7,258	978,07	699,68	-5,763	
44,94	7,298	973,93	699,55	-5,803	
44,96	7,338	965,01	699,59	-5,842	
44,98	7,378	953,63	699,68	-5,881	
45,00	7,418	947,31	699,58	-5,920	
45,02	7,458	940,57	699,52	-5,960	
45,04	7,498	928,68	699,68	-5,999	
45,06	7,538	918,90	699,73	-6,039	
45,08	7,578	913,80	699,58	-6,078	
45,10	7,618	905,34	699,57	-6,117	
45,12	7,658	892,43	699,70	-6,157	
45,14	7,698	883,59	699,65	-6,196	
45,16	7,738	876,58	699,53	-6,236	
45,18	7,778	864,58	699,62	-6,275	
45,20	7,818	852,16	699,71	-6,314	
45,22	7,858	844,26	699,60	-6,354	
45,24	7,898	835,05	699,53	-6,393	
45,26	7,938	820,99	699,67	-6,433	
45,28	7,978	809,39	699,71	-6,473	
45,30	8,018	801,73	699,57	-6,512	
45,32	8,058	789,97	699,59	-6,552	
45,34	8,098	775,16	699,72	-6,592	
45,36	8,138	764,64	699,65	-6,631	
45,38	8,178	754,67	699,55	-6,671	
45,40	8,218	739,35	699,63	-6,711	
45,42	8,258	724,26	699,67	-6,751	
45,44	8,298	713,38	699,55	-6,791	
45,46	8,338	699,41	699,54	-6,831	
45,48	8,378	681,09	699,64	-6,871	
45,50	8,418	665,39	699,59	-6,911	
45,52	8,458	651,38	699,52	-6,951	
45,54	8,498	632,36	699,65	-6,991	
45,56	8,538	612,00	699,73	-7,032	
45,58	8,578	595,35	699,59	-7,072	
45,60	8,618	576,55	699,55	-7,113	
45,62	8,658	550,61	699,71	-7,155	
45,64	8,698	524,42	699,73	-7,196	
45,66	8,738	499,54	699,57	-7,238	
45,68	8,778	466,86	699,58	-7,281	
45,70	8,818	425,37	699,69	-7,324	
45,72	8,858	384,30	699,61	-7,365	
45,74	8,898	343,30	699,55	-7,407	
45,76	8,938	297,15	699,68	-7,448	
45,78	8,978	254,44	699,70	-7,489	
45,80	9,018	222,00	699,58	-7,529	
45,82	9,058	191,61	699,70	-7,570	
45,84	9,098	161,10	699,81	-7,606	
45,86	9,138	136,99	699,66	-7,632	
45,88	9,177	116,57	699,71	-7,648	
45,90	9,212	91,52	700,08	-7,657	
45,92	9,239	68,20	700,13	-7,661	
45,94	9,255	52,91	699,82	-7,663	
45,96	9,263	40,21	699,73	-7,664	
45,98	9,266	25,29	700,07	-7,666	
46,00	9,268	15,50	700,13	-7,666	
46,02	9,268	12,35	699,83	-7,666	
46,04	9,269	10,48	699,74	-7,667	
46,06	9,269	4,265	700,16	-7,668	
46,08	9,269	1,201	700,31	-7,668	
46,10	9,269	3,090	700,00	-7,668	
46,12	9,269	5,218	699,74	-7,668	
46,14	9,269	2,073	700,10	-7,669	
46,16	9,269	-0,4809	700,41	-7,669	
46,18	9,269	0,6554	700,21	-7,669	
46,20	9,269	1,951	699,79	-7,669	
46,22	9,269	0,8453	699,95	-7,672	
46,24	9,269	-0,6974	700,47	-7,678	
46,26	9,269	0,5271	700,44	-7,682	
46,28	9,269	0,4281	699,98	-7,683	
46,30	9,269	-2,033	699,46	-7,684	
46,32	9,269	-4,661	698,98	-7,684	
46,34	9,269	-5,091	698,54	-7,684	
46,36	9,269	-5,059	698,11	-7,685	
46,38	9,269	-5,138	697,68	-7,685	
46,40	9,269	-5,279	697,27	-7,685	
46,42	9,269	-5,357	696,86	-7,685	
46,44	9,269	-5,344	696,46	-7,686	
46,46	9,269	-5,332	696,05	-7,686	
46,48	9,269	-5,255	695,65	-7,686	
46,50	9,269	-5,159	695,25	-7,687	
46,52	9,269	-5,171	694,86	-7,687	
46,54	9,269	-5,223	694,49	-7,687	
46,56	9,269	-5,251	694,11	-7,688	
46,58	9,269	-5,238	693,75	-7,688	
46,60	9,269	-5,270	693,39	-7,688	
46,62	9,269	-5,202	693,02	-7,689	
46,64	9,269	-5,141	692,65	-7,689	
46,66	9,269	-5,159	692,26	-7,689	
46,68	9,269	-5,192	691,90	-7,689	
46,70	9,269	-5,201	691,55	-7,690	
46,72	9,269	-5,262	691,19	-7,690	
46,74	9,269	-5,293	690,85	-7,690	
46,76	9,269	-5,243	690,50	-7,691	
46,78	9,269	-5,166	690,15	-7,691	
46,80	9,269	-5,208	689,78	-7,691	
46,82	9,269	-5,397	689,43	-7,691	
46,84	9,269	-6,432	689,09	-7,692	
46,86	9,269	-8,219	688,76	-7,692	
46,88	9,269	-10,39	688,41	-7,692	
46,90	9,269	-11,32	688,07	-7,693	
46,92	9,269	-10,20	687,73	-7,693	
46,94	9,269	-9,002	687,40	-7,693	
46,96	9,269	-8,656	687,07	-7,693	
46,98	9,269	-8,679	686,72	-7,694	
47,00	9,269	-9,619	686,37	-7,694	
47,02	9,269	-11,08	686,03	-7,694	
47,04	9,269	-11,87	685,71	-7,694	
47,06	9,269	-12,07	685,39	-7,695	
47,08	9,269	-12,10	685,06	-7,695	
47,10	9,269	-12,06	684,72	-7,695	
47,12	9,269	-12,04	684,37	-7,696	
47,14	9,269	-12,04	684,03	-7,696	
47,16	9,269	-12,07	683,71	-7,696	
47,18	9,269	-12,10	683,38	-7,696	
47,20	9,269	-12,12	683,05	-7,697	
47,22	9,269	-11,79	682,73	-7,697	
47,24	9,269	-10,39	682,39	-7,697	
47,26	9,269	-9,553	682,04	-7,697	
47,28	9,269	-10,56	681,70	-7,698	
47,30	9,269	-11,73	681,35	-7,698	
47,32	9,269	-12,17	681,01	-7,698	
47,34	9,269	-12,17	680,67	-7,698	
47,36	9,269	-12,10	680,33	-7,699	
47,38	9,269	-12,08	680,00	-7,699	
47,40	9,269	-12,09	679,67	-7,699	
47,42	9,269	-12,02	679,33	-7,700	
47,44	9,269	-11,97	678,98	-7,700	
47,46	9,269	-12,02	678,62	-7,700	
47,48	9,269	-12,05	678,28	-7,700	
47,50	9,269	-12,02	677,94	-7,700	
47,52	9,269	-11,65	677,60	-7,701	
47,54	9,269	-10,57	677,25	-7,701	
47,56	9,269	-9,998	676,89	-7,701	
47,58	9,269	-10,34	676,54	-7,701	
47,60	9,269	-11,07	676,19	-7,702	
47,62	9,269	-10,89	675,83	-7,702	
47,64	9,269	-10,52	675,46	-7,702	
47,66	9,269	-10,38	675,10	-7,703	
47,68	9,269	-9,694	674,75	-7,703	
47,70	9,269	-9,002	674,39	-7,703	
47,72	9,269	-8,760	674,03	-7,703	
47,74	9,269	-8,783	673,67	-7,703	
47,76	9,269	-9,782	673,31	-7,704	
47,78	9,269	-11,24	672,96	-7,704	
47,80	9,269	-11,95	672,60	-7,704	
47,82	9,269	-12,11	672,23	-7,705	
47,84	9,269	-12,05	671,88	-7,705	
47,86	9,269	-10,99	671,51	-7,705	
47,88	9,269	-9,535	671,13	-7,705	
47,90	9,269	-9,442	670,76	-7,706	
47,92	9,269	-9,392	670,39	-7,706	
47,94	9,269	-9,371	670,01	-7,706	
47,96	9,269	-10,48	669,64	-7,706	
47,98	9,269	-10,59	669,27	-7,707	
48,00	9,269	-9,505	668,91	-7,707	
48,02	9,269	-9,772	668,54	-7,707	
48,04	9,269	-11,15	668,16	-7,707	
48,06	9,269	-11,96	667,78	-7,708	
48,08	9,269	-12,10	667,40	-7,708	
48,10	9,269	-11,71	667,03	-7,708	
48,12	9,269	-10,27	666,66	-7,708	
48,14	9,269	-9,128	666,29	-7,709	
48,16	9,269	-8,778	665,91	-7,709	
48,18	9,269	-8,751	665,54	-7,709	
48,20	9,269	-8,741	665,16	-7,709	
48,22	9,269	-8,741	664,76	-7,710	
48,24	9,269	-8,697	664,36	-7,710	
48,26	9,269	-8,723	663,97	-7,710	
48,28	9,269	-8,789	663,60	-7,710	
48,30	9,269	-8,778	663,21	-7,711	
48,32	9,269	-8,743	662,80	-7,711	
48,34	9,269	-8,718	662,41	-7,711	
48,36	9,269	-8,768	662,03	-7,711	
48,38	9,269	-8,788	661,64	-7,712	
48,40	9,269	-8,741	661,26	-7,712	
48,42	9,269	-8,738	660,87	-7,712	
48,44	9,269	-8,771	660,49	-7,712	
48,46	9,269	-8,792	660,10	-7,713	
48,48	9,269	-8,784	659,70	-7,713	
48,50	9,269	-8,812	659,32	-7,713	
48,52	9,269	-8,807	658,94	-7,713	
48,54	9,269	-8,811	658,55	-7,713	
48,56	9,269	-8,814	658,16	-7,714	
48,58	9,269	-8,771	657,77	-7,714	
48,60	9,269	-8,752	657,37	-7,714	
48,62	9,269	-8,704	656,97	-7,714	
48,64	9,269	-8,658	656,57	-7,715	
48,66	9,269	-8,648	656,18	-7,715	
48,68	9,269	-8,702	655,77	-7,715	
48,70	9,269	-8,754	655,38	-7,715	
48,72	9,269	-8,805	655,00	-7,716	
48,74	9,269	-9,458	654,62	-7,716	
48,76	9,269	-10,45	654,24	-7,716	
48,78	9,269	-11,54	653,84	-7,716	
48,80	9,269	-12,05	653,46	-7,716	
48,82	9,269	-12,08	653,08	-7,717	
48,84	9,269	-12,07	652,69	-7,717	
48,86	9,269	-12,11	652,29	-7,717	
48,88	9,269	-11,69	651,88	-7,717	
48,90	9,269	-10,23	651,47	-7,718	
48,92	9,269	-9,105	651,07	-7,718	
48,94	9,269	-8,796	650,65	-7,718	
48,96	9,269	-8,765	650,24	-7,718	
48,98	9,269	-8,757	649,85	-7,719	
49,00	9,269	-8,762	649,45	-7,719	
49,02	9,269	-8,783	649,03	-7,719	
49,04	9,269	-8,764	648,62	-7,719	
49,06	9,269	-8,729	648,23	-7,720	
49,08	9,269	-8,754	647,84	-7,720	
49,10	9,269	-9,076	647,45	-7,720	
49,12	9,269	-10,42	647,06	-7,720	
49,14	9,269	-11,61	646,66	-7,720	
49,16	9,269	-12,01	646,27	-7,721	
49,18	9,269	-12,06	645,87	-7,721	
49,20	9,269	-12,11	645,47	-7,721	
49,22	9,269	-12,13	645,07	-7,721	
49,24	9,269	-12,14	644,68	-7,722	
49,26	9,269	-12,15	644,29	-7,722	
49,28	9,269	-12,08	643,89	-7,722	
49,30	9,269	-12,06	643,50	-7,722	
49,32	9,269	-12,06	643,10	-7,723	
49,34	9,269	-12,07	642,70	-7,723	
49,36	9,269	-12,07	642,33	-7,723	
49,38	9,269	-11,16	641,95	-7,723	
49,40	9,269	-9,987	641,55	-7,724	
49,42	9,269	-9,680	641,15	-7,724	
49,44	9,269	-10,12	640,75	-7,724	
49,46	9,269	-11,27	640,36	-7,724	
49,48	9,269	-11,95	639,98	-7,724	
49,50	9,269	-12,09	639,58	-7,725	
49,52	9,269	-12,09	639,17	-7,725	
49,54	9,269	-12,05	638,77	-7,725	
49,56	9,269	-11,63	638,37	-7,725	
49,58	9,269	-10,56	637,97	-7,726	
49,60	9,269	-10,86	637,56	-7,726	
49,62	9,269	-11,71	637,14	-7,726	
49,64	9,269	-12,10	636,73	-7,726	
49,66	9,269	-12,09	636,33	-7,726	
49,68	9,269	-12,06	635,93	-7,727	
49,70	9,269	-12,09	635,53	-7,727	
49,72	9,269	-12,10	635,12	-7,727	
49,74	9,269	-12,07	634,71	-7,727	
49,76	9,269	-12,05	634,29	-7,728	
49,78	9,269	-12,06	633,89	-7,728	
49,80	9,269	-12,08	633,49	-7,728	
49,82	9,269	-12,02	633,10	-7,728	
49,84	9,269	-11,43	632,70	-7,728	
49,86	9,269	-11,40	632,30	-7,728	
49,88	9,269	-11,74	631,89	-7,729	
49,90	9,269	-11,35	631,49	-7,729	
49,92	9,269	-11,39	631,10	-7,729	
49,94	9,269	-11,80	630,71	-7,729	
49,96	9,269	-11,09	630,30	-7,730	
49,98	9,269	-9,634	629,90	-7,730	
50,00	9,269	-8,832	629,50	-7,730	
50,02	9,269	-8,664	629,10	-7,730	
50,04	9,269	-8,712	628,70	-7,730	
50,06	9,269	-8,759	628,31	-7,731	
50,08	9,269	-8,756	627,92	-7,731	
50,10	9,269	-9,033	627,53	-7,731	
50,12	9,269	-9,521	627,13	-7,731	
50,14	9,269	-9,196	626,73	-7,731	
50,16	9,269	-8,805	626,33	-7,732	
50,18	9,269	-8,682	625,94	-7,732	
50,20	9,269	-8,697	625,55	-7,732	
50,22	9,269	-8,673	625,15	-7,732	
50,24	9,269	-8,641	624,75	-7,733	
50,26	9,269	-8,676	624,35	-7,733	
50,28	9,269	-8,745	623,95	-7,733	
50,30	9,269	-8,736	623,56	-7,733	
50,32	9,269	-8,704	623,17	-7,734	
50,34	9,269	-8,717	622,78	-7,734	
50,36	9,269	-8,777	622,37	-7,734	
50,38	9,269	-8,833	621,95	-7,734	
50,40	9,269	-8,852	621,55	-7,734	
50,42	9,269	-8,840	621,14	-7,735	
50,44	9,269	-8,776	620,75	-7,735	
50,46	9,269	-9,080	620,35	-7,735	
50,48	9,269	-10,52	619,95	-7,735	
50,50	9,269	-11,71	619,55	-7,735	
50,52	9,269	-12,10	619,14	-7,736	
50,54	9,269	-12,05	618,73	-7,736	
50,56	9,269	-12,00	618,33	-7,736	
50,58	9,269	-11,09	617,94	-7,736	
50,60	9,269	-9,631	617,53	-7,736	
50,62	9,269	-9,151	617,13	-7,737	
50,64	9,269	-9,755	616,72	-7,737	
50,66	9,269	-9,945	616,32	-7,737	
50,68	9,269	-9,331	615,92	-7,737	
50,70	9,269	-8,822	615,54	-7,738	
50,72	9,269	-8,662	615,15	-7,738	
50,74	9,269	-8,684	614,75	-7,738	
50,76	9,269	-8,828	614,35	-7,738	
50,78	9,269	-9,788	613,94	-7,738	
50,80	9,269	-11,28	613,54	-7,737	
50,82	9,269	-12,03	613,14	-7,733	
50,84	9,269	-12,17	612,74	-7,730	
50,86	9,269	-12,09	612,34	-7,729	
50,88	9,269	-12,06	611,94	-7,729	
50,90	9,269	-12,08	611,55	-7,730	
50,92	9,269	-12,06	611,15	-7,730	
50,94	9,269	-11,99	610,77	-7,730	
50,96	9,269	-11,94	610,37	-7,730	
50,98	9,269	-11,95	609,98	-7,730	
51,00	9,269	-12,01	609,59	-7,731	
51,02	9,269	-12,06	609,19	-7,731	
51,04	9,269	-11,80	608,79	-7,735	
51,06	9,269	-11,26	608,39	-7,739	
51,08	9,269	-10,59	607,99	-7,742	
51,10	9,269	-9,473	607,60	-7,742	
51,12	9,269	-8,898	607,20	-7,742	
51,14	9,269	-9,332	606,80	-7,742	
51,16	9,269	-9,428	606,40	-7,743	
51,18	9,269	-9,017	606,01	-7,743	
51,20	9,269	-8,715	605,63	-7,743	
51,22	9,269	-8,617	605,24	-7,743	
51,24	9,269	-8,623	604,85	-7,743	
51,26	9,269	-8,631	604,45	-7,744	
51,28	9,269	-8,680	604,06	-7,744	
51,30	9,269	-8,697	603,67	-7,744	
51,32	9,269	-8,644	603,26	-7,744	
51,34	9,269	-8,619	602,88	-7,745	
51,36	9,269	-8,651	602,48	-7,745	
51,38	9,269	-8,656	602,10	-7,745	
51,40	9,269	-8,730	601,72	-7,745	
51,42	9,269	-8,809	601,32	-7,745	
51,44	9,269	-8,783	600,92	-7,746	
51,46	9,269	-8,765	600,53	-7,746	
51,48	9,269	-8,699	600,14	-7,746	
51,50	9,269	-8,632	599,74	-7,746	
51,52	9,269	-8,604	599,36	-7,747	
51,54	9,269	-8,656	598,99	-7,747	
51,56	9,269	-8,696	598,62	-7,747	
51,58	9,269	-8,789	598,24	-7,747	
51,60	9,269	-8,868	597,86	-7,747	
51,62	9,269	-8,844	597,48	-7,748	
51,64	9,269	-8,806	597,09	-7,748	
51,66	9,269	-9,691	596,71	-7,748	
51,68	9,269	-11,14	596,34	-7,748	
51,70	9,269	-11,90	595,97	-7,748	
51,72	9,269	-12,12	595,58	-7,749	
51,74	9,269	-12,11	595,17	-7,749	
51,76	9,269	-12,06	594,78	-7,749	
51,78	9,269	-12,08	594,39	-7,749	
51,80	9,269	-11,79	594,01	-7,750	
51,82	9,269	-10,44	593,64	-7,750	
51,84	9,269	-10,11	593,28	-7,750	
51,86	9,269	-10,59	592,89	-7,750	
51,88	9,269	-11,22	592,51	-7,750	
51,90	9,269	-11,20	592,12	-7,751	
51,92	9,269	-10,45	591,73	-7,751	
51,94	9,269	-9,397	591,36	-7,751	
51,96	9,269	-9,452	590,98	-7,751	
51,98	9,269	-9,498	590,58	-7,752	
52,00	9,269	-9,081	590,19	-7,752	
52,02	9,269	-8,737	589,79	-7,752	
52,04	9,269	-8,666	589,41	-7,752	
52,06	9,269	-8,692	589,02	-7,752	
52,08	9,269	-8,725	588,63	-7,753	
52,10	9,269	-8,716	588,24	-7,753	
52,12	9,269	-8,646	587,88	-7,753	
52,14	9,269	-8,588	587,50	-7,753	
52,16	9,269	-8,630	587,11	-7,754	
52,18	9,269	-8,729	586,72	-7,754	
52,20	9,269	-8,732	586,34	-7,754	
52,22	9,269	-8,716	585,95	-7,754	
52,24	9,269	-8,699	585,57	-7,754	
52,26	9,269	-8,696	585,19	-7,754	
52,28	9,269	-8,673	584,81	-7,755	
52,30	9,269	-8,639	584,43	-7,755	
52,32	9,269	-8,670	584,04	-7,755	
52,34	9,269	-8,719	583,64	-7,755	
52,36	9,269	-8,734	583,25	-7,755	
52,38	9,269	-8,711	582,87	-7,756	
52,40	9,269	-9,615	582,49	-7,756	
52,42	9,269	-11,18	582,12	-7,756	
52,44	9,269	-11,95	581,75	-7,757	
52,46	9,269	-12,08	581,38	-7,757	
52,48	9,269	-12,07	580,99	-7,757	
52,50	9,269	-12,03	580,62	-7,757	
52,52	9,269	-12,03	580,25	-7,757	
52,54	9,269	-12,06	579,89	-7,757	
52,56	9,269	-12,05	579,51	-7,758	
52,58	9,269	-11,94	579,12	-7,758	
52,60	9,269	-11,07	578,73	-7,758	
52,62	9,269	-9,646	578,36	-7,758	
52,64	9,269	-8,830	577,98	-7,758	
52,66	9,269	-8,588	577,60	-7,759	
52,68	9,269	-8,614	577,23	-7,759	
52,70	9,269	-8,702	576,88	-7,759	
52,72	9,269	-8,765	576,50	-7,759	
52,74	9,269	-8,808	576,11	-7,759	
52,76	9,269	-8,784	575,74	-7,760	
52,78	9,269	-8,804	575,38	-7,760	
52,80	9,269	-8,846	575,00	-7,760	
52,82	9,269	-9,741	574,64	-7,760	
52,84	9,269	-11,27	574,28	-7,761	
52,86	9,269	-12,09	573,91	-7,761	
52,88	9,269	-12,20	573,54	-7,761	
52,90	9,269	-12,15	573,17	-7,761	
52,92	9,269	-12,21	572,80	-7,762	
52,94	9,269	-12,28	572,43	-7,762	
52,96	9,269	-12,29	572,06	-7,762	
52,98	9,269	-12,22	571,70	-7,762	
53,00	9,269	-12,17	571,33	-7,762	
53,02	9,269	-12,14	570,97	-7,762	
53,04	9,269	-12,09	570,60	-7,763	
53,06	9,269	-12,06	570,23	-7,763	
53,08	9,269	-11,99	569,86	-7,763	
53,10	9,269	-12,03	569,50	-7,763	
53,12	9,269	-12,11	569,13	-7,764	
53,14	9,269	-12,17	568,75	-7,764	
53,16	9,269	-11,91	568,37	-7,764	
53,18	9,269	-11,37	568,01	-7,764	
53,20	9,269	-11,31	567,66	-7,764	
53,22	9,269	-10,20	567,28	-7,764	
53,24	9,269	-9,083	566,90	-7,765	
53,26	9,269	-8,728	566,54	-7,765	
53,28	9,269	-9,031	566,18	-7,765	
53,30	9,269	-10,45	565,81	-7,765	
53,32	9,269	-11,38	565,44	-7,765	
53,34	9,269	-10,36	565,07	-7,766	
53,36	9,269	-9,161	564,70	-7,766	
53,38	9,269	-8,694	564,34	-7,766	
53,40	9,269	-8,682	563,98	-7,766	
53,42	9,269	-9,659	563,61	-7,766	
53,44	9,269	-11,14	563,23	-7,767	
53,46	9,269	-11,87	562,85	-7,767	
53,48	9,269	-11,13	562,49	-7,767	
53,50	9,269	-9,867	562,13	-7,767	
53,52	9,269	-9,591	561,76	-7,767	
53,54	9,269	-9,215	561,40	-7,768	
53,56	9,269	-8,880	561,03	-7,768	
53,58	9,269	-8,719	560,66	-7,768	
53,60	9,269	-8,671	560,29	-7,768	
53,62	9,269	-9,577	559,93	-7,768	
53,64	9,269	-11,16	559,57	-7,769	
53,66	9,269	-12,06	559,20	-7,769	
53,68	9,269	-12,25	558,83	-7,769	
53,70	9,269	-12,20	558,47	-7,769	
53,72	9,269	-12,13	558,13	-7,769	
53,74	9,269	-12,14	557,77	-7,770	
53,76	9,269	-12,17	557,41	-7,770	
53,78	9,269	-12,14	557,04	-7,770	
53,80	9,269	-12,16	556,70	-7,770	
53,82	9,269	-12,20	556,35	-7,770	
53,84	9,269	-12,15	556,00	-7,770	
53,86	9,269	-12,15	555,68	-7,771	
53,88	9,269	-12,16	555,35	-7,771	
53,90	9,269	-12,14	555,00	-7,771	
53,92	9,269	-12,06	554,64	-7,771	
53,94	9,269	-12,09	554,28	-7,771	
53,96	9,269	-12,07	553,92	-7,772	
53,98	9,269	-12,07	553,57	-7,772	
54,00	9,269	-12,11	553,22	-7,772	
54,02	9,269	-12,13	552,86	-7,772	
54,04	9,269	-12,08	552,49	-7,773	
54,06	9,269	-12,03	552,14	-7,773	
54,08	9,269	-11,97	551,79	-7,773	
54,10	9,269	-11,95	551,45	-7,773	
54,12	9,269	-12,00	551,09	-7,773	
54,14	9,269	-11,97	550,73	-7,773	
54,16	9,269	-11,94	550,37	-7,774	
54,18	9,269	-12,02	550,02	-7,774	
54,20	9,269	-12,04	549,67	-7,774	
54,22	9,269	-12,01	549,33	-7,774	
54,24	9,269	-12,00	548,97	-7,775	
54,26	9,269	-12,01	548,61	-7,775	
54,28	9,269	-12,01	548,27	-7,775	
54,30	9,269	-12,03	547,93	-7,775	
54,32	9,269	-12,02	547,58	-7,775	
54,34	9,269	-12,00	547,23	-7,775	
54,36	9,269	-12,01	546,89	-7,776	
54,38	9,269	-12,00	546,53	-7,776	
54,40	9,269	-11,99	546,17	-7,776	
54,42	9,269	-11,98	545,82	-7,776	
54,44	9,269	-12,02	545,48	-7,776	
54,46	9,269	-12,06	545,15	-7,777	
54,48	9,269	-12,08	544,82	-7,777	
54,50	9,269	-12,09	544,48	-7,777	
54,52	9,269	-12,12	544,13	-7,777	
54,54	9,269	-12,12	543,79	-7,778	
54,56	9,269	-12,06	543,43	-7,778	
54,58	9,269	-12,01	543,07	-7,778	
54,60	9,269	-12,00	542,72	-7,778	
54,62	9,269	-12,07	542,38	-7,778	
54,64	9,269	-12,06	542,05	-7,779	
54,66	9,269	-12,01	541,71	-7,779	
54,68	9,269	-12,01	541,37	-7,779	
54,70	9,269	-12,03	541,03	-7,779	
54,72	9,269	-12,04	540,70	-7,779	
54,74	9,269	-12,00	540,36	-7,779	
54,76	9,269	-12,01	540,03	-7,780	
54,78	9,269	-12,11	539,70	-7,780	
54,80	9,269	-12,15	539,37	-7,780	
54,82	9,269	-12,12	539,03	-7,780	
54,84	9,269	-12,07	538,68	-7,780	
54,86	9,269	-12,11	538,34	-7,781	
54,88	9,269	-12,17	538,00	-7,781	
54,90	9,269	-12,17	537,67	-7,781	
54,92	9,269	-12,12	537,33	-7,781	
54,94	9,269	-12,07	537,00	-7,782	
54,96	9,269	-12,05	536,67	-7,782	
54,98	9,269	-12,05	536,33	-7,782	
55,00	9,269	-12,04	536,00	-7,782	
55,02	9,269	-12,05	535,66	-7,782	
55,04	9,269	-12,08	535,31	-7,783	
55,06	9,269	-12,10	534,97	-7,783	
55,08	9,269	-12,04	534,63	-7,783	
55,10	9,269	-11,72	534,29	-7,783	
55,12	9,269	-10,69	533,97	-7,783	
55,14	9,269	-10,82	533,64	-7,783	
55,16	9,269	-11,57	533,30	-7,784	
55,18	9,269	-11,92	532,96	-7,784	
55,20	9,269	-11,94	532,64	-7,784	
55,22	9,269	-11,85	532,32	-7,784	
55,24	9,269	-11,30	531,98	-7,784	
55,26	9,269	-11,30	531,65	-7,785	
55,28	9,269	-11,78	531,33	-7,785	
55,30	9,269	-12,03	531,01	-7,785	
55,32	9,269	-12,06	530,67	-7,785	
55,34	9,269	-11,98	530,34	-7,785	
55,36	9,269	-11,85	530,02	-7,786	
55,38	9,269	-11,56	529,70	-7,786	
55,40	9,269	-10,22	529,38	-7,786	
55,42	9,269	-8,999	529,06	-7,786	
55,44	9,269	-8,606	528,74	-7,786	
55,46	9,269	-8,631	528,42	-7,787	
55,48	9,269	-8,672	528,10	-7,787	
55,50	9,269	-8,693	527,77	-7,787	
55,52	9,269	-8,924	527,45	-7,787	
55,54	9,269	-9,441	527,12	-7,787	
55,56	9,269	-9,169	526,80	-7,787	
55,58	9,269	-8,758	526,49	-7,788	
55,60	9,269	-8,658	526,17	-7,788	
55,62	9,269	-8,649	525,86	-7,788	
55,64	9,269	-8,624	525,53	-7,788	
55,66	9,269	-8,637	525,20	-7,788	
55,68	9,269	-8,641	524,88	-7,788	
55,70	9,269	-8,613	524,55	-7,789	
55,72	9,269	-8,591	524,22	-7,789	
55,74	9,269	-8,600	523,89	-7,789	
55,76	9,269	-8,631	523,57	-7,789	
55,78	9,269	-8,654	523,25	-7,790	
55,80	9,269	-8,727	522,94	-7,790	
55,82	9,269	-8,732	522,62	-7,790	
55,84	9,269	-8,686	522,30	-7,790	
55,86	9,269	-8,667	521,97	-7,790	
55,88	9,269	-8,700	521,66	-7,790	
55,90	9,269	-8,718	521,34	-7,791	
55,92	9,269	-8,736	521,02	-7,791	
55,94	9,269	-9,574	520,71	-7,791	
55,96	9,269	-11,10	520,40	-7,791	
55,98	9,269	-11,99	520,09	-7,791	
56,00	9,269	-12,19	519,78	-7,792	
56,02	9,269	-12,11	519,46	-7,792	
56,04	9,269	-12,11	519,15	-7,792	
56,06	9,269	-12,10	518,85	-7,792	
56,08	9,269	-12,00	518,54	-7,792	
56,10	9,269	-11,94	518,23	-7,793	
56,12	9,269	-11,94	517,92	-7,793	
56,14	9,269	-12,01	517,61	-7,793	
56,16	9,269	-12,05	517,29	-7,793	
56,18	9,269	-12,05	516,97	-7,793	
56,20	9,269	-12,07	516,64	-7,793	
56,22	9,269	-12,05	516,32	-7,794	
56,24	9,269	-12,05	516,00	-7,794	
56,26	9,269	-11,81	515,68	-7,794	
56,28	9,269	-10,47	515,36	-7,794	
56,30	9,269	-9,421	515,04	-7,795	
56,32	9,269	-10,32	514,72	-7,795	
56,34	9,269	-11,52	514,41	-7,795	
56,36	9,269	-11,97	514,10	-7,795	
56,38	9,269	-11,99	513,78	-7,795	
56,40	9,269	-11,72	513,47	-7,795	
56,42	9,269	-10,40	513,15	-7,796	
56,44	9,269	-9,409	512,83	-7,796	
56,46	9,269	-9,448	512,52	-7,796	
56,48	9,269	-9,408	512,22	-7,796	
56,50	9,269	-10,44	511,91	-7,796	
56,52	9,269	-11,54	511,60	-7,796	
56,54	9,269	-11,98	511,30	-7,797	
56,56	9,269	-12,04	510,99	-7,797	
56,58	9,269	-11,95	510,68	-7,797	
56,60	9,269	-11,89	510,38	-7,797	
56,62	9,269	-11,95	510,07	-7,798	
56,64	9,269	-11,98	509,76	-7,798	
56,66	9,269	-11,70	509,44	-7,798	
56,68	9,269	-11,13	509,13	-7,798	
56,70	9,269	-11,37	508,82	-7,798	
56,72	9,269	-11,88	508,50	-7,798	
56,74	9,269	-12,09	508,20	-7,799	
56,76	9,269	-12,06	507,88	-7,799	
56,78	9,269	-12,07	507,57	-7,799	
56,80	9,269	-11,79	507,26	-7,799	
56,82	9,269	-10,32	506,94	-7,800	
56,84	9,269	-9,217	506,63	-7,800	
56,86	9,269	-9,549	506,32	-7,800	
56,88	9,269	-10,68	506,02	-7,800	
56,90	9,269	-11,60	505,71	-7,800	
56,92	9,269	-11,92	505,40	-7,800	
56,94	9,269	-11,97	505,09	-7,801	