Zeit  1 - Standardmessrate [s]	ZwickWeg [mm]	ZwickKraft [N]	Pyrometer [°C]	Maytec [mm]
0	-0,4344	174,43	150,04	0,04959	
0,02000	-0,4344	174,48	150,04	0,04939	
0,04000	-0,4344	174,47	150,04	0,04929	
0,06000	-0,4344	174,44	150,04	0,04932	
0,08000	-0,4344	174,38	150,04	0,04945	
0,1000	-0,4344	174,36	150,04	0,04957	
0,1200	-0,4344	174,39	150,04	0,04960	
0,1400	-0,4344	174,03	150,04	0,04960	
0,1600	-0,4344	172,60	150,04	0,04956	
0,1800	-0,4344	171,47	150,04	0,04947	
0,2000	-0,4344	171,15	150,04	0,04940	
0,2200	-0,4344	171,12	150,04	0,04945	
0,2400	-0,4344	171,07	150,04	0,04947	
0,2600	-0,4344	171,07	150,04	0,04951	
0,2800	-0,4344	171,18	150,04	0,04963	
0,3000	-0,4344	172,16	150,04	0,04965	
0,3200	-0,4344	173,65	150,04	0,04949	
0,3400	-0,4344	174,37	150,04	0,04940	
0,3600	-0,4344	174,44	150,04	0,04937	
0,3800	-0,4344	174,37	150,04	0,04935	
0,4000	-0,4344	174,35	150,04	0,04942	
0,4200	-0,4344	174,36	150,04	0,04960	
0,4400	-0,4344	174,38	150,04	0,04970	
0,4600	-0,4344	174,48	150,04	0,04955	
0,4800	-0,4344	174,51	150,04	0,04937	
0,5000	-0,4344	174,50	150,04	0,04931	
0,5200	-0,4344	174,49	150,04	0,04936	
0,5400	-0,4344	174,50	150,04	0,04946	
0,5600	-0,4344	174,52	150,04	0,04953	
0,5800	-0,4344	174,45	150,04	0,04957	
0,6000	-0,4344	173,47	150,04	0,04949	
0,6200	-0,4344	172,01	150,04	0,04941	
0,6400	-0,4344	171,28	150,04	0,04934	
0,6600	-0,4344	171,09	150,04	0,04932	
0,6800	-0,4344	171,07	150,04	0,04936	
0,7000	-0,4344	171,95	150,04	0,04954	
0,7200	-0,4344	173,41	150,04	0,04968	
0,7400	-0,4344	173,31	150,04	0,04974	
0,7600	-0,4344	172,02	150,04	0,04964	
0,7800	-0,4344	171,26	150,04	0,04938	
0,8000	-0,4344	171,09	150,04	0,04925	
0,8200	-0,4344	171,06	150,04	0,04935	
0,8400	-0,4344	170,97	150,04	0,04948	
0,8600	-0,4344	170,95	150,04	0,04957	
0,8800	-0,4344	171,05	150,04	0,04962	
0,9000	-0,4344	171,44	150,04	0,04951	
0,9200	-0,4344	172,82	150,04	0,04939	
0,9400	-0,4344	173,65	150,04	0,04938	
0,9600	-0,4344	173,25	150,04	0,04943	
0,9800	-0,4344	172,15	150,04	0,04951	
1,000	-0,4344	171,31	150,04	0,04959	
1,020	-0,4344	171,04	150,04	0,04961	
1,040	-0,4344	171,02	150,04	0,04955	
1,060	-0,4344	170,99	150,04	0,04944	
1,080	-0,4344	170,99	150,04	0,04938	
1,100	-0,4344	170,99	150,04	0,04946	
1,120	-0,4344	171,04	150,04	0,04953	
1,140	-0,4344	171,67	150,04	0,04959	
1,160	-0,4344	172,62	150,04	0,04959	
1,180	-0,4344	173,72	150,04	0,04958	
1,200	-0,4344	174,31	150,04	0,04958	
1,220	-0,4344	174,50	150,04	0,04952	
1,240	-0,4344	174,53	150,04	0,04940	
1,260	-0,4344	174,49	150,04	0,04935	
1,280	-0,4344	174,49	150,04	0,04945	
1,300	-0,4344	174,45	150,04	0,04959	
1,320	-0,4344	174,37	150,04	0,04966	
1,340	-0,4344	174,33	150,04	0,04960	
1,360	-0,4344	174,33	150,04	0,04947	
1,380	-0,4344	173,49	150,04	0,04936	
1,400	-0,4344	172,89	150,04	0,04931	
1,420	-0,4344	173,63	150,04	0,04937	
1,440	-0,4344	174,21	150,04	0,04947	
1,460	-0,4344	173,78	150,04	0,04955	
1,480	-0,4344	173,39	150,04	0,04962	
1,500	-0,4344	172,37	150,04	0,04957	
1,520	-0,4344	171,47	150,04	0,04948	
1,540	-0,4344	171,19	150,04	0,04941	
1,560	-0,4344	171,15	150,04	0,04933	
1,580	-0,4344	171,08	150,04	0,04936	
1,600	-0,4344	171,37	150,04	0,04944	
1,620	-0,4344	172,80	150,04	0,04953	
1,640	-0,4344	173,99	150,04	0,04958	
1,660	-0,4344	174,39	150,04	0,04948	
1,680	-0,4344	174,41	150,04	0,04938	
1,700	-0,4344	174,32	150,04	0,04936	
1,720	-0,4344	174,28	150,04	0,04939	
1,740	-0,4344	174,29	150,04	0,04944	
1,760	-0,4344	174,24	150,04	0,04955	
1,780	-0,4344	174,21	150,04	0,04971	
1,800	-0,4344	174,22	150,04	0,04968	
1,820	-0,4344	173,31	150,04	0,04943	
1,840	-0,4344	171,87	150,04	0,04925	
1,860	-0,4344	171,12	150,04	0,04926	
1,880	-0,4344	170,96	150,04	0,04945	
1,900	-0,4344	171,35	150,04	0,04964	
1,920	-0,4344	172,75	150,04	0,04966	
1,940	-0,4344	173,89	150,04	0,04960	
1,960	-0,4344	174,28	150,04	0,04946	
1,980	-0,4344	174,31	150,04	0,04936	
2,000	-0,4344	174,27	150,04	0,04937	
2,020	-0,4344	174,31	150,04	0,04951	
2,040	-0,4344	174,34	150,04	0,04965	
2,060	-0,4344	174,33	150,04	0,04970	
2,080	-0,4344	174,32	150,04	0,04965	
2,100	-0,4344	174,01	150,04	0,04955	
2,120	-0,4344	173,22	150,04	0,04940	
2,140	-0,4344	172,98	150,04	0,04939	
2,160	-0,4344	173,64	150,04	0,04947	
2,180	-0,4344	174,18	150,04	0,04955	
2,200	-0,4344	174,36	150,04	0,04962	
2,220	-0,4344	174,34	150,04	0,04966	
2,240	-0,4344	173,98	150,04	0,04960	
2,260	-0,4344	172,60	150,04	0,04951	
2,280	-0,4344	171,37	150,04	0,04939	
2,300	-0,4344	170,95	150,04	0,04935	
2,320	-0,4344	170,93	150,04	0,04935	
2,340	-0,4344	171,04	150,04	0,04948	
2,360	-0,4344	171,07	150,04	0,04958	
2,380	-0,4344	170,99	150,04	0,04958	
2,400	-0,4344	171,25	150,04	0,04953	
2,420	-0,4344	171,76	150,04	0,04938	
2,440	-0,4344	171,51	150,04	0,04929	
2,460	-0,4344	172,06	150,04	0,04935	
2,480	-0,4344	173,37	150,04	0,04949	
2,500	-0,4343	174,16	150,04	0,04961	
2,520	-0,4340	174,43	150,04	0,04965	
2,540	-0,4338	174,46	150,04	0,04955	
2,560	-0,4337	174,47	150,04	0,04945	
2,580	-0,4337	174,46	150,04	0,04939	
2,600	-0,4337	174,45	150,04	0,04938	
2,620	-0,4337	174,50	150,04	0,04949	
2,640	-0,4337	174,44	150,04	0,04961	
2,660	-0,4337	174,38	150,04	0,04967	
2,680	-0,4338	174,36	150,04	0,04961	
2,700	-0,4341	174,35	150,04	0,04947	
2,720	-0,4343	174,31	150,04	0,04937	
2,740	-0,4344	174,33	150,04	0,04933	
2,760	-0,4344	174,33	150,04	0,04944	
2,780	-0,4344	174,32	150,04	0,04961	
2,800	-0,4344	174,29	150,04	0,04965	
2,820	-0,4344	174,26	150,04	0,04957	
2,840	-0,4344	174,23	150,04	0,04957	
2,860	-0,4344	174,16	150,04	0,04957	
2,880	-0,4344	174,19	150,04	0,04946	
2,900	-0,4344	174,25	150,04	0,04947	
2,920	-0,4344	174,24	150,04	0,04953	
2,940	-0,4344	174,22	150,04	0,04962	
2,960	-0,4344	174,26	150,04	0,04967	
2,980	-0,4344	174,29	150,04	0,04964	
3,000	-0,4344	174,32	150,04	0,04958	
3,020	-0,4344	174,33	150,04	0,04950	
3,040	-0,4344	174,30	150,04	0,04947	
3,060	-0,4344	174,29	150,04	0,04955	
3,080	-0,4344	174,25	150,04	0,04964	
3,100	-0,4344	174,23	150,04	0,04966	
3,120	-0,4344	174,29	150,04	0,04969	
3,140	-0,4344	174,30	150,04	0,04961	
3,160	-0,4344	173,98	150,04	0,04942	
3,180	-0,4344	172,61	150,04	0,04929	
3,200	-0,4344	171,43	150,04	0,04933	
3,220	-0,4344	171,89	150,04	0,04946	
3,240	-0,4344	173,33	150,04	0,04959	
3,260	-0,4344	174,14	150,04	0,04968	
3,280	-0,4344	174,34	150,04	0,04974	
3,300	-0,4344	174,34	150,04	0,04967	
3,320	-0,4344	174,33	150,04	0,04950	
3,340	-0,4344	173,48	150,04	0,04944	
3,360	-0,4344	172,54	150,04	0,04945	
3,380	-0,4344	171,77	150,04	0,04946	
3,400	-0,4344	171,19	150,04	0,04954	
3,420	-0,4344	170,97	150,04	0,04964	
3,440	-0,4344	171,23	150,04	0,04963	
3,460	-0,4344	171,70	150,04	0,04955	
3,480	-0,4344	171,43	150,04	0,04943	
3,500	-0,4344	171,05	150,04	0,04940	
3,520	-0,4344	171,72	150,04	0,04948	
3,540	-0,4344	172,90	150,04	0,04961	
3,560	-0,4344	173,29	150,04	0,04973	
3,580	-0,4344	173,47	150,04	0,04972	
3,600	-0,4344	172,45	150,04	0,04952	
3,620	-0,4344	171,69	150,04	0,04932	
3,640	-0,4344	172,71	150,04	0,04928	
3,660	-0,4344	173,91	150,04	0,04942	
3,680	-0,4344	174,37	150,04	0,04956	
3,700	-0,4344	174,38	150,04	0,04960	
3,720	-0,4344	174,35	150,04	0,04955	
3,740	-0,4344	174,35	150,04	0,04946	
3,760	-0,4344	174,36	150,04	0,04936	
3,780	-0,4344	174,34	150,04	0,04930	
3,800	-0,4344	174,27	150,04	0,04932	
3,820	-0,4344	174,26	150,04	0,04940	
3,840	-0,4344	174,27	150,04	0,04953	
3,860	-0,4344	174,27	150,04	0,04969	
3,880	-0,4344	174,30	150,04	0,04969	
3,900	-0,4344	174,32	150,04	0,04951	
3,920	-0,4344	174,31	150,04	0,04939	
3,940	-0,4344	174,33	150,04	0,04936	
3,960	-0,4344	174,36	150,04	0,04941	
3,980	-0,4344	174,31	150,04	0,04946	
4,000	-0,4344	174,22	150,04	0,04956	
4,020	-0,4344	173,33	150,04	0,04963	
4,040	-0,4344	172,42	150,04	0,04962	
4,060	-0,4344	171,73	150,04	0,04951	
4,080	-0,4344	171,44	150,04	0,04939	
4,100	-0,4344	172,63	150,04	0,04936	
4,120	-0,4344	173,87	150,04	0,04942	
4,140	-0,4344	174,30	150,04	0,04953	
4,160	-0,4344	174,32	150,04	0,04962	
4,180	-0,4344	174,27	150,04	0,04966	
4,200	-0,4344	173,75	150,04	0,04962	
4,220	-0,4344	173,72	150,04	0,04947	
4,240	-0,4344	174,20	150,04	0,04935	
4,260	-0,4344	174,38	150,04	0,04937	
4,280	-0,4344	174,34	150,04	0,04950	
4,300	-0,4344	174,28	150,04	0,04963	
4,320	-0,4344	174,26	150,04	0,04967	
4,340	-0,4344	174,28	150,05	0,04965	
4,360	-0,4344	174,34	150,04	0,04957	
4,380	-0,4344	174,31	150,04	0,04945	
4,400	-0,4344	174,28	150,04	0,04941	
4,420	-0,4344	174,32	150,04	0,04943	
4,440	-0,4344	174,02	150,05	0,04951	
4,460	-0,4344	172,58	150,04	0,04961	
4,480	-0,4344	171,68	150,04	0,04966	
4,500	-0,4344	172,39	150,04	0,04957	
4,520	-0,4344	172,45	150,04	0,04942	
4,540	-0,4344	172,17	150,04	0,04930	
4,560	-0,4344	171,52	150,04	0,04936	
4,580	-0,4344	171,35	150,04	0,04949	
4,600	-0,4344	172,62	150,04	0,04954	
4,620	-0,4344	173,84	150,04	0,04958	
4,640	-0,4344	174,31	150,04	0,04964	
4,660	-0,4344	174,32	150,04	0,04958	
4,680	-0,4344	173,96	150,04	0,04947	
4,700	-0,4344	172,55	150,04	0,04942	
4,720	-0,4344	171,25	150,04	0,04947	
4,740	-0,4344	170,78	150,04	0,04956	
4,760	-0,4344	170,79	150,04	0,04958	
4,780	-0,4344	170,85	150,04	0,04960	
4,800	-0,4344	170,92	150,04	0,04951	
4,820	-0,4344	170,97	150,04	0,04940	
4,840	-0,4344	171,26	150,04	0,04936	
4,860	-0,4344	172,66	150,04	0,04938	
4,880	-0,4344	173,93	150,04	0,04948	
4,900	-0,4344	174,30	150,04	0,04956	
4,920	-0,4344	174,29	150,04	0,04963	
4,940	-0,4344	174,27	150,04	0,04962	
4,960	-0,4344	174,22	150,04	0,04949	
4,980	-0,4344	174,21	150,04	0,04934	
5,000	-0,4344	174,23	150,04	0,04935	
5,020	-0,4344	174,29	150,04	0,04949	
5,040	-0,4344	174,37	150,04	0,04959	
5,060	-0,4344	174,06	150,04	0,04963	
5,080	-0,4344	172,92	150,04	0,04961	
5,100	-0,4344	173,06	150,04	0,04944	
5,120	-0,4344	173,85	150,04	0,04927	
5,140	-0,4344	173,63	150,04	0,04929	
5,160	-0,4344	173,54	150,04	0,04943	
5,180	-0,4344	173,66	150,04	0,04953	
5,200	-0,4344	172,59	150,04	0,04956	
5,220	-0,4344	171,45	150,04	0,04957	
5,240	-0,4344	171,07	150,04	0,04952	
5,260	-0,4344	171,01	150,04	0,04944	
5,280	-0,4344	170,94	150,04	0,04941	
5,300	-0,4344	170,95	150,04	0,04942	
5,320	-0,4344	171,04	150,04	0,04948	
5,340	-0,4345	171,06	150,04	0,04960	
5,360	-0,4345	171,05	150,04	0,04965	
5,380	-0,4344	171,88	150,04	0,04953	
5,400	-0,4344	173,29	150,04	0,04941	
5,420	-0,4344	174,05	150,04	0,04935	
5,440	-0,4344	174,20	150,04	0,04934	
5,460	-0,4344	174,17	150,04	0,04943	
5,480	-0,4344	174,19	150,04	0,04951	
5,500	-0,4344	174,22	150,04	0,04950	
5,520	-0,4344	174,25	150,04	0,04942	
5,540	-0,4344	174,26	150,04	0,04936	
5,560	-0,4344	174,19	150,04	0,04937	
5,580	-0,4344	174,12	150,04	0,04947	
5,600	-0,4344	174,17	150,04	0,04958	
5,620	-0,4344	174,31	150,04	0,04955	
5,640	-0,4344	174,37	150,04	0,04956	
5,660	-0,4344	174,28	150,04	0,04961	
5,680	-0,4345	174,22	150,04	0,04956	
5,700	-0,4345	174,25	150,04	0,04941	
5,720	-0,4345	174,25	150,04	0,04937	
5,740	-0,4344	174,25	150,04	0,04945	
5,760	-0,4344	174,22	150,04	0,04961	
5,780	-0,4344	174,19	150,04	0,04969	
5,800	-0,4344	174,21	150,04	0,04966	
5,820	-0,4344	174,21	150,04	0,04956	
5,840	-0,4344	174,25	150,04	0,04946	
5,860	-0,4344	174,27	150,04	0,04940	
5,880	-0,4344	174,22	150,04	0,04946	
5,900	-0,4344	174,13	150,04	0,04948	
5,920	-0,4344	174,07	150,04	0,04952	
5,940	-0,4345	174,05	150,04	0,04962	
5,960	-0,4344	174,03	150,04	0,04965	
5,980	-0,4344	174,07	150,04	0,04947	
6,000	-0,4344	174,13	150,04	0,04936	
6,020	-0,4344	174,19	150,04	0,04932	
6,040	-0,4344	173,99	150,04	0,04937	
6,060	-0,4344	172,66	150,04	0,04952	
6,080	-0,4344	171,36	150,04	0,04965	
6,100	-0,4344	170,92	150,04	0,04966	
6,120	-0,4344	171,76	150,04	0,04956	
6,140	-0,4344	173,30	150,04	0,04943	
6,160	-0,4344	174,14	150,04	0,04937	
6,180	-0,4344	174,31	150,04	0,04947	
6,200	-0,4344	174,32	150,04	0,04954	
6,220	-0,4345	174,31	150,04	0,04957	
6,240	-0,4345	174,26	150,04	0,04967	
6,260	-0,4345	174,28	150,04	0,04962	
6,280	-0,4344	174,34	150,04	0,04946	
6,300	-0,4344	174,35	150,04	0,04932	
6,320	-0,4344	174,27	150,04	0,04931	
6,340	-0,4344	174,27	150,04	0,04942	
6,360	-0,4344	174,30	150,04	0,04955	
6,380	-0,4344	174,30	150,04	0,04959	
6,400	-0,4344	174,24	150,04	0,04955	
6,420	-0,4344	174,17	150,04	0,04949	
6,440	-0,4344	174,20	150,04	0,04942	
6,460	-0,4344	174,25	150,04	0,04936	
6,480	-0,4344	174,29	150,04	0,04942	
6,500	-0,4344	174,28	150,04	0,04954	
6,520	-0,4344	174,29	150,04	0,04962	
6,540	-0,4344	174,27	150,04	0,04967	
6,560	-0,4344	174,26	150,04	0,04966	
6,580	-0,4344	174,21	150,04	0,04953	
6,600	-0,4344	173,59	150,04	0,04939	
6,620	-0,4344	173,42	150,04	0,04933	
6,640	-0,4344	173,82	150,04	0,04940	
6,660	-0,4345	174,12	150,04	0,04948	
6,680	-0,4345	174,23	150,04	0,04956	
6,700	-0,4345	174,20	150,04	0,04964	
6,720	-0,4345	173,35	150,04	0,04960	
6,740	-0,4344	172,17	150,04	0,04946	
6,760	-0,4344	172,14	150,04	0,04937	
6,780	-0,4344	173,00	150,04	0,04935	
6,800	-0,4344	173,86	150,04	0,04943	
6,820	-0,4344	174,16	150,04	0,04959	
6,840	-0,4344	174,22	150,04	0,04969	
6,860	-0,4344	174,22	150,04	0,04964	
6,880	-0,4344	174,19	150,04	0,04948	
6,900	-0,4344	174,16	150,04	0,04935	
6,920	-0,4344	174,16	150,04	0,04935	
6,940	-0,4344	174,14	150,04	0,04941	
6,960	-0,4344	173,35	150,04	0,04953	
6,980	-0,4344	172,66	150,04	0,04966	
7,000	-0,4344	173,29	150,04	0,04961	
7,020	-0,4344	173,12	150,04	0,04938	
7,040	-0,4344	171,77	150,04	0,04925	
7,060	-0,4344	170,95	150,04	0,04926	
7,080	-0,4344	170,83	150,04	0,04930	
7,100	-0,4344	171,69	150,04	0,04938	
7,120	-0,4344	173,19	150,04	0,04949	
7,140	-0,4344	174,01	150,04	0,04955	
7,160	-0,4344	174,22	150,04	0,04957	
7,180	-0,4344	174,31	150,04	0,04949	
7,200	-0,4344	174,03	150,04	0,04940	
7,220	-0,4344	173,45	150,04	0,04942	
7,240	-0,4344	173,68	150,04	0,04945	
7,260	-0,4344	174,10	150,04	0,04952	
7,280	-0,4344	174,27	150,04	0,04955	
7,300	-0,4344	174,27	150,04	0,04953	
7,320	-0,4344	174,23	150,04	0,04948	
7,340	-0,4344	174,22	150,04	0,04934	
7,360	-0,4344	174,27	150,04	0,04929	
7,380	-0,4344	174,37	150,04	0,04938	
7,400	-0,4344	174,37	150,04	0,04950	
7,420	-0,4344	174,31	150,04	0,04957	
7,440	-0,4344	174,27	150,04	0,04959	
7,460	-0,4344	173,67	150,04	0,04951	
7,480	-0,4344	172,97	150,04	0,04936	
7,500	-0,4344	173,30	150,04	0,04927	
7,520	-0,4344	173,95	150,04	0,04934	
7,540	-0,4344	174,23	150,04	0,04948	
7,560	-0,4344	174,07	150,04	0,04954	
7,580	-0,4344	172,95	150,04	0,04960	
7,600	-0,4344	172,99	150,04	0,04964	
7,620	-0,4344	173,84	150,04	0,04955	
7,640	-0,4344	174,29	150,04	0,04939	
7,660	-0,4344	174,33	150,04	0,04927	
7,680	-0,4344	174,25	150,04	0,04929	
7,700	-0,4344	173,36	150,04	0,04943	
7,720	-0,4344	172,08	150,04	0,04956	
7,740	-0,4344	171,82	150,04	0,04958	
7,760	-0,4344	171,44	150,04	0,04950	
7,780	-0,4344	171,08	150,04	0,04942	
7,800	-0,4344	170,99	150,04	0,04933	
7,820	-0,4344	170,95	150,04	0,04934	
7,840	-0,4344	171,05	150,04	0,04942	
7,860	-0,4344	172,34	150,04	0,04953	
7,880	-0,4344	173,67	150,04	0,04966	
7,900	-0,4344	174,20	150,04	0,04955	
7,920	-0,4344	174,31	150,04	0,04938	
7,940	-0,4344	174,31	150,04	0,04930	
7,960	-0,4344	174,27	150,04	0,04932	
7,980	-0,4344	174,19	150,04	0,04946	
8,000	-0,4344	174,11	150,04	0,04957	
8,020	-0,4344	173,28	150,04	0,04958	
8,040	-0,4344	172,66	150,04	0,04962	
8,060	-0,4344	173,33	150,04	0,04956	
8,080	-0,4344	173,97	150,04	0,04943	
8,100	-0,4344	174,14	150,04	0,04939	
8,120	-0,4344	174,15	150,04	0,04944	
8,140	-0,4344	174,13	150,04	0,04950	
8,160	-0,4344	174,10	150,04	0,04956	
8,180	-0,4344	174,06	150,04	0,04962	
8,200	-0,4344	174,09	150,04	0,04956	
8,220	-0,4344	174,14	150,04	0,04944	
8,240	-0,4344	174,10	150,04	0,04936	
8,260	-0,4344	174,04	150,04	0,04938	
8,280	-0,4344	174,02	150,04	0,04951	
8,300	-0,4344	174,05	150,04	0,04960	
8,320	-0,4344	174,07	150,04	0,04963	
8,340	-0,4344	174,14	150,04	0,04956	
8,360	-0,4344	174,21	150,04	0,04943	
8,380	-0,4344	174,15	150,04	0,04930	
8,400	-0,4344	174,14	150,04	0,04932	
8,420	-0,4344	174,24	150,04	0,04943	
8,440	-0,4344	174,26	150,04	0,04953	
8,460	-0,4344	174,27	150,04	0,04956	
8,480	-0,4344	174,26	150,04	0,04951	
8,500	-0,4344	174,21	150,04	0,04946	
8,520	-0,4344	174,16	150,04	0,04937	
8,540	-0,4344	174,19	150,04	0,04928	
8,560	-0,4344	174,25	150,04	0,04930	
8,580	-0,4344	174,31	150,04	0,04942	
8,600	-0,4344	174,32	150,04	0,04952	
8,620	-0,4344	174,25	150,04	0,04956	
8,640	-0,4344	174,18	150,04	0,04950	
8,660	-0,4344	174,16	150,04	0,04934	
8,680	-0,4344	174,20	150,04	0,04926	
8,700	-0,4344	174,27	150,04	0,04935	
8,720	-0,4344	174,29	150,04	0,04949	
8,740	-0,4344	173,97	150,04	0,04958	
8,760	-0,4344	172,62	150,04	0,04962	
8,780	-0,4344	172,14	150,04	0,04964	
8,800	-0,4344	172,36	150,04	0,04950	
8,820	-0,4344	171,94	150,04	0,04939	
8,840	-0,4344	172,68	150,04	0,04937	
8,860	-0,4344	173,77	150,04	0,04939	
8,880	-0,4344	174,22	150,04	0,04945	
8,900	-0,4344	174,24	150,04	0,04954	
8,920	-0,4344	174,15	150,04	0,04955	
8,940	-0,4344	174,12	150,04	0,04952	
8,960	-0,4344	174,18	150,04	0,04942	
8,980	-0,4344	174,20	150,04	0,04934	
9,000	-0,4344	174,28	150,04	0,04932	
9,020	-0,4344	174,32	150,04	0,04940	
9,040	-0,4344	174,29	150,04	0,04952	
9,060	-0,4344	174,31	150,04	0,04963	
9,080	-0,4344	174,34	150,04	0,04961	
9,100	-0,4344	174,32	150,04	0,04945	
9,120	-0,4344	174,28	150,04	0,04935	
9,140	-0,4344	174,23	150,04	0,04934	
9,160	-0,4344	174,20	150,04	0,04936	
9,180	-0,4344	174,18	150,04	0,04944	
9,200	-0,4344	174,18	150,04	0,04949	
9,220	-0,4344	174,22	150,04	0,04957	
9,240	-0,4344	174,25	150,04	0,04952	
9,260	-0,4344	174,01	150,04	0,04940	
9,280	-0,4344	172,61	150,04	0,04931	
9,300	-0,4344	171,34	150,04	0,04936	
9,320	-0,4344	170,92	150,04	0,04944	
9,340	-0,4344	170,89	150,04	0,04951	
9,360	-0,4344	170,88	150,04	0,04960	
9,380	-0,4344	171,68	150,04	0,04959	
9,400	-0,4344	173,17	150,04	0,04949	
9,420	-0,4344	174,03	150,04	0,04937	
9,440	-0,4344	173,92	150,04	0,04934	
9,460	-0,4344	172,55	150,04	0,04940	
9,480	-0,4344	172,06	150,04	0,04953	
9,500	-0,4344	173,14	150,04	0,04960	
9,520	-0,4344	174,04	150,04	0,04961	
9,540	-0,4344	174,27	150,04	0,04955	
9,560	-0,4344	174,21	150,04	0,04947	
9,580	-0,4344	174,14	150,04	0,04936	
9,600	-0,4344	174,17	150,04	0,04931	
9,620	-0,4344	174,18	150,04	0,04935	
9,640	-0,4344	174,15	150,04	0,04950	
9,660	-0,4344	174,14	150,04	0,04961	
9,680	-0,4344	174,15	150,04	0,04957	
9,700	-0,4344	174,15	150,04	0,04952	
9,720	-0,4344	174,21	150,04	0,04946	
9,740	-0,4344	174,26	150,04	0,04946	
9,760	-0,4344	174,22	150,04	0,04949	
9,780	-0,4344	174,19	150,04	0,04953	
9,800	-0,4344	174,14	150,04	0,04958	
9,820	-0,4344	174,12	150,04	0,04963	
9,840	-0,4344	174,12	150,04	0,04958	
9,860	-0,4344	173,32	150,04	0,04950	
9,880	-0,4344	172,08	150,04	0,04940	
9,900	-0,4344	171,81	150,04	0,04934	
9,920	-0,4344	172,16	150,04	0,04939	
9,940	-0,4344	173,24	150,04	0,04955	
9,960	-0,4344	174,02	150,04	0,04963	
9,980	-0,4344	174,24	150,04	0,04957	
10,00	-0,4344	174,22	150,04	0,04949	
10,02	-0,4344	174,21	150,04	0,04943	
10,04	-0,4344	174,17	150,04	0,04937	
10,06	-0,4344	174,08	150,04	0,04938	
10,08	-0,4344	174,04	150,04	0,04953	
10,10	-0,4344	174,04	150,04	0,04966	
10,12	-0,4344	174,05	150,04	0,04971	
10,14	-0,4344	173,86	150,04	0,04966	
10,16	-0,4344	173,32	150,04	0,04952	
10,18	-0,4344	173,51	150,04	0,04944	
10,20	-0,4344	173,37	150,04	0,04942	
10,22	-0,4344	173,31	150,04	0,04945	
10,24	-0,4344	173,73	150,04	0,04952	
10,26	-0,4344	173,48	150,04	0,04954	
10,28	-0,4344	173,39	150,04	0,04951	
10,30	-0,4344	173,79	150,04	0,04945	
10,32	-0,4344	174,10	150,04	0,04936	
10,34	-0,4344	174,17	150,04	0,04931	
10,36	-0,4344	174,16	150,04	0,04941	
10,38	-0,4344	174,13	150,04	0,04955	
10,40	-0,4344	174,14	150,04	0,04962	
10,42	-0,4344	174,19	150,04	0,04964	
10,44	-0,4344	173,71	150,04	0,04953	
10,46	-0,4344	173,54	150,04	0,04940	
10,48	-0,4344	173,93	150,04	0,04930	
10,50	-0,4344	174,13	150,04	0,04927	
10,52	-0,4344	174,19	150,04	0,04939	
10,54	-0,4344	174,23	150,04	0,04949	
10,56	-0,4344	174,21	150,04	0,04953	
10,58	-0,4344	173,46	150,04	0,04959	
10,60	-0,4344	172,47	150,04	0,04959	
10,62	-0,4344	171,76	150,04	0,04950	
10,64	-0,4344	171,23	150,04	0,04945	
10,66	-0,4344	171,21	150,04	0,04939	
10,68	-0,4344	172,46	150,04	0,04943	
10,70	-0,4344	173,02	150,04	0,04955	
10,72	-0,4344	172,73	150,04	0,04963	
10,74	-0,4344	173,34	150,04	0,04958	
10,76	-0,4344	173,78	150,04	0,04945	
10,78	-0,4344	172,68	150,04	0,04934	
10,80	-0,4344	171,66	150,04	0,04933	
10,82	-0,4344	172,48	150,04	0,04938	
10,84	-0,4344	173,74	150,04	0,04948	
10,86	-0,4344	174,27	150,04	0,04957	
10,88	-0,4344	173,47	150,04	0,04958	
10,90	-0,4344	171,90	150,04	0,04951	
10,92	-0,4344	170,94	150,04	0,04940	
10,94	-0,4344	170,68	150,04	0,04936	
10,96	-0,4344	170,75	150,04	0,04940	
10,98	-0,4344	170,84	150,04	0,04949	
11,00	-0,4344	170,87	150,04	0,04963	
11,02	-0,4344	170,83	150,04	0,04967	
11,04	-0,4343	170,79	150,04	0,04962	
11,06	-0,4339	170,81	150,04	0,04954	
11,08	-0,4338	170,83	150,04	0,04942	
11,10	-0,4337	170,85	150,04	0,04941	
11,12	-0,4337	170,86	150,04	0,04952	
11,14	-0,4337	170,85	150,04	0,04963	
11,16	-0,4337	171,06	150,04	0,04973	
11,18	-0,4337	172,37	150,04	0,04967	
11,20	-0,4337	173,42	150,04	0,04949	
11,22	-0,4337	172,56	150,04	0,04937	
11,24	-0,4337	171,31	150,04	0,04930	
11,26	-0,4337	170,75	150,04	0,04935	
11,28	-0,4337	170,72	150,04	0,04945	
11,30	-0,4337	170,77	150,04	0,04962	
11,32	-0,4337	170,82	150,04	0,04970	
11,34	-0,4337	170,85	150,04	0,04955	
11,36	-0,4337	170,84	150,04	0,04935	
11,38	-0,4337	171,38	150,04	0,04929	
11,40	-0,4337	172,30	150,04	0,04933	
11,42	-0,4337	173,38	150,04	0,04943	
11,44	-0,4338	174,02	150,04	0,04957	
11,46	-0,4337	174,19	150,04	0,04963	
11,48	-0,4337	174,17	150,04	0,04960	
11,50	-0,4337	174,13	150,04	0,04950	
11,52	-0,4337	174,13	150,04	0,04943	
11,54	-0,4337	174,16	150,04	0,04940	
11,56	-0,4337	174,20	150,04	0,04940	
11,58	-0,4337	174,23	150,04	0,04948	
11,60	-0,4337	174,27	150,04	0,04956	
11,62	-0,4337	174,30	150,04	0,04961	
11,64	-0,4337	174,29	150,04	0,04953	
11,66	-0,4337	174,28	150,04	0,04940	
11,68	-0,4337	174,26	150,04	0,04933	
11,70	-0,4337	174,22	150,04	0,04939	
11,72	-0,4337	174,16	150,04	0,04953	
11,74	-0,4337	174,17	150,04	0,04966	
11,76	-0,4337	174,19	150,04	0,04966	
11,78	-0,4337	174,20	150,04	0,04961	
11,80	-0,4337	174,13	150,04	0,04947	
11,82	-0,4337	174,10	150,04	0,04933	
11,84	-0,4337	174,09	150,04	0,04933	
11,86	-0,4337	174,07	150,04	0,04941	
11,88	-0,4337	174,06	150,04	0,04947	
11,90	-0,4337	174,09	150,04	0,04953	
11,92	-0,4337	173,90	150,04	0,04954	
11,94	-0,4337	172,84	150,04	0,04940	
11,96	-0,4337	172,87	150,04	0,04935	
11,98	-0,4337	172,92	150,04	0,04943	
12,00	-0,4337	172,11	150,04	0,04942	
12,02	-0,4337	172,69	150,04	0,04941	
12,04	-0,4337	173,81	150,04	0,04953	
12,06	-0,4337	174,26	150,04	0,04959	
12,08	-0,4337	174,31	150,04	0,04953	
12,10	-0,4337	174,29	150,04	0,04941	
12,12	-0,4337	174,30	150,04	0,04934	
12,14	-0,4337	174,32	150,04	0,04939	
12,16	-0,4337	174,32	150,04	0,04948	
12,18	-0,4337	174,27	150,04	0,04955	
12,20	-0,4337	174,22	150,04	0,04963	
12,22	-0,4337	174,07	150,04	0,04962	
12,24	-0,4337	173,52	150,04	0,04943	
12,26	-0,4337	173,70	150,04	0,04929	
12,28	-0,4337	174,15	150,04	0,04931	
12,30	-0,4337	174,40	150,04	0,04938	
12,32	-0,4337	174,43	150,04	0,04951	
12,34	-0,4337	174,37	150,04	0,04969	
12,36	-0,4337	174,29	150,04	0,04978	
12,38	-0,4337	174,18	150,04	0,04971	
12,40	-0,4337	174,14	150,04	0,04956	
12,42	-0,4337	174,15	150,04	0,04944	
12,44	-0,4337	174,17	150,04	0,04942	
12,46	-0,4337	174,10	150,04	0,04948	
12,48	-0,4337	174,04	150,04	0,04965	
12,50	-0,4337	174,09	150,04	0,04966	
12,52	-0,4338	174,17	150,04	0,04955	
12,54	-0,4338	174,17	150,04	0,04940	
12,56	-0,4337	174,10	150,04	0,04931	
12,58	-0,4337	174,12	150,04	0,04935	
12,60	-0,4337	174,13	150,04	0,04947	
12,62	-0,4337	174,14	150,04	0,04959	
12,64	-0,4337	174,21	150,04	0,04967	
12,66	-0,4338	174,30	150,04	0,04962	
12,68	-0,4338	174,30	150,04	0,04948	
12,70	-0,4337	174,26	150,04	0,04940	
12,72	-0,4337	174,22	150,04	0,04939	
12,74	-0,4337	174,20	150,04	0,04945	
12,76	-0,4337	174,20	150,04	0,04950	
12,78	-0,4337	174,22	150,04	0,04957	
12,80	-0,4337	174,16	150,04	0,04961	
12,82	-0,4337	174,13	150,04	0,04955	
12,84	-0,4337	174,23	150,04	0,04939	
12,86	-0,4337	174,20	150,04	0,04931	
12,88	-0,4337	174,09	150,04	0,04931	
12,90	-0,4337	174,08	150,04	0,04950	
12,92	-0,4337	174,11	150,04	0,04969	
12,94	-0,4337	173,40	150,04	0,04969	
12,96	-0,4337	171,92	150,03	0,04958	
12,98	-0,4337	171,00	150,04	0,04943	
13,00	-0,4337	170,81	150,04	0,04934	
13,02	-0,4337	170,86	150,04	0,04935	
13,04	-0,4337	171,63	150,04	0,04947	
13,06	-0,4337	173,13	150,04	0,04961	
13,08	-0,4337	174,01	150,04	0,04968	
13,10	-0,4337	174,21	150,04	0,04964	
13,12	-0,4337	174,13	150,04	0,04945	
13,14	-0,4337	174,07	150,04	0,04932	
13,16	-0,4337	174,10	150,04	0,04930	
13,18	-0,4337	174,14	150,04	0,04933	
13,20	-0,4337	174,16	150,04	0,04940	
13,22	-0,4337	174,16	150,04	0,04955	
13,24	-0,4337	174,13	150,04	0,04967	
13,26	-0,4339	174,96	150,08	0,04962	
13,28	-0,4342	173,28	150,14	0,04866	
13,30	-0,4335	140,98	149,98	0,04770	
13,32	-0,4334	95,77	149,97	0,04782	
13,34	-0,4336	54,48	150,02	0,04834	
13,36	-0,4331	20,52	150,04	0,04869	
13,38	-0,4301	-1,095	150,04	0,04881	
13,40	-0,4249	11,03	150,04	0,04878	
13,42	-0,4196	48,10	150,04	0,04871	
13,44	-0,4153	89,12	150,04	0,04867	
13,46	-0,4122	124,68	150,04	0,04869	
13,48	-0,4104	150,52	150,04	0,04879	
13,50	-0,4097	167,24	150,04	0,04890	
13,52	-0,4095	176,56	150,04	0,04900	
13,54	-0,4096	180,17	150,04	0,04903	
13,56	-0,4096	180,84	150,04	0,04898	
13,58	-0,4097	180,75	150,04	0,04885	
13,60	-0,4100	180,76	150,04	0,04868	
13,62	-0,4102	180,83	150,04	0,04869	
13,64	-0,4104	180,88	150,04	0,04875	
13,66	-0,4107	180,11	150,04	0,04884	
13,68	-0,4109	178,55	150,04	0,04893	
13,70	-0,4109	177,61	150,04	0,04896	
13,72	-0,4112	177,36	150,04	0,04884	
13,74	-0,4115	177,41	150,04	0,04871	
13,76	-0,4116	177,29	150,04	0,04873	
13,78	-0,4116	176,02	150,04	0,04884	
13,80	-0,4116	174,60	150,04	0,04897	
13,82	-0,4116	174,03	150,04	0,04908	
13,84	-0,4116	174,05	150,04	0,04905	
13,86	-0,4119	174,10	150,04	0,04894	
13,88	-0,4121	174,08	150,04	0,04879	
13,90	-0,4122	174,03	150,04	0,04873	
13,92	-0,4122	174,01	150,04	0,04876	
13,94	-0,4122	173,98	150,04	0,04891	
13,96	-0,4122	173,95	150,04	0,04903	
13,98	-0,4122	173,94	150,04	0,04911	
14,00	-0,4122	174,00	150,04	0,04908	
14,02	-0,4122	174,09	150,04	0,04890	
14,04	-0,4122	174,19	150,04	0,04883	
14,06	-0,4122	174,18	150,03	0,04888	
14,08	-0,4122	174,16	150,04	0,04895	
14,10	-0,4122	174,10	150,04	0,04902	
14,12	-0,4122	174,10	150,04	0,04904	
14,14	-0,4122	174,13	150,04	0,04909	
14,16	-0,4122	174,10	150,04	0,04905	
14,18	-0,4122	174,14	150,04	0,04893	
14,20	-0,4122	174,19	150,04	0,04881	
14,22	-0,4122	174,15	150,04	0,04879	
14,24	-0,4122	174,17	150,04	0,04896	
14,26	-0,4124	174,24	150,04	0,04901	
14,28	-0,4127	174,20	150,04	0,04893	
14,30	-0,4129	174,12	150,04	0,04882	
14,32	-0,4129	174,06	150,04	0,04874	
14,34	-0,4129	174,04	150,04	0,04874	
14,36	-0,4129	174,03	150,04	0,04874	
14,38	-0,4129	174,08	150,04	0,04885	
14,40	-0,4129	174,10	150,04	0,04900	
14,42	-0,4129	174,06	150,04	0,04910	
14,44	-0,4129	174,10	150,04	0,04917	
14,46	-0,4129	174,16	150,04	0,04907	
14,48	-0,4129	174,13	150,04	0,04889	
14,50	-0,4129	174,15	150,04	0,04881	
14,52	-0,4129	174,27	150,04	0,04888	
14,54	-0,4129	174,21	150,04	0,04897	
14,56	-0,4129	174,11	150,04	0,04904	
14,58	-0,4129	174,06	150,04	0,04904	
14,60	-0,4129	173,30	150,04	0,04897	
14,62	-0,4129	171,88	150,04	0,04890	
14,64	-0,4129	171,78	150,04	0,04886	
14,66	-0,4129	173,11	150,03	0,04890	
14,68	-0,4129	174,08	150,03	0,04891	
14,70	-0,4129	174,27	150,04	0,04897	
14,72	-0,4129	174,17	150,04	0,04902	
14,74	-0,4129	174,18	150,04	0,04905	
14,76	-0,4130	174,28	150,04	0,04898	
14,78	-0,4132	174,22	150,04	0,04886	
14,80	-0,4135	174,21	150,04	0,04882	
14,82	-0,4136	174,21	150,04	0,04883	
14,84	-0,4136	174,17	150,04	0,04891	
14,86	-0,4136	174,17	150,04	0,04900	
14,88	-0,4136	174,09	150,04	0,04910	
14,90	-0,4136	174,06	150,04	0,04901	
14,92	-0,4136	174,05	150,04	0,04882	
14,94	-0,4136	174,06	150,04	0,04875	
14,96	-0,4136	174,03	150,04	0,04883	
14,98	-0,4136	174,05	150,04	0,04895	
15,00	-0,4136	174,07	150,04	0,04905	
15,02	-0,4136	173,33	150,04	0,04906	
15,04	-0,4136	172,55	150,04	0,04902	
15,06	-0,4136	173,21	150,04	0,04893	
15,08	-0,4136	173,76	150,04	0,04885	
15,10	-0,4136	173,32	150,04	0,04885	
15,12	-0,4136	173,52	150,04	0,04896	
15,14	-0,4136	173,41	150,04	0,04906	
15,16	-0,4136	173,33	150,04	0,04910	
15,18	-0,4136	173,80	150,04	0,04911	
15,20	-0,4136	174,07	150,04	0,04908	
15,22	-0,4136	174,15	150,04	0,04896	
15,24	-0,4136	174,19	150,04	0,04886	
15,26	-0,4136	174,15	150,04	0,04885	
15,28	-0,4136	174,06	150,04	0,04893	
15,30	-0,4136	174,02	150,04	0,04905	
15,32	-0,4136	174,06	150,04	0,04912	
15,34	-0,4136	174,08	150,04	0,04906	
15,36	-0,4136	174,02	150,04	0,04892	
15,38	-0,4136	174,01	150,04	0,04886	
15,40	-0,4136	173,97	150,04	0,04886	
15,42	-0,4136	173,96	150,04	0,04893	
15,44	-0,4137	173,96	150,04	0,04902	
15,46	-0,4140	173,81	150,04	0,04913	
15,48	-0,4142	172,73	150,04	0,04920	
15,50	-0,4143	172,73	150,04	0,04913	
15,52	-0,4143	173,58	150,04	0,04898	
15,54	-0,4143	174,01	150,04	0,04884	
15,56	-0,4143	174,07	150,04	0,04884	
15,58	-0,4143	174,10	150,04	0,04899	
15,60	-0,4143	174,09	150,04	0,04910	
15,62	-0,4143	174,09	150,04	0,04916	
15,64	-0,4143	174,12	150,04	0,04916	
15,66	-0,4142	174,17	150,04	0,04904	
15,68	-0,4142	174,16	150,04	0,04891	
15,70	-0,4142	174,13	150,04	0,04886	
15,72	-0,4143	174,14	150,04	0,04896	
15,74	-0,4143	174,10	150,04	0,04908	
15,76	-0,4143	174,13	150,04	0,04913	
15,78	-0,4143	174,18	150,04	0,04914	
15,80	-0,4143	174,10	150,04	0,04904	
15,82	-0,4142	174,09	150,04	0,04890	
15,84	-0,4143	174,20	150,04	0,04886	
15,86	-0,4143	173,51	150,04	0,04891	
15,88	-0,4143	171,99	150,04	0,04903	
15,90	-0,4143	171,06	150,04	0,04914	
15,92	-0,4142	170,82	150,04	0,04920	
15,94	-0,4142	170,85	150,04	0,04918	
15,96	-0,4143	170,87	150,04	0,04906	
15,98	-0,4143	170,86	150,04	0,04899	
16,00	-0,4143	170,89	150,04	0,04896	
16,02	-0,4143	170,91	150,04	0,04897	
16,04	-0,4143	170,90	150,04	0,04907	
16,06	-0,4143	170,93	150,04	0,04917	
16,08	-0,4143	170,92	150,04	0,04923	
16,10	-0,4143	171,00	150,04	0,04914	
16,12	-0,4143	172,26	150,04	0,04896	
16,14	-0,4143	173,45	150,04	0,04888	
16,16	-0,4143	173,40	150,04	0,04897	
16,18	-0,4143	173,65	150,04	0,04912	
16,20	-0,4143	173,78	150,04	0,04920	
16,22	-0,4143	173,33	150,04	0,04927	
16,24	-0,4143	173,60	150,04	0,04918	
16,26	-0,4143	174,09	150,04	0,04901	
16,28	-0,4143	174,25	150,04	0,04891	
16,30	-0,4143	174,20	150,04	0,04897	
16,32	-0,4143	174,19	150,04	0,04912	
16,34	-0,4144	174,22	150,04	0,04922	
16,36	-0,4147	174,23	150,04	0,04924	
16,38	-0,4149	174,27	150,04	0,04918	
16,40	-0,4149	174,25	150,04	0,04900	
16,42	-0,4149	174,27	150,04	0,04884	
16,44	-0,4149	174,23	150,04	0,04886	
16,46	-0,4149	174,21	150,04	0,04897	
16,48	-0,4149	174,24	150,04	0,04909	
16,50	-0,4149	173,54	150,04	0,04915	
16,52	-0,4149	172,71	150,04	0,04914	
16,54	-0,4149	173,29	150,04	0,04903	
16,56	-0,4149	173,95	150,04	0,04889	
16,58	-0,4149	174,15	150,04	0,04884	
16,60	-0,4149	174,12	150,04	0,04890	
16,62	-0,4149	174,15	150,04	0,04904	
16,64	-0,4149	174,13	150,04	0,04921	
16,66	-0,4149	174,16	150,04	0,04933	
16,68	-0,4149	174,29	150,04	0,04926	
16,70	-0,4150	174,26	150,04	0,04908	
16,72	-0,4150	174,24	150,04	0,04889	
16,74	-0,4150	174,26	150,04	0,04886	
16,76	-0,4149	174,19	150,04	0,04900	
16,78	-0,4149	174,17	150,04	0,04921	
16,80	-0,4149	174,22	150,04	0,04925	
16,82	-0,4149	174,20	150,04	0,04916	
16,84	-0,4149	174,17	150,04	0,04902	
16,86	-0,4149	174,20	150,04	0,04888	
16,88	-0,4149	174,27	150,04	0,04882	
16,90	-0,4149	173,69	150,04	0,04893	
16,92	-0,4149	173,35	150,04	0,04903	
16,94	-0,4150	173,74	150,04	0,04914	
16,96	-0,4150	174,08	150,04	0,04925	
16,98	-0,4150	174,22	150,04	0,04918	
17,00	-0,4149	174,19	150,04	0,04904	
17,02	-0,4149	174,18	150,04	0,04892	
17,04	-0,4149	174,22	150,04	0,04889	
17,06	-0,4149	174,08	150,04	0,04897	
17,08	-0,4149	172,98	150,04	0,04909	
17,10	-0,4149	172,84	150,04	0,04915	
17,12	-0,4150	173,67	150,04	0,04910	
17,14	-0,4150	174,20	150,05	0,04894	
17,16	-0,4150	174,30	150,04	0,04885	
17,18	-0,4150	174,25	150,04	0,04890	
17,20	-0,4150	174,25	150,04	0,04895	
17,22	-0,4149	174,26	150,04	0,04907	
17,24	-0,4149	174,27	150,04	0,04911	
17,26	-0,4149	174,29	150,04	0,04907	
17,28	-0,4149	174,28	150,04	0,04900	
17,30	-0,4149	174,28	150,04	0,04900	
17,32	-0,4149	174,34	150,04	0,04899	
17,34	-0,4151	174,38	150,04	0,04893	
17,36	-0,4154	174,39	150,04	0,04896	
17,38	-0,4156	174,36	150,04	0,04903	
17,40	-0,4156	174,40	150,04	0,04906	
17,42	-0,4156	174,37	150,04	0,04906	
17,44	-0,4156	174,28	150,04	0,04899	
17,46	-0,4156	174,30	150,04	0,04896	
17,48	-0,4156	174,30	150,04	0,04891	
17,50	-0,4156	174,27	150,04	0,04891	
17,52	-0,4156	174,25	150,04	0,04897	
17,54	-0,4156	174,28	150,04	0,04913	
17,56	-0,4156	174,21	150,04	0,04918	
17,58	-0,4156	174,16	150,04	0,04903	
17,60	-0,4157	174,20	150,04	0,04883	
17,62	-0,4156	174,05	150,04	0,04877	
17,64	-0,4156	173,43	150,04	0,04889	
17,66	-0,4156	173,62	150,04	0,04904	
17,68	-0,4156	174,13	150,04	0,04911	
17,70	-0,4156	174,24	150,04	0,04910	
17,72	-0,4156	174,21	150,04	0,04900	
17,74	-0,4156	174,21	150,04	0,04892	
17,76	-0,4156	174,17	150,04	0,04887	
17,78	-0,4156	174,22	150,04	0,04889	
17,80	-0,4156	174,28	150,04	0,04898	
17,82	-0,4156	174,25	150,04	0,04907	
17,84	-0,4156	174,20	150,04	0,04916	
17,86	-0,4156	174,24	150,04	0,04912	
17,88	-0,4156	174,22	150,04	0,04897	
17,90	-0,4156	174,22	150,04	0,04890	
17,92	-0,4156	174,31	150,04	0,04893	
17,94	-0,4156	174,28	150,04	0,04899	
17,96	-0,4156	174,27	150,04	0,04904	
17,98	-0,4156	174,30	150,04	0,04912	
18,00	-0,4156	174,17	150,04	0,04919	
18,02	-0,4156	173,58	150,04	0,04909	
18,04	-0,4156	173,75	150,04	0,04894	
18,06	-0,4156	174,16	150,04	0,04888	
18,08	-0,4156	174,41	150,04	0,04893	
18,10	-0,4156	174,42	150,04	0,04906	
18,12	-0,4156	174,40	150,04	0,04915	
18,14	-0,4156	174,43	150,04	0,04916	
18,16	-0,4156	174,26	150,04	0,04913	
18,18	-0,4156	173,09	150,04	0,04902	
18,20	-0,4156	172,93	150,04	0,04894	
18,22	-0,4156	173,57	150,04	0,04894	
18,24	-0,4156	172,74	150,04	0,04898	
18,26	-0,4156	172,16	150,04	0,04909	
18,28	-0,4156	173,15	150,04	0,04912	
18,30	-0,4156	173,90	150,04	0,04904	
18,32	-0,4156	173,54	150,04	0,04894	
18,34	-0,4156	173,74	150,04	0,04888	
18,36	-0,4156	173,65	150,04	0,04888	
18,38	-0,4156	173,55	150,04	0,04889	
18,40	-0,4156	174,01	150,04	0,04895	
18,42	-0,4156	174,34	150,04	0,04910	
18,44	-0,4156	174,44	150,04	0,04916	
18,46	-0,4159	174,48	150,04	0,04910	
18,48	-0,4161	174,50	150,04	0,04898	
18,50	-0,4163	174,44	150,04	0,04890	
18,52	-0,4163	174,41	150,04	0,04887	
18,54	-0,4163	174,39	150,04	0,04902	
18,56	-0,4163	174,36	150,04	0,04922	
18,58	-0,4163	174,37	150,04	0,04923	
18,60	-0,4163	174,30	150,04	0,04913	
18,62	-0,4163	174,26	150,04	0,04898	
18,64	-0,4163	174,29	150,04	0,04890	
18,66	-0,4163	174,35	150,05	0,04887	
18,68	-0,4163	174,33	150,04	0,04897	
18,70	-0,4163	174,35	150,04	0,04907	
18,72	-0,4163	174,36	150,05	0,04918	
18,74	-0,4163	174,35	150,04	0,04919	
18,76	-0,4163	174,31	150,04	0,04904	
18,78	-0,4163	174,19	150,04	0,04890	
18,80	-0,4163	174,15	150,04	0,04888	
18,82	-0,4163	174,20	150,04	0,04895	
18,84	-0,4163	174,21	150,04	0,04905	
18,86	-0,4163	174,24	150,04	0,04917	
18,88	-0,4163	174,21	150,04	0,04920	
18,90	-0,4163	174,12	150,04	0,04918	
18,92	-0,4163	174,13	150,04	0,04911	
18,94	-0,4163	174,21	150,04	0,04898	
18,96	-0,4163	174,21	150,04	0,04887	
18,98	-0,4163	174,20	150,04	0,04890	
19,00	-0,4163	174,24	150,04	0,04903	
19,02	-0,4163	174,28	150,04	0,04915	
19,04	-0,4163	174,27	150,04	0,04914	
19,06	-0,4163	174,25	150,04	0,04901	
19,08	-0,4163	174,22	150,04	0,04894	
19,10	-0,4163	174,16	150,04	0,04895	
19,12	-0,4163	174,13	150,04	0,04895	
19,14	-0,4163	173,97	150,04	0,04899	
19,16	-0,4163	172,67	150,04	0,04911	
19,18	-0,4163	171,97	150,04	0,04919	
19,20	-0,4163	172,86	150,04	0,04916	
19,22	-0,4163	172,50	150,04	0,04902	
19,24	-0,4163	171,56	150,04	0,04889	
19,26	-0,4163	172,22	150,04	0,04889	
19,28	-0,4163	173,47	150,04	0,04895	
19,30	-0,4163	174,06	150,04	0,04905	
19,32	-0,4163	174,17	150,04	0,04909	
19,34	-0,4163	174,23	150,04	0,04910	
19,36	-0,4163	174,10	150,04	0,04901	
19,38	-0,4163	172,77	150,04	0,04891	
19,40	-0,4163	172,07	150,04	0,04893	
19,42	-0,4163	172,87	150,04	0,04893	
19,44	-0,4163	173,17	150,04	0,04895	
19,46	-0,4163	173,64	150,04	0,04907	
19,48	-0,4163	174,03	150,04	0,04923	
19,50	-0,4163	174,15	150,04	0,04919	
19,52	-0,4163	174,20	150,04	0,04900	
19,54	-0,4163	174,20	150,04	0,04886	
19,56	-0,4163	174,11	150,04	0,04891	
19,58	-0,4163	174,03	150,04	0,04903	
19,60	-0,4163	174,05	150,04	0,04914	
19,62	-0,4163	174,03	150,04	0,04915	
19,64	-0,4163	174,03	150,04	0,04919	
19,66	-0,4163	174,01	150,04	0,04920	
19,68	-0,4166	174,03	150,04	0,04909	
19,70	-0,4168	174,02	150,04	0,04896	
19,72	-0,4169	173,95	150,04	0,04898	
19,74	-0,4169	173,86	150,04	0,04910	
19,76	-0,4169	173,38	150,04	0,04925	
19,78	-0,4169	173,58	150,04	0,04926	
19,80	-0,4169	174,00	150,04	0,04915	
19,82	-0,4169	174,18	150,04	0,04907	
19,84	-0,4169	174,15	150,04	0,04895	
19,86	-0,4169	174,10	150,04	0,04892	
19,88	-0,4169	174,15	150,04	0,04894	
19,90	-0,4169	174,15	150,04	0,04902	
19,92	-0,4169	174,16	150,04	0,04909	
19,94	-0,4169	174,22	150,04	0,04913	
19,96	-0,4169	174,28	150,04	0,04906	
19,98	-0,4169	174,27	150,04	0,04899	
20,00	-0,4169	174,23	150,04	0,04890	
20,02	-0,4169	174,20	150,04	0,04885	
20,04	-0,4169	174,16	150,04	0,04892	
20,06	-0,4169	174,16	150,04	0,04908	
20,08	-0,4169	174,15	150,04	0,04916	
20,10	-0,4169	174,07	150,04	0,04915	
20,12	-0,4169	174,04	150,04	0,04903	
20,14	-0,4169	174,14	150,04	0,04889	
20,16	-0,4169	174,20	150,04	0,04889	
20,18	-0,4169	174,13	150,05	0,04901	
20,20	-0,4170	174,13	150,04	0,04912	
20,22	-0,4170	174,17	150,05	0,04914	
20,24	-0,4170	174,15	150,04	0,04915	
20,26	-0,4170	174,18	150,04	0,04912	
20,28	-0,4170	174,13	150,04	0,04898	
20,30	-0,4170	173,46	150,04	0,04889	
20,32	-0,4170	172,65	150,04	0,04886	
20,34	-0,4170	172,55	150,04	0,04898	
20,36	-0,4170	171,72	150,04	0,04919	
20,38	-0,4170	171,66	150,05	0,04929	
20,40	-0,4170	172,94	150,04	0,04921	
20,42	-0,4169	173,84	150,04	0,04902	
20,44	-0,4169	174,12	150,04	0,04889	
20,46	-0,4169	174,12	150,04	0,04886	
20,48	-0,4169	174,14	150,04	0,04894	
20,50	-0,4169	174,20	150,05	0,04905	
20,52	-0,4169	174,19	150,04	0,04917	
20,54	-0,4169	174,18	150,05	0,04922	
20,56	-0,4169	174,14	150,04	0,04905	
20,58	-0,4169	174,13	150,04	0,04893	
20,60	-0,4169	174,16	150,04	0,04889	
20,62	-0,4169	174,20	150,04	0,04890	
20,64	-0,4169	174,17	150,04	0,04900	
20,66	-0,4169	174,17	150,04	0,04913	
20,68	-0,4169	174,25	150,04	0,04912	
20,70	-0,4169	174,24	150,04	0,04902	
20,72	-0,4169	174,26	150,04	0,04898	
20,74	-0,4169	174,31	150,04	0,04896	
20,76	-0,4169	174,35	150,04	0,04900	
20,78	-0,4169	174,33	150,04	0,04910	
20,80	-0,4169	174,23	150,04	0,04916	
20,82	-0,4169	174,24	150,04	0,04921	
20,84	-0,4169	174,18	150,04	0,04913	
20,86	-0,4169	174,15	150,05	0,04896	
20,88	-0,4169	174,18	150,04	0,04891	
20,90	-0,4169	174,22	150,04	0,04895	
20,92	-0,4170	174,22	150,04	0,04899	
20,94	-0,4172	174,26	150,04	0,04905	
20,96	-0,4175	174,20	150,04	0,04914	
20,98	-0,4176	174,08	150,04	0,04913	
21,00	-0,4176	174,07	150,04	0,04902	
21,02	-0,4176	174,09	150,04	0,04895	
21,04	-0,4176	173,63	150,04	0,04897	
21,06	-0,4176	173,36	150,04	0,04903	
21,08	-0,4176	173,84	150,04	0,04906	
21,10	-0,4176	173,65	150,04	0,04913	
21,12	-0,4176	172,89	150,04	0,04919	
21,14	-0,4176	173,29	150,04	0,04916	
21,16	-0,4176	173,92	150,04	0,04899	
21,18	-0,4176	174,18	150,04	0,04886	
21,20	-0,4176	174,19	150,04	0,04886	
21,22	-0,4176	174,12	150,04	0,04901	
21,24	-0,4176	174,19	150,04	0,04914	
21,26	-0,4176	174,23	150,04	0,04918	
21,28	-0,4176	174,20	150,04	0,04918	
21,30	-0,4176	174,16	150,04	0,04914	
21,32	-0,4176	174,06	150,04	0,04903	
21,34	-0,4176	174,09	150,04	0,04889	
21,36	-0,4176	174,29	150,04	0,04884	
21,38	-0,4176	174,36	150,04	0,04897	
21,40	-0,4176	174,32	150,04	0,04909	
21,42	-0,4176	174,31	150,04	0,04914	
21,44	-0,4176	174,25	150,04	0,04913	
21,46	-0,4176	174,21	150,04	0,04907	
21,48	-0,4176	174,20	150,04	0,04898	
21,50	-0,4176	174,12	150,04	0,04890	
21,52	-0,4176	174,06	150,04	0,04895	
21,54	-0,4176	174,13	150,04	0,04910	
21,56	-0,4176	174,15	150,04	0,04918	
21,58	-0,4176	173,66	150,04	0,04923	
21,60	-0,4176	173,40	150,04	0,04921	
21,62	-0,4176	173,79	150,04	0,04903	
21,64	-0,4176	174,07	150,04	0,04893	
21,66	-0,4176	174,07	150,04	0,04893	
21,68	-0,4176	174,11	150,04	0,04898	
21,70	-0,4176	174,12	150,04	0,04911	
21,72	-0,4176	174,04	150,04	0,04924	
21,74	-0,4176	174,08	150,04	0,04920	
21,76	-0,4176	174,14	150,04	0,04904	
21,78	-0,4176	174,18	150,04	0,04894	
21,80	-0,4176	174,26	150,04	0,04896	
21,82	-0,4176	174,30	150,04	0,04901	
21,84	-0,4176	174,30	150,04	0,04909	
21,86	-0,4176	174,30	150,04	0,04921	
21,88	-0,4176	174,29	150,04	0,04924	
21,90	-0,4176	174,24	150,04	0,04918	
21,92	-0,4176	174,20	150,04	0,04904	
21,94	-0,4176	174,11	150,04	0,04891	
21,96	-0,4176	174,06	150,04	0,04895	
21,98	-0,4176	174,14	150,04	0,04910	
22,00	-0,4176	174,19	150,04	0,04917	
22,02	-0,4176	174,20	150,04	0,04921	
22,04	-0,4176	174,13	150,04	0,04920	
22,06	-0,4176	174,11	150,04	0,04910	
22,08	-0,4176	174,12	150,04	0,04900	
22,10	-0,4176	173,95	150,04	0,04893	
22,12	-0,4176	172,82	150,04	0,04902	
22,14	-0,4176	172,65	150,04	0,04920	
22,16	-0,4176	173,53	150,04	0,04926	
22,18	-0,4176	174,06	150,04	0,04917	
22,20	-0,4176	174,12	150,04	0,04896	
22,22	-0,4176	174,07	150,04	0,04886	
22,24	-0,4176	174,14	150,04	0,04882	
22,26	-0,4176	174,15	150,04	0,04886	
22,28	-0,4176	174,13	150,04	0,04897	
22,30	-0,4176	174,13	150,04	0,04917	
22,32	-0,4180	174,67	150,06	0,04923	
22,34	-0,4184	173,83	150,09	0,04914	
22,36	-0,4184	165,97	150,07	0,04894	
22,38	-0,4183	153,42	150,05	0,04873	
22,40	-0,4183	140,27	150,04	0,04869	
22,42	-0,4180	127,13	150,04	0,04877	
22,44	-0,4173	114,82	150,04	0,04885	
22,46	-0,4162	107,84	150,04	0,04890	
22,48	-0,4149	104,62	150,04	0,04893	
22,50	-0,4136	101,24	150,04	0,04883	
22,52	-0,4123	97,08	150,04	0,04869	
22,54	-0,4109	94,28	150,04	0,04865	
22,56	-0,4096	93,44	150,04	0,04870	
22,58	-0,4080	94,03	150,04	0,04881	
22,60	-0,4063	96,38	150,04	0,04891	
22,62	-0,4049	100,19	150,04	0,04901	
22,64	-0,4035	103,44	150,04	0,04904	
22,66	-0,4021	105,83	150,04	0,04886	
22,68	-0,4008	106,92	150,04	0,04867	
22,70	-0,3995	107,10	150,04	0,04865	
22,72	-0,3982	107,07	150,04	0,04877	
22,74	-0,3968	107,06	150,04	0,04893	
22,76	-0,3955	107,03	150,04	0,04896	
22,78	-0,3942	106,99	150,04	0,04890	
22,80	-0,3928	106,97	150,05	0,04881	
22,82	-0,3915	106,97	150,04	0,04870	
22,84	-0,3902	106,96	150,04	0,04867	
22,86	-0,3892	106,92	150,04	0,04878	
22,88	-0,3881	106,88	150,04	0,04892	
22,90	-0,3868	106,89	150,04	0,04904	
22,92	-0,3854	106,92	150,04	0,04905	
22,94	-0,3841	106,36	150,04	0,04895	
22,96	-0,3827	104,87	150,04	0,04884	
22,98	-0,3814	103,86	150,04	0,04874	
23,00	-0,3800	103,76	150,04	0,04872	
23,02	-0,3787	104,97	150,04	0,04881	
23,04	-0,3774	106,38	150,04	0,04887	
23,06	-0,3760	107,00	150,04	0,04892	
23,08	-0,3747	107,13	150,04	0,04892	
23,10	-0,3733	106,58	150,04	0,04883	
23,12	-0,3720	105,01	150,04	0,04868	
23,14	-0,3707	103,91	150,04	0,04863	
23,16	-0,3693	103,62	150,03	0,04870	
23,18	-0,3680	103,61	150,04	0,04882	
23,20	-0,3666	103,66	150,04	0,04890	
23,22	-0,3653	103,63	150,04	0,04893	
23,24	-0,3640	103,58	150,04	0,04893	
23,26	-0,3626	103,55	150,04	0,04882	
23,28	-0,3613	103,61	150,04	0,04867	
23,30	-0,3599	103,73	150,04	0,04864	
23,32	-0,3586	103,76	150,04	0,04873	
23,34	-0,3572	103,74	150,04	0,04890	
23,36	-0,3559	103,74	150,04	0,04900	
23,38	-0,3546	103,77	150,04	0,04894	
23,40	-0,3532	103,81	150,04	0,04889	
23,42	-0,3519	103,80	150,04	0,04885	
23,44	-0,3505	103,78	150,04	0,04882	
23,46	-0,3492	103,76	150,04	0,04885	
23,48	-0,3478	103,22	150,04	0,04897	
23,50	-0,3465	101,75	150,04	0,04905	
23,52	-0,3451	100,71	150,04	0,04906	
23,54	-0,3438	100,32	150,04	0,04903	
23,56	-0,3425	100,23	150,04	0,04888	
23,58	-0,3410	100,22	150,04	0,04881	
23,60	-0,3393	100,27	150,04	0,04883	
23,62	-0,3378	100,31	150,04	0,04893	
23,64	-0,3364	100,31	150,04	0,04903	
23,66	-0,3351	100,31	150,04	0,04904	
23,68	-0,3337	100,27	150,04	0,04898	
23,70	-0,3324	100,24	150,04	0,04886	
23,72	-0,3310	100,20	150,04	0,04878	
23,74	-0,3296	100,21	150,04	0,04879	
23,76	-0,3279	100,28	150,04	0,04884	
23,78	-0,3264	100,26	150,04	0,04892	
23,80	-0,3250	100,25	150,04	0,04907	
23,82	-0,3236	100,25	150,04	0,04905	
23,84	-0,3223	100,26	150,04	0,04889	
23,86	-0,3210	100,27	150,04	0,04875	
23,88	-0,3196	100,28	150,04	0,04869	
23,90	-0,3182	100,21	150,04	0,04877	
23,92	-0,3165	99,01	150,04	0,04892	
23,94	-0,3150	97,57	150,04	0,04906	
23,96	-0,3136	96,90	150,04	0,04908	
23,98	-0,3123	96,80	150,04	0,04900	
24,00	-0,3109	96,82	150,04	0,04888	
24,02	-0,3095	96,79	150,04	0,04876	
24,04	-0,3078	96,75	150,04	0,04877	
24,06	-0,3063	96,68	150,04	0,04892	
24,08	-0,3049	96,69	150,04	0,04900	
24,10	-0,3035	96,74	150,04	0,04905	
24,12	-0,3019	96,73	150,04	0,04919	
24,14	-0,3003	96,74	150,04	0,04971	
24,16	-0,2988	96,78	150,04	0,05012	
24,18	-0,2975	96,75	150,04	0,05032	
24,20	-0,2960	96,80	150,04	0,05047	
24,22	-0,2944	96,79	150,04	0,05056	
24,24	-0,2928	96,78	150,04	0,05055	
24,26	-0,2914	96,88	150,04	0,05051	
24,28	-0,2898	96,88	150,04	0,05049	
24,30	-0,2882	96,80	150,04	0,05040	
24,32	-0,2867	96,81	150,04	0,05033	
24,34	-0,2854	96,80	150,04	0,05039	
24,36	-0,2839	96,81	150,04	0,04997	
24,38	-0,2823	96,29	150,04	0,04932	
24,40	-0,2807	94,77	150,04	0,04900	
24,42	-0,2793	93,73	150,04	0,04886	
24,44	-0,2779	93,45	150,04	0,04874	
24,46	-0,2762	93,41	150,04	0,04867	
24,48	-0,2747	93,38	150,04	0,04871	
24,50	-0,2732	93,39	150,04	0,04883	
24,52	-0,2715	93,40	150,06	0,04891	
24,54	-0,2700	92,88	150,75	0,04899	
24,56	-0,2685	91,45	152,60	0,04900	
24,58	-0,2668	90,44	154,66	0,04888	
24,60	-0,2653	90,15	156,71	0,04878	
24,62	-0,2638	90,70	158,39	0,04873	
24,64	-0,2621	92,19	159,94	0,04875	
24,66	-0,2606	93,24	161,63	0,04882	
24,68	-0,2589	93,56	163,14	0,04898	
24,70	-0,2573	93,57	164,34	0,04907	
24,72	-0,2557	92,93	165,52	0,04896	
24,74	-0,2541	91,45	167,15	0,04877	
24,76	-0,2525	90,48	169,13	0,04872	
24,78	-0,2510	90,17	170,78	0,04876	
24,80	-0,2494	90,17	172,05	0,04886	
24,82	-0,2478	90,15	173,34	0,04893	
24,84	-0,2462	90,11	174,61	0,04895	
24,86	-0,2445	90,13	175,78	0,04892	
24,88	-0,2428	90,16	177,15	0,04885	
24,90	-0,2412	90,13	178,77	0,04876	
24,92	-0,2396	90,10	180,53	0,04872	
24,94	-0,2380	90,09	182,10	0,04875	
24,96	-0,2363	90,05	183,53	0,04881	
24,98	-0,2346	90,05	184,89	0,04890	
25,00	-0,2330	90,13	186,24	0,04901	
25,02	-0,2313	90,14	187,52	0,04891	
25,04	-0,2296	89,68	188,93	0,04878	
25,06	-0,2279	89,33	190,48	0,04875	
25,08	-0,2263	89,11	191,94	0,04876	
25,10	-0,2246	87,87	193,30	0,04888	
25,12	-0,2229	86,92	194,67	0,04900	
25,14	-0,2212	86,66	196,06	0,04907	
25,16	-0,2196	86,70	197,46	0,04901	
25,18	-0,2179	86,78	198,85	0,04890	
25,20	-0,2162	86,79	200,19	0,04876	
25,22	-0,2145	86,77	201,56	0,04876	
25,24	-0,2129	86,62	202,93	0,04887	
25,26	-0,2111	85,48	204,21	0,04895	
25,28	-0,2093	84,12	205,45	0,04905	
25,30	-0,2077	83,48	206,84	0,04908	
25,32	-0,2060	83,33	208,37	0,04901	
25,34	-0,2042	83,39	209,88	0,04888	
25,36	-0,2024	83,46	211,30	0,04880	
25,38	-0,2008	83,48	212,71	0,04885	
25,40	-0,1990	83,46	214,20	0,04892	
25,42	-0,1972	83,45	215,70	0,04891	
25,44	-0,1954	83,47	217,14	0,04892	
25,46	-0,1937	83,39	218,51	0,04898	
25,48	-0,1919	83,35	219,89	0,04890	
25,50	-0,1901	83,35	221,33	0,04876	
25,52	-0,1883	83,39	222,77	0,04881	
25,54	-0,1864	83,43	224,20	0,04890	
25,56	-0,1847	83,33	225,57	0,04898	
25,58	-0,1829	82,18	227,00	0,04900	
25,60	-0,1811	80,75	228,47	0,04902	
25,62	-0,1793	80,05	229,87	0,04897	
25,64	-0,1775	79,88	231,19	0,04886	
25,66	-0,1757	79,94	232,55	0,04878	
25,68	-0,1739	80,00	233,98	0,04877	
25,70	-0,1720	80,08	235,43	0,04892	
25,72	-0,1701	80,09	236,85	0,04901	
25,74	-0,1683	80,09	238,25	0,04899	
25,76	-0,1665	80,10	239,64	0,04893	
25,78	-0,1647	80,06	241,07	0,04888	
25,80	-0,1629	80,07	242,51	0,04882	
25,82	-0,1610	80,10	243,98	0,04878	
25,84	-0,1591	80,09	245,43	0,04886	
25,86	-0,1572	80,00	246,88	0,04898	
25,88	-0,1554	79,87	248,36	0,04905	
25,90	-0,1535	79,86	249,84	0,04899	
25,92	-0,1517	79,94	251,31	0,04888	
25,94	-0,1499	79,86	252,75	0,04885	
25,96	-0,1480	78,67	254,20	0,04881	
25,98	-0,1462	77,28	255,67	0,04887	
26,00	-0,1444	76,69	257,15	0,04904	
26,02	-0,1425	76,56	259,23	0,04910	
26,04	-0,1405	76,03	262,83	0,04905	
26,06	-0,1386	74,50	266,98	0,04890	
26,08	-0,1367	73,50	269,85	0,04878	
26,10	-0,1348	73,25	271,63	0,04876	
26,12	-0,1328	73,24	273,20	0,04879	
26,14	-0,1309	73,25	274,70	0,04887	
26,16	-0,1290	73,28	276,18	0,04900	
26,18	-0,1271	73,29	277,72	0,04900	
26,20	-0,1251	73,31	279,12	0,04893	
26,22	-0,1231	73,38	280,64	0,04881	
26,24	-0,1211	73,38	282,18	0,04873	
26,26	-0,1191	73,33	283,61	0,04879	
26,28	-0,1173	73,28	285,07	0,04886	
26,30	-0,1153	73,22	286,68	0,04898	
26,32	-0,1133	73,23	288,24	0,04903	
26,34	-0,1113	73,28	289,68	0,04897	
26,36	-0,1093	73,32	291,09	0,04884	
26,38	-0,1073	73,28	292,62	0,04877	
26,40	-0,1053	72,84	294,21	0,04875	
26,42	-0,1032	72,00	295,72	0,04881	
26,44	-0,1012	70,85	297,24	0,04895	
26,46	-0,09918	70,06	298,74	0,04905	
26,48	-0,09718	69,84	300,26	0,04909	
26,50	-0,09517	69,93	301,78	0,04893	
26,52	-0,09316	69,95	303,32	0,04876	
26,54	-0,09112	69,92	304,82	0,04876	
26,56	-0,08910	69,91	306,29	0,04882	
26,58	-0,08708	69,88	307,84	0,04887	
26,60	-0,08507	69,84	309,43	0,04894	
26,62	-0,08307	69,85	310,95	0,04900	
26,64	-0,08104	69,84	312,43	0,04895	
26,66	-0,07902	69,85	313,98	0,04881	
26,68	-0,07701	69,38	315,57	0,04876	
26,70	-0,07492	67,93	317,21	0,04880	
26,72	-0,07276	66,87	318,81	0,04888	
26,74	-0,07068	66,56	320,36	0,04893	
26,76	-0,06864	66,49	321,94	0,04900	
26,78	-0,06661	66,32	323,60	0,04906	
26,80	-0,06458	65,69	325,28	0,04899	
26,82	-0,06242	65,85	326,96	0,04885	
26,84	-0,06028	66,29	328,63	0,04882	
26,86	-0,05813	66,48	330,30	0,04885	
26,88	-0,05596	66,56	332,01	0,04893	
26,90	-0,05386	66,51	333,75	0,04899	
26,92	-0,05181	65,35	335,52	0,04900	
26,94	-0,04965	63,89	337,28	0,04901	
26,96	-0,04750	63,25	339,06	0,04897	
26,98	-0,04535	63,18	340,84	0,04890	
27,00	-0,04316	63,09	342,57	0,04883	
27,02	-0,04091	62,57	344,16	0,04885	
27,04	-0,03876	66,58	345,17	0,04898	
27,06	-0,03666	78,04	345,57	0,04900	
27,08	-0,03452	92,38	345,69	0,04886	
27,10	-0,03245	106,75	345,86	0,04872	
27,12	-0,03078	119,78	346,26	0,04868	
27,14	-0,02968	128,10	346,86	0,04871	
27,16	-0,02892	130,17	347,60	0,04881	
27,18	-0,02806	128,45	348,51	0,04891	
27,20	-0,02714	127,91	349,36	0,04894	
27,22	-0,02622	131,87	350,08	0,04890	
27,24	-0,02534	136,13	350,89	0,04876	
27,26	-0,02445	136,61	351,87	0,04863	
27,28	-0,02369	136,69	352,73	0,04862	
27,30	-0,02320	138,55	353,38	0,04871	
27,32	-0,02250	137,74	354,20	0,04887	
27,34	-0,02157	134,44	355,20	0,04899	
27,36	-0,02085	133,45	356,05	0,04899	
27,38	-0,02024	134,41	356,73	0,04887	
27,40	-0,01955	133,52	357,50	0,04875	
27,42	-0,01855	130,83	358,44	0,04871	
27,44	-0,01771	131,17	359,28	0,04875	
27,46	-0,01709	132,84	360,05	0,04879	
27,48	-0,01634	132,46	360,85	0,04892	
27,50	-0,01539	131,11	361,67	0,04905	
27,52	-0,01453	131,86	362,47	0,04905	
27,54	-0,01395	132,66	363,26	0,04893	
27,56	-0,01344	131,11	364,09	0,04877	
27,58	-0,01278	128,93	364,98	0,04877	
27,60	-0,01209	128,04	365,82	0,04887	
27,62	-0,01151	128,21	366,56	0,04897	
27,64	-0,01083	127,06	367,38	0,04903	
27,66	-0,00995	125,42	368,27	0,04894	
27,68	-0,00916	126,03	369,09	0,04878	
27,70	-0,00848	127,62	369,81	0,04872	
27,72	-0,00771	127,78	370,64	0,04876	
27,74	-0,00682	125,93	371,56	0,04882	
27,76	-0,00612	125,97	372,35	0,04891	
27,78	-0,00543	127,20	373,17	0,04900	
27,80	-0,00469	125,62	374,07	0,04907	
27,82	-0,00408	125,44	374,85	0,04901	
27,84	-0,00342	127,43	375,63	0,04884	
27,86	-0,00268	127,17	376,47	0,04877	
27,88	-0,00190	125,37	377,27	0,04879	
27,90	-0,00113	126,19	378,07	0,04891	
27,92	-0,00050	126,51	378,94	0,04902	
27,94	0,00013	125,75	379,78	0,04905	
27,96	0,00090	124,97	380,62	0,04904	
27,98	0,00165	124,69	381,46	0,04894	
28,00	0,00226	125,57	382,21	0,04885	
28,02	0,00294	126,98	383,00	0,04883	
28,04	0,00368	127,36	383,85	0,04886	
28,06	0,00433	127,47	384,67	0,04892	
28,08	0,00501	127,58	385,51	0,04899	
28,10	0,00569	126,88	386,31	0,04899	
28,12	0,00631	127,59	387,08	0,04894	
28,14	0,00700	128,14	387,92	0,04888	
28,16	0,00772	127,13	388,80	0,04885	
28,18	0,00837	127,46	389,63	0,04876	
28,20	0,00901	128,29	390,41	0,04878	
28,22	0,00970	127,39	391,23	0,04891	
28,24	0,01038	126,32	392,08	0,04903	
28,26	0,01087	127,08	392,89	0,04899	
28,28	0,01142	127,45	393,70	0,04888	
28,30	0,01206	126,25	394,56	0,04875	
28,32	0,01274	125,25	395,43	0,04870	
28,34	0,01331	126,12	396,22	0,04877	
28,36	0,01382	127,06	397,02	0,04892	
28,38	0,01444	126,03	397,87	0,04904	
28,40	0,01508	125,73	398,65	0,04907	
28,42	0,01571	126,68	399,42	0,04901	
28,44	0,01626	126,60	400,32	0,04886	
28,46	0,01679	126,29	401,19	0,04880	
28,48	0,01742	126,81	401,99	0,04882	
28,50	0,01801	126,66	402,79	0,04892	
28,52	0,01861	125,70	403,59	0,04909	
28,54	0,01928	126,06	404,40	0,04916	
28,56	0,01985	126,40	405,20	0,04906	
28,58	0,02042	126,71	406,01	0,04895	
28,60	0,02108	126,90	406,85	0,04884	
28,62	0,02176	127,12	407,67	0,04880	
28,64	0,02226	128,51	408,46	0,04886	
28,66	0,02284	129,69	409,35	0,04900	
28,68	0,02350	129,61	410,19	0,04909	
28,70	0,02400	131,37	410,89	0,04909	
28,72	0,02455	133,05	411,71	0,04894	
28,74	0,02523	132,52	412,64	0,04876	
28,76	0,02579	133,19	413,47	0,04870	
28,78	0,02622	134,25	414,29	0,04878	
28,80	0,02665	133,36	415,10	0,04895	
28,82	0,02712	133,14	415,85	0,04899	
28,84	0,02776	133,88	416,68	0,04902	
28,86	0,02836	132,45	417,55	0,04906	
28,88	0,02879	131,76	418,34	0,04894	
28,90	0,02927	132,20	419,14	0,04881	
28,92	0,02988	132,13	419,99	0,04880	
28,94	0,03050	132,59	420,81	0,04889	
28,96	0,03100	133,96	421,62	0,04898	
28,98	0,03148	133,75	422,45	0,04903	
29,00	0,03194	133,16	423,27	0,04904	
29,02	0,03238	132,67	424,13	0,04893	
29,04	0,03281	131,99	424,92	0,04883	
29,06	0,03328	131,73	425,70	0,04879	
29,08	0,03384	131,64	426,52	0,04880	
29,10	0,03439	131,45	427,39	0,04893	
29,12	0,03484	131,74	428,16	0,04904	
29,14	0,03525	132,46	428,92	0,04905	
29,16	0,03574	131,44	429,82	0,04898	
29,18	0,03631	130,57	430,72	0,04887	
29,20	0,03678	131,29	431,51	0,04878	
29,22	0,03732	130,60	432,33	0,04881	
29,24	0,03793	129,19	433,14	0,04894	
29,26	0,03839	129,68	433,91	0,04906	
29,28	0,03889	129,86	434,81	0,04909	
29,30	0,03938	128,59	435,66	0,04902	
29,32	0,03988	129,35	436,40	0,04892	
29,34	0,04040	130,12	437,22	0,04882	
29,36	0,04098	128,75	438,05	0,04878	
29,38	0,04151	128,19	438,84	0,04884	
29,40	0,04201	128,58	439,68	0,04893	
29,42	0,04249	127,41	440,52	0,04907	
29,44	0,04300	126,97	441,34	0,04914	
29,46	0,04361	127,61	442,15	0,04902	
29,48	0,04418	127,55	442,96	0,04883	
29,50	0,04469	127,17	443,81	0,04872	
29,52	0,04516	125,90	444,70	0,04880	
29,54	0,04567	125,64	445,52	0,04892	
29,56	0,04622	126,51	446,30	0,04904	
29,58	0,04674	125,95	447,10	0,04913	
29,60	0,04730	125,08	447,88	0,04907	
29,62	0,04795	124,84	448,74	0,04894	
29,64	0,04853	123,76	449,62	0,04883	
29,66	0,04902	123,63	450,40	0,04877	
29,68	0,04958	124,29	451,22	0,04878	
29,70	0,05016	123,53	452,11	0,04887	
29,72	0,05064	123,60	452,88	0,04895	
29,74	0,05116	124,33	453,65	0,04899	
29,76	0,05175	123,34	454,50	0,04893	
29,78	0,05233	122,82	455,30	0,04883	
29,80	0,05293	123,22	456,15	0,04875	
29,82	0,05349	122,18	457,02	0,04878	
29,84	0,05401	121,29	457,81	0,04889	
29,86	0,05454	121,16	458,63	0,04899	
29,88	0,05513	120,90	459,44	0,04903	
29,90	0,05560	121,43	460,20	0,04894	
29,92	0,05612	121,95	461,04	0,04875	
29,94	0,05673	120,77	461,88	0,04866	
29,96	0,05718	120,46	462,65	0,04873	
29,98	0,05775	120,27	463,53	0,04885	
30,00	0,05842	119,41	464,40	0,04893	
30,02	0,05896	120,03	465,18	0,04896	
30,04	0,05950	120,45	466,03	0,04898	
30,06	0,06009	119,65	466,84	0,04891	
30,08	0,06056	120,11	467,61	0,04879	
30,10	0,06113	120,39	468,45	0,04877	
30,12	0,06167	119,34	469,25	0,04884	
30,14	0,06213	119,09	470,04	0,04895	
30,16	0,06264	118,40	470,94	0,04897	
30,18	0,06315	117,22	471,74	0,04893	
30,20	0,06374	118,18	472,52	0,04888	
30,22	0,06440	117,25	473,47	0,04884	
30,24	0,06487	116,34	474,27	0,04879	
30,26	0,06539	117,80	475,00	0,04882	
30,28	0,06595	117,16	475,84	0,04891	
30,30	0,06645	115,60	476,62	0,04902	
30,32	0,06698	116,00	477,43	0,04910	
30,34	0,06757	114,92	478,35	0,04911	
30,36	0,06812	113,30	479,16	0,04893	
30,38	0,06875	113,62	479,93	0,04878	
30,40	0,06934	112,83	480,79	0,04881	
30,42	0,06986	111,95	481,59	0,04889	
30,44	0,07040	113,57	482,38	0,04901	
30,46	0,07095	113,74	483,22	0,04905	
30,48	0,07149	113,13	484,01	0,04896	
30,50	0,07213	113,22	484,85	0,04893	
30,52	0,07271	112,42	485,74	0,04888	
30,54	0,07321	112,40	486,54	0,04879	
30,56	0,07376	113,04	487,36	0,04881	
30,58	0,07429	112,55	488,17	0,04897	
30,60	0,07482	112,47	488,92	0,04908	
30,62	0,07548	112,36	489,77	0,04914	
30,64	0,07605	111,43	490,62	0,04912	
30,66	0,07654	110,97	491,40	0,04897	
30,68	0,07712	110,33	492,26	0,04882	
30,70	0,07768	109,60	493,13	0,04876	
30,72	0,07820	110,70	493,91	0,04886	
30,74	0,07883	111,68	494,68	0,04898	
30,76	0,07952	110,63	495,53	0,04908	
30,78	0,08006	110,06	496,37	0,04904	
30,80	0,08059	111,28	497,14	0,04888	
30,82	0,08115	111,31	497,96	0,04878	
30,84	0,08168	110,13	498,82	0,04879	
30,86	0,08222	110,60	499,63	0,04884	
30,88	0,08287	110,77	500,49	0,04897	
30,90	0,08344	109,91	501,36	0,04911	
30,92	0,08390	110,76	502,11	0,04912	
30,94	0,08447	110,84	502,93	0,04904	
30,96	0,08504	109,44	503,78	0,04889	
30,98	0,08556	109,84	504,53	0,04873	
31,00	0,08624	110,31	505,40	0,04873	
31,02	0,08696	108,95	506,27	0,04884	
31,04	0,08742	109,00	507,03	0,04898	
31,06	0,08799	109,12	507,90	0,04905	
31,08	0,08864	108,26	508,73	0,04896	
31,10	0,08916	108,86	509,48	0,04882	
31,12	0,08973	109,54	510,34	0,04875	
31,14	0,09035	109,15	511,16	0,04877	
31,16	0,09091	109,92	511,90	0,04888	
31,18	0,09148	109,76	512,78	0,04898	
31,20	0,09204	107,87	513,65	0,04906	
31,22	0,09261	108,39	514,42	0,04912	
31,24	0,09324	108,52	515,28	0,04909	
31,26	0,09377	106,64	516,09	0,04897	
31,28	0,09431	106,52	516,84	0,04885	
31,30	0,09502	106,85	517,73	0,04886	
31,32	0,09570	106,12	518,57	0,04893	
31,34	0,09631	106,41	519,35	0,04902	
31,36	0,09687	106,11	520,20	0,04910	
31,38	0,09739	104,73	521,01	0,04905	
31,40	0,09801	104,93	521,80	0,04896	
31,42	0,09870	104,61	522,64	0,04889	
31,44	0,09934	103,65	523,38	0,04890	
31,46	0,09994	103,59	524,19	0,04892	
31,48	0,1006	103,01	525,13	0,04896	
31,50	0,1011	103,40	525,90	0,04904	
31,52	0,1017	104,32	526,68	0,04908	
31,54	0,1025	102,31	527,61	0,04901	
31,56	0,1031	100,80	528,44	0,04887	
31,58	0,1037	101,90	529,24	0,04877	
31,60	0,1043	101,13	530,07	0,04883	
31,62	0,1047	100,01	530,79	0,04886	
31,64	0,1054	100,96	531,59	0,04890	
31,66	0,1061	99,95	532,50	0,04899	
31,68	0,1067	97,66	533,33	0,04904	
31,70	0,1074	96,63	534,15	0,04896	
31,72	0,1081	95,63	534,98	0,04879	
31,74	0,1087	96,29	535,71	0,04870	
31,76	0,1094	97,21	536,56	0,04874	
31,78	0,1101	96,60	537,41	0,04886	
31,80	0,1107	97,19	538,15	0,04895	
31,82	0,1114	97,71	539,00	0,04904	
31,84	0,1121	95,92	539,87	0,04903	
31,86	0,1127	95,71	540,60	0,04886	
31,88	0,1134	95,58	541,50	0,04871	
31,90	0,1142	92,88	542,41	0,04873	
31,92	0,1147	92,58	543,18	0,04889	
31,94	0,1154	93,04	544,01	0,04907	
31,96	0,1162	91,75	544,79	0,04916	
31,98	0,1169	91,48	545,48	0,04915	
32,00	0,1177	91,10	546,41	0,04904	
32,02	0,1185	88,72	547,36	0,04888	
32,04	0,1191	88,85	548,11	0,04878	
32,06	0,1198	89,34	548,86	0,04882	
32,08	0,1206	87,47	549,71	0,04891	
32,10	0,1214	85,93	550,53	0,04906	
32,12	0,1221	86,27	551,30	0,04909	
32,14	0,1228	84,39	552,18	0,04899	
32,16	0,1236	82,33	552,96	0,04885	
32,18	0,1243	83,52	553,59	0,04876	
32,20	0,1251	83,41	554,51	0,04876	
32,22	0,1259	79,54	555,68	0,04883	
32,24	0,1267	78,29	556,51	0,04894	
32,26	0,1274	80,03	557,07	0,04902	
32,28	0,1282	78,71	557,80	0,04905	
32,30	0,1291	74,68	558,77	0,04902	
32,32	0,1298	74,89	559,55	0,04893	
32,34	0,1305	76,14	560,29	0,04886	
32,36	0,1313	72,62	561,26	0,04881	
32,38	0,1321	69,65	562,14	0,04888	
32,40	0,1330	69,32	562,90	0,04896	
32,42	0,1339	67,23	563,67	0,04898	
32,44	0,1346	64,29	564,40	0,04896	
32,46	0,1354	63,01	565,24	0,04893	
32,48	0,1363	60,27	566,17	0,04888	
32,50	0,1371	58,57	566,89	0,04885	
32,52	0,1379	58,36	567,68	0,04890	
32,54	0,1389	55,62	568,68	0,04897	
32,56	0,1398	53,88	569,51	0,04909	
32,58	0,1406	54,01	570,21	0,04916	
32,60	0,1415	51,84	571,02	0,04906	
32,62	0,1425	48,52	571,87	0,04892	
32,64	0,1435	47,89	572,62	0,04881	
32,66	0,1444	47,01	573,41	0,04884	
32,68	0,1454	44,29	574,28	0,04897	
32,70	0,1463	42,58	575,07	0,04904	
32,72	0,1473	41,73	575,86	0,04910	
32,74	0,1484	38,42	576,82	0,04903	
32,76	0,1494	35,87	577,68	0,04891	
32,78	0,1504	35,84	578,41	0,04883	
32,80	0,1514	34,10	579,21	0,04883	
32,82	0,1525	31,30	580,00	0,04891	
32,84	0,1537	30,30	580,79	0,04901	
32,86	0,1548	28,89	581,68	0,04911	
32,88	0,1559	26,14	582,54	0,04906	
32,90	0,1571	24,49	583,27	0,04898	
32,92	0,1581	23,86	584,03	0,04890	
32,94	0,1593	21,61	584,98	0,04884	
32,96	0,1605	19,34	585,84	0,04888	
32,98	0,1617	19,40	586,53	0,04902	
33,00	0,1628	17,48	587,45	0,04916	
33,02	0,1640	14,51	588,39	0,04916	
33,04	0,1652	14,27	589,07	0,04905	
33,06	0,1665	13,14	589,87	0,04892	
33,08	0,1679	9,280	590,77	0,04888	
33,10	0,1692	7,127	591,54	0,04888	
33,12	0,1706	6,986	592,27	0,04885	
33,14	0,1719	4,982	593,13	0,04898	
33,16	0,1733	3,117	593,99	0,04913	
33,18	0,1746	3,690	594,71	0,04918	
33,20	0,1759	3,437	595,55	0,04900	
33,22	0,1773	1,741	596,52	0,04882	
33,24	0,1787	0,8467	597,31	0,04880	
33,26	0,1800	0,2813	598,01	0,04885	
33,28	0,1813	-1,701	598,85	0,04892	
33,30	0,1827	-4,636	599,83	0,04896	
33,32	0,1840	-4,723	600,58	0,04893	
33,34	0,1853	-4,491	601,31	0,04892	
33,36	0,1868	-6,743	602,29	0,04885	
33,38	0,1881	-7,683	603,12	0,04878	
33,40	0,1894	-6,426	603,76	0,04879	
33,42	0,1907	-6,737	604,57	0,04891	
33,44	0,1922	-9,804	605,60	0,04904	
33,46	0,1938	-9,938	606,44	0,04911	
33,48	0,1953	-7,471	607,15	0,04908	
33,50	0,1968	-7,867	608,05	0,04889	
33,52	0,1981	-7,728	608,88	0,04878	
33,54	0,1994	-5,568	609,59	0,04885	
33,56	0,2008	-4,224	610,44	0,04900	
33,58	0,2021	-4,363	611,31	0,04907	
33,60	0,2034	-2,692	612,04	0,04907	
33,62	0,2048	-0,7407	612,82	0,04903	
33,64	0,2062	-0,3826	613,74	0,04897	
33,66	0,2075	2,179	614,53	0,04890	
33,68	0,2088	6,983	615,27	0,04883	
33,70	0,2102	8,657	616,22	0,04883	
33,72	0,2116	10,05	617,13	0,04889	
33,74	0,2129	14,14	617,88	0,04900	
33,76	0,2142	17,31	618,67	0,04907	
33,78	0,2156	18,26	619,47	0,04903	
33,80	0,2168	20,20	620,30	0,04888	
33,82	0,2179	22,70	621,15	0,04884	
33,84	0,2190	24,65	621,91	0,04886	
33,86	0,2202	27,25	622,73	0,04890	
33,88	0,2213	29,89	623,62	0,04901	
33,90	0,2223	33,24	624,37	0,04911	
33,92	0,2235	36,67	625,19	0,04911	
33,94	0,2247	37,80	626,14	0,04898	
33,96	0,2257	40,57	626,95	0,04882	
33,98	0,2267	44,82	627,70	0,04875	
34,00	0,2278	46,18	628,53	0,04882	
34,02	0,2288	47,49	629,34	0,04897	
34,04	0,2298	50,69	630,14	0,04907	
34,06	0,2308	53,07	630,94	0,04908	
34,08	0,2318	54,77	631,74	0,04900	
34,10	0,2327	56,24	632,61	0,04892	
34,12	0,2336	57,76	633,46	0,04888	
34,14	0,2344	59,89	634,26	0,04889	
34,16	0,2354	60,68	635,14	0,04902	
34,18	0,2363	61,47	635,91	0,04909	
34,20	0,2371	64,17	636,61	0,04908	
34,22	0,2380	65,31	637,56	0,04900	
34,24	0,2390	65,33	638,47	0,04890	
34,26	0,2398	67,82	639,21	0,04879	
34,28	0,2407	68,87	640,07	0,04877	
34,30	0,2415	68,89	640,89	0,04888	
34,32	0,2422	71,18	641,64	0,04903	
34,34	0,2431	71,82	642,51	0,04912	
34,36	0,2439	70,34	643,32	0,04906	
34,38	0,2447	71,48	644,08	0,04898	
34,40	0,2456	72,84	644,96	0,04893	
34,42	0,2464	72,31	645,76	0,04891	
34,44	0,2472	72,95	646,57	0,04894	
34,46	0,2480	73,33	647,46	0,04905	
34,48	0,2488	73,48	648,22	0,04910	
34,50	0,2496	75,13	648,99	0,04901	
34,52	0,2504	74,76	649,89	0,04891	
34,54	0,2511	74,21	650,69	0,04885	
34,56	0,2519	75,87	651,50	0,04880	
34,58	0,2528	75,83	652,37	0,04879	
34,60	0,2535	75,54	653,13	0,04885	
34,62	0,2543	75,93	653,96	0,04895	
34,64	0,2550	74,18	654,86	0,04905	
34,66	0,2557	72,79	655,59	0,04904	
34,68	0,2564	72,76	656,39	0,04893	
34,70	0,2572	70,81	657,31	0,04877	
34,72	0,2580	70,42	658,09	0,04872	
34,74	0,2588	71,24	658,88	0,04877	
34,76	0,2596	70,22	659,72	0,04888	
34,78	0,2604	69,93	660,46	0,04904	
34,80	0,2612	70,32	661,32	0,04910	
34,82	0,2621	68,26	662,26	0,04905	
34,84	0,2628	67,09	663,05	0,04890	
34,86	0,2635	67,28	663,84	0,04882	
34,88	0,2643	65,55	664,64	0,04884	
34,90	0,2651	65,01	665,38	0,04884	
34,92	0,2660	66,16	666,25	0,04889	
34,94	0,2669	65,21	667,14	0,04898	
34,96	0,2676	64,57	667,90	0,04900	
34,98	0,2685	64,32	668,73	0,04892	
35,00	0,2694	62,71	669,56	0,04878	
35,02	0,2702	62,69	670,32	0,04877	
35,04	0,2710	62,04	671,20	0,04888	
35,06	0,2719	59,66	672,02	0,04897	
35,08	0,2727	59,33	672,76	0,04900	
35,10	0,2736	58,59	673,68	0,04907	
35,12	0,2745	56,75	674,54	0,04899	
35,14	0,2754	57,64	675,27	0,04887	
35,16	0,2763	57,51	676,16	0,04884	
35,18	0,2772	55,59	677,05	0,04885	
35,20	0,2781	56,04	677,79	0,04896	
35,22	0,2790	56,35	678,54	0,04907	
35,24	0,2799	53,64	679,37	0,04908	
35,26	0,2808	53,04	680,18	0,04904	
35,28	0,2817	53,96	681,01	0,04890	
35,30	0,2826	52,69	681,89	0,04881	
35,32	0,2835	51,94	682,62	0,04878	
35,34	0,2845	52,81	683,34	0,04878	
35,36	0,2855	51,53	684,30	0,04888	
35,38	0,2864	49,28	685,25	0,04904	
35,40	0,2872	50,48	686,00	0,04910	
35,42	0,2882	50,21	686,80	0,04903	
35,44	0,2891	47,96	687,60	0,04890	
35,46	0,2901	48,29	688,36	0,04885	
35,48	0,2911	48,24	689,25	0,04887	
35,50	0,2920	45,92	690,10	0,04894	
35,52	0,2929	45,67	690,85	0,04904	
35,54	0,2940	44,50	691,76	0,04909	
35,56	0,2950	43,14	692,63	0,04910	
35,58	0,2959	44,69	693,34	0,04899	
35,60	0,2970	45,21	694,14	0,04886	
35,62	0,2980	42,99	695,01	0,04882	
35,64	0,2990	42,58	695,83	0,04885	
35,66	0,3000	43,71	696,62	0,04896	
35,68	0,3010	42,68	697,41	0,04912	
35,70	0,3021	41,67	698,25	0,04918	
35,72	0,3032	41,24	699,11	0,04909	
35,74	0,3042	41,48	699,91	0,04887	
35,76	0,3051	42,43	700,69	0,04871	
35,78	0,3063	41,92	701,55	0,04879	
35,80	0,3073	41,64	702,36	0,04899	
35,82	0,3083	41,76	703,18	0,04912	
35,84	0,3094	40,82	704,05	0,04914	
35,86	0,3104	40,25	704,84	0,04905	
35,88	0,3114	40,49	705,64	0,04891	
35,90	0,3125	40,29	706,46	0,04884	
35,92	0,3136	40,62	707,19	0,04888	
35,94	0,3147	41,36	708,03	0,04893	
35,96	0,3158	39,63	709,03	0,04905	
35,98	0,3168	38,62	709,87	0,04907	
36,00	0,3177	40,24	710,54	0,04900	
36,02	0,3187	40,37	711,32	0,04884	
36,04	0,3198	37,90	712,26	0,04876	
36,06	0,3209	38,59	713,03	0,04879	
36,08	0,3219	40,06	713,74	0,04887	
36,10	0,3230	37,94	714,69	0,04899	
36,12	0,3240	35,28	715,66	0,04909	
36,14	0,3250	35,30	716,37	0,04906	
36,16	0,3259	35,62	717,03	0,04895	
36,18	0,3270	33,19	717,94	0,04883	
36,20	0,3283	31,52	718,92	0,04879	
36,22	0,3293	33,39	719,68	0,04884	
36,24	0,3304	34,44	720,34	0,04894	
36,26	0,3314	32,73	721,16	0,04904	
36,28	0,3326	30,99	722,11	0,04910	
36,30	0,3336	31,87	722,89	0,04900	
36,32	0,3346	32,46	723,62	0,04885	
36,34	0,3358	30,50	724,49	0,04883	
36,36	0,3370	28,87	725,37	0,04888	
36,38	0,3380	28,39	726,14	0,04893	
36,40	0,3391	27,47	726,92	0,04898	
36,42	0,3401	25,96	727,78	0,04904	
36,44	0,3412	26,31	728,62	0,04909	
36,46	0,3424	27,85	729,41	0,04905	
36,48	0,3437	28,08	730,29	0,04896	
36,50	0,3448	28,19	731,15	0,04889	
36,52	0,3459	30,48	731,95	0,04887	
36,54	0,3471	32,99	732,78	0,04893	
36,56	0,3481	34,45	733,60	0,04906	
36,58	0,3492	36,39	734,39	0,04908	
36,60	0,3503	38,92	735,22	0,04891	
36,62	0,3514	40,75	736,06	0,04871	
36,64	0,3523	43,08	736,81	0,04867	
36,66	0,3533	45,86	737,60	0,04881	
36,68	0,3544	47,05	738,53	0,04888	
36,70	0,3554	48,30	739,31	0,04892	
36,72	0,3563	51,36	740,05	0,04898	
36,74	0,3574	51,94	741,09	0,04901	
36,76	0,3583	52,28	742,00	0,04891	
36,78	0,3592	55,58	742,69	0,04882	
36,80	0,3602	56,55	743,49	0,04884	
36,82	0,3609	55,99	744,25	0,04895	
36,84	0,3619	57,51	745,05	0,04902	
36,86	0,3629	58,52	745,98	0,04902	
36,88	0,3636	59,41	746,66	0,04900	
36,90	0,3645	61,51	747,46	0,04887	
36,92	0,3657	60,06	748,65	0,04873	
36,94	0,3665	59,36	749,54	0,04875	
36,96	0,3672	61,99	750,11	0,04883	
36,98	0,3681	62,65	750,84	0,04890	
37,00	0,3689	61,63	751,68	0,04903	
37,02	0,3698	63,74	752,40	0,04907	
37,04	0,3707	65,15	753,23	0,04901	
37,06	0,3717	63,08	754,17	0,04886	
37,08	0,3725	63,34	754,81	0,04877	
37,10	0,3733	66,79	755,46	0,04879	
37,12	0,3743	65,93	756,73	0,04884	
37,14	0,3753	62,96	757,96	0,04898	
37,16	0,3759	65,21	758,41	0,04906	
37,18	0,3766	68,39	758,64	0,04902	
37,20	0,3776	65,72	759,64	0,04894	
37,22	0,3786	61,34	761,20	0,04884	
37,24	0,3794	62,08	762,10	0,04873	
37,26	0,3800	66,14	762,16	0,04879	
37,28	0,3809	67,23	762,61	0,04898	
37,30	0,3819	63,69	764,07	0,04909	
37,32	0,3830	61,44	765,52	0,04907	
37,34	0,3835	63,57	765,94	0,04895	
37,36	0,3841	64,40	766,14	0,04878	
37,38	0,3850	59,91	767,25	0,04868	
37,40	0,3862	56,10	768,69	0,04873	
37,42	0,3869	58,16	769,27	0,04889	
37,44	0,3873	60,91	769,27	0,04903	
37,46	0,3881	57,91	769,92	0,04910	
37,48	0,3893	53,76	771,52	0,04908	
37,50	0,3902	52,09	773,00	0,04893	
37,52	0,3907	53,54	773,45	0,04877	
37,54	0,3913	53,53	773,85	0,04869	
37,56	0,3923	49,35	774,99	0,04877	
37,58	0,3931	48,76	775,98	0,04893	
37,60	0,3937	52,17	776,51	0,04901	
37,62	0,3944	49,72	777,16	0,04907	
37,64	0,3952	43,93	777,96	0,04911	
37,66	0,3960	43,53	778,72	0,04899	
37,68	0,3968	44,68	779,54	0,04885	
37,70	0,3975	43,69	780,34	0,04877	
37,72	0,3981	43,32	781,20	0,04879	
37,74	0,3988	43,36	782,03	0,04887	
37,76	0,3994	43,68	782,64	0,04895	
37,78	0,4003	43,55	783,58	0,04904	
37,80	0,4012	40,78	784,83	0,04901	
37,82	0,4018	40,71	785,61	0,04883	
37,84	0,4025	41,63	786,28	0,04877	
37,86	0,4033	39,27	787,01	0,04881	
37,88	0,4040	38,35	787,58	0,04887	
37,90	0,4048	39,94	788,58	0,04895	
37,92	0,4056	37,78	789,86	0,04901	
37,94	0,4063	36,27	790,63	0,04902	
37,96	0,4071	37,13	791,21	0,04893	
37,98	0,4078	36,58	791,85	0,04878	
38,00	0,4086	36,61	792,58	0,04874	
38,02	0,4095	37,94	793,53	0,04888	
38,04	0,4102	37,70	794,27	0,04903	
38,06	0,4108	38,79	794,82	0,04909	
38,08	0,4117	39,23	795,99	0,04911	
38,10	0,4126	36,96	797,40	0,04899	
38,12	0,4133	38,08	798,01	0,04885	
38,14	0,4139	41,16	798,24	0,04881	
38,16	0,4148	39,31	799,15	0,04881	
38,18	0,4157	36,85	800,28	0,04888	
38,20	0,4164	41,55	800,50	0,04902	
38,22	0,4169	49,91	799,97	0,04904	
38,24	0,4176	55,01	799,66	0,04895	
38,26	0,4186	57,76	799,78	0,04883	
38,28	0,4192	65,24	799,67	0,04876	
38,30	0,4197	71,23	799,62	0,04872	
38,32	0,4204	69,04	799,85	0,04878	
38,34	0,4210	69,69	799,77	0,04890	
38,36	0,4215	76,85	799,60	0,04896	
38,38	0,4220	79,29	799,84	0,04901	
38,40	0,4224	80,19	799,87	0,04893	
38,42	0,4228	86,06	799,64	0,04882	
38,44	0,4233	87,14	799,75	0,04881	
38,46	0,4238	85,47	799,81	0,04883	
38,48	0,4242	91,19	799,60	0,04893	
38,50	0,4246	94,60	799,73	0,04909	
38,52	0,4251	91,83	799,94	0,04911	
38,54	0,4254	95,25	799,74	0,04897	
38,56	0,4258	100,70	799,69	0,04886	
38,58	0,4262	99,27	799,88	0,04877	
38,60	0,4266	100,69	799,75	0,04879	
38,62	0,4269	105,68	799,59	0,04890	
38,64	0,4274	104,35	799,80	0,04899	
38,66	0,4277	102,75	799,80	0,04904	
38,68	0,4279	107,11	799,60	0,04901	
38,70	0,4284	107,53	799,74	0,04894	
38,72	0,4287	105,63	799,80	0,04888	
38,74	0,4289	110,37	799,59	0,04888	
38,76	0,4293	112,31	799,71	0,04886	
38,78	0,4298	108,78	799,89	0,04893	
38,80	0,4300	111,04	799,69	0,04905	
38,82	0,4303	113,91	799,66	0,04907	
38,84	0,4308	110,83	799,88	0,04893	
38,86	0,4310	111,43	799,76	0,04873	
38,88	0,4312	115,96	799,60	0,04867	
38,90	0,4316	114,56	799,80	0,04884	
38,92	0,4319	113,46	799,80	0,04897	
38,94	0,4321	118,07	799,57	0,04901	
38,96	0,4326	118,03	799,79	0,04905	
38,98	0,4330	114,24	800,09	0,04896	
39,00	0,4332	116,77	799,88	0,04884	
39,02	0,4333	120,83	799,63	0,04879	
39,04	0,4336	117,50	799,80	0,04886	
39,06	0,4339	116,79	799,82	0,04901	
39,08	0,4340	121,94	799,60	0,04911	
39,10	0,4344	120,98	799,73	0,04917	
39,12	0,4347	116,79	799,84	0,04917	
39,14	0,4349	119,88	799,63	0,04903	
39,16	0,4352	121,96	799,69	0,04890	
39,18	0,4355	117,69	799,92	0,04890	
39,20	0,4356	118,49	799,76	0,04897	
39,22	0,4358	121,92	799,64	0,04906	
39,24	0,4361	119,17	799,83	0,04909	
39,26	0,4363	118,29	799,75	0,04905	
39,28	0,4365	122,86	799,59	0,04895	
39,30	0,4368	121,69	799,81	0,04887	
39,32	0,4370	118,68	799,88	0,04882	
39,34	0,4371	122,50	799,63	0,04888	
39,36	0,4374	123,43	799,71	0,04897	
39,38	0,4377	119,29	799,91	0,04902	
39,40	0,4379	121,68	799,72	0,04900	
39,42	0,4380	124,42	799,68	0,04896	
39,44	0,4382	120,44	799,87	0,04888	
39,46	0,4384	120,17	799,73	0,04878	
39,48	0,4386	124,04	799,58	0,04878	
39,50	0,4389	121,09	799,94	0,04888	
39,52	0,4392	118,57	800,14	0,04898	
39,54	0,4393	123,53	799,81	0,04907	
39,56	0,4394	125,54	799,69	0,04908	
39,58	0,4399	121,78	799,93	0,04897	
39,60	0,4401	122,84	799,85	0,04879	
39,62	0,4400	127,03	799,63	0,04869	
39,64	0,4403	124,37	799,72	0,04878	
39,66	0,4406	121,63	799,69	0,04895	
39,68	0,4407	125,98	799,52	0,04902	
39,70	0,4410	125,72	799,76	0,04900	
39,72	0,4414	121,74	799,96	0,04899	
39,74	0,4414	124,83	799,73	0,04889	
39,76	0,4415	127,93	799,62	0,04875	
39,78	0,4419	124,30	799,78	0,04872	
39,80	0,4421	125,07	799,66	0,04881	
39,82	0,4421	128,65	799,58	0,04890	
39,84	0,4425	124,99	799,86	0,04892	
39,86	0,4428	122,31	799,89	0,04890	
39,88	0,4427	127,09	799,63	0,04881	
39,90	0,4430	127,57	799,74	0,04871	
39,92	0,4434	123,72	799,87	0,04869	
39,94	0,4434	126,61	799,65	0,04874	
39,96	0,4435	128,14	799,72	0,04895	
39,98	0,4439	123,50	800,02	0,04925	
40,00	0,4441	123,31	799,89	0,04937	
40,02	0,4441	127,59	799,62	0,04925	
40,04	0,4445	125,82	799,72	0,04910	
40,06	0,4448	124,79	799,71	0,04898	
40,08	0,4447	129,34	799,53	0,04891	
40,10	0,4450	128,78	799,80	0,04896	
40,12	0,4454	124,50	800,07	0,04907	
40,14	0,4454	126,23	799,84	0,04921	
40,16	0,4454	130,05	799,66	0,04922	
40,18	0,4459	127,23	799,81	0,04903	
40,20	0,4461	127,05	799,71	0,04883	
40,22	0,4461	130,84	799,59	0,04876	
40,24	0,4464	128,55	799,86	0,04869	
40,26	0,4467	125,59	799,92	0,04781	
40,28	0,4467	129,87	799,66	0,04385	
40,30	0,4470	130,91	799,74	0,03936	
40,32	0,4474	127,71	799,87	0,03917	
40,34	0,4474	130,30	799,65	0,04059	
40,36	0,4475	132,21	799,65	0,04098	
40,38	0,4479	127,52	799,93	0,04065	
40,40	0,4481	127,42	799,85	0,04040	
40,42	0,4481	132,56	799,61	0,04019	
40,44	0,4484	131,46	799,72	0,03981	
40,46	0,4487	129,50	799,73	0,03925	
40,48	0,4487	133,44	799,57	0,03883	
40,50	0,4489	132,64	799,77	0,03840	
40,52	0,4491	129,13	799,94	0,03793	
40,54	0,4492	132,28	799,70	0,03776	
40,56	0,4494	135,02	799,63	0,03760	
40,58	0,4496	131,78	799,83	0,03732	
40,60	0,4498	132,50	799,74	0,03698	
40,62	0,4500	136,28	799,60	0,03672	
40,64	0,4502	133,48	799,77	0,03640	
40,66	0,4502	131,73	799,76	0,03607	
40,68	0,4504	135,92	799,56	0,03577	
40,70	0,4507	135,38	799,76	0,03539	
40,72	0,4509	132,11	799,96	0,03520	
40,74	0,4508	135,07	799,74	0,03517	
40,76	0,4509	137,44	799,63	0,03531	
40,78	0,4514	133,51	799,84	0,03506	
40,80	0,4515	133,12	799,75	0,03452	
40,82	0,4514	136,80	799,60	0,03382	
40,84	0,4517	134,29	799,83	0,03255	
40,86	0,4520	131,31	799,86	0,03112	
40,88	0,4521	134,61	799,64	0,03043	
40,90	0,4522	134,75	799,76	0,02993	
40,92	0,4524	131,68	799,84	0,02874	
40,94	0,4526	134,76	799,61	0,02656	
40,96	0,4528	136,16	799,70	0,02509	
40,98	0,4530	132,24	799,99	0,02461	
41,00	0,4532	133,05	799,87	0,02455	
41,02	0,4533	137,21	799,61	0,02469	
41,04	0,4535	134,57	799,76	0,02466	
41,06	0,4536	132,08	799,83	0,02435	
41,08	0,4536	135,94	799,61	0,02422	
41,10	0,4540	136,12	799,66	0,02422	
41,12	0,4542	132,27	799,77	0,02426	
41,14	0,4541	134,94	799,59	0,02431	
41,16	0,4542	137,89	799,61	0,02444	
41,18	0,4546	134,65	799,88	0,02447	
41,20	0,4548	134,93	799,79	0,02434	
41,22	0,4548	139,16	799,62	0,02421	
41,24	0,4550	136,81	799,83	0,02415	
41,26	0,4553	134,72	799,88	0,02410	
41,28	0,4554	138,90	799,63	0,02420	
41,30	0,4555	140,06	799,66	0,02433	
41,32	0,4557	136,22	799,80	0,02433	
41,34	0,4558	138,54	799,63	0,02422	
41,36	0,4561	141,41	799,63	0,02422	
41,38	0,4563	137,53	799,88	0,02415	
41,40	0,4562	137,05	799,80	0,02402	
41,42	0,4561	141,75	799,61	0,02404	
41,44	0,4564	140,11	799,76	0,02418	
41,46	0,4567	138,40	799,75	0,02425	
41,48	0,4567	141,82	799,57	0,02422	
41,50	0,4569	141,09	799,71	0,02420	
41,52	0,4570	137,66	799,80	0,02412	
41,54	0,4571	140,09	799,60	0,02401	
41,56	0,4574	140,87	799,67	0,02398	
41,58	0,4576	137,52	799,78	0,02410	
41,60	0,4574	139,08	799,60	0,02424	
41,62	0,4575	141,11	799,69	0,02430	
41,64	0,4578	137,27	800,02	0,02432	
41,66	0,4580	136,59	799,91	0,02425	
41,68	0,4581	140,31	799,64	0,02417	
41,70	0,4582	137,95	799,85	0,02412	
41,72	0,4584	135,57	799,96	0,02414	
41,74	0,4585	139,74	799,68	0,02413	
41,76	0,4587	139,97	799,67	0,02414	
41,78	0,4589	134,32	799,91	0,02421	
41,80	0,4589	134,66	799,80	0,02419	
41,82	0,4589	138,85	799,59	0,02410	
41,84	0,4593	136,12	799,79	0,02400	
41,86	0,4596	133,60	799,88	0,02392	
41,88	0,4595	138,17	799,65	0,02392	
41,90	0,4595	139,87	799,66	0,02401	
41,92	0,4598	135,79	799,81	0,02416	
41,94	0,4600	137,61	799,64	0,02410	
41,96	0,4601	140,79	799,66	0,02399	
41,98	0,4603	137,26	799,98	0,02397	
42,00	0,4603	136,33	799,93	0,02396	
42,02	0,4603	140,56	799,64	0,02397	
42,04	0,4607	139,44	799,73	0,02405	
42,06	0,4609	136,77	799,79	0,02409	
42,08	0,4608	140,70	799,60	0,02409	
42,10	0,4609	140,46	799,74	0,02413	
42,12	0,4612	135,18	799,94	0,02411	
42,14	0,4613	136,65	799,74	0,02396	
42,16	0,4615	140,37	799,66	0,02383	
42,18	0,4616	138,08	799,76	0,02381	
42,20	0,4616	138,66	799,62	0,02387	
42,22	0,4619	141,90	799,60	0,02393	
42,24	0,4622	139,45	799,85	0,02405	
42,26	0,4622	138,46	799,78	0,02407	
42,28	0,4622	142,37	799,60	0,02392	
42,30	0,4624	140,81	799,79	0,02377	
42,32	0,4626	138,65	799,83	0,02369	
42,34	0,4627	142,01	799,60	0,02374	
42,36	0,4629	141,88	799,70	0,02387	
42,38	0,4630	138,09	799,87	0,02396	
42,40	0,4628	140,47	799,67	0,02393	
42,42	0,4629	142,59	799,64	0,02385	
42,44	0,4633	138,14	799,91	0,02384	
42,46	0,4635	137,70	799,85	0,02385	
42,48	0,4634	142,19	799,60	0,02384	
42,50	0,4635	139,96	799,78	0,02388	
42,52	0,4637	136,63	799,91	0,02398	
42,54	0,4638	140,60	799,67	0,02430	
42,56	0,4641	141,41	799,67	0,02566	
42,58	0,4643	136,42	799,85	0,03536	
42,60	0,4642	137,71	799,70	0,06302	
42,62	0,4642	141,42	799,60	0,09355	
42,64	0,4645	138,33	799,84	0,1220	
42,66	0,4647	136,96	799,82	0,1414	
42,68	0,4648	141,22	799,61	0,1514	
42,70	0,4649	140,08	799,78	0,1553	
42,72	0,4650	136,03	799,91	0,1565	
42,74	0,4650	139,42	799,67	0,1571	
42,76	0,4653	141,72	799,66	0,1573	
42,78	0,4656	137,50	799,90	0,1574	
42,80	0,4656	138,19	799,77	0,1576	
42,82	0,4655	142,04	799,62	0,1582	
42,84	0,4657	138,68	799,78	0,1581	
42,86	0,4659	135,87	799,73	0,1573	
42,88	0,4661	139,68	799,57	0,1563	
42,90	0,4663	138,69	799,81	0,1554	
42,92	0,4663	135,43	799,93	0,1548	
42,94	0,4662	138,43	799,68	0,1544	
42,96	0,4664	140,21	799,62	0,1544	
42,98	0,4668	136,98	799,74	0,1540	
43,00	0,4669	138,85	799,60	0,1538	
43,02	0,4669	141,75	799,59	0,1540	
43,04	0,4671	138,88	799,78	0,1547	
43,06	0,4673	138,09	799,69	0,1554	
43,08	0,4675	141,12	799,60	0,1561	
43,10	0,4677	139,24	799,75	0,1568	
43,12	0,4676	138,44	799,68	0,1573	
43,14	0,4675	143,23	799,55	0,1576	
43,16	0,4677	143,18	799,76	0,1577	
43,18	0,4680	141,17	799,81	0,1580	
43,20	0,4681	144,19	799,63	0,1580	
43,22	0,4683	143,05	799,77	0,1575	
43,24	0,4683	139,44	799,83	0,1568	
43,26	0,4682	142,54	799,60	0,1560	
43,28	0,4684	143,64	799,76	0,1555	
43,30	0,4687	139,31	800,03	0,1554	
43,32	0,4689	139,72	799,88	0,1551	
43,34	0,4689	143,44	799,62	0,1544	
43,36	0,4690	140,91	799,66	0,1538	
43,38	0,4691	140,34	799,60	0,1536	
43,40	0,4693	144,94	799,51	0,1537	
43,42	0,4696	142,94	799,82	0,1542	
43,44	0,4697	138,85	799,96	0,1551	
43,46	0,4696	141,67	799,69	0,1560	
43,48	0,4696	143,04	799,70	0,1565	
43,50	0,4699	139,41	799,90	0,1569	
43,52	0,4701	141,66	799,74	0,1573	
43,54	0,4702	144,66	799,64	0,1577	
43,56	0,4704	141,50	799,74	0,1581	
43,58	0,4703	141,03	799,61	0,1586	
43,60	0,4702	144,23	799,58	0,1587	
43,62	0,4705	142,38	799,85	0,1582	
43,64	0,4708	141,29	799,82	0,1571	
43,66	0,4708	144,83	799,60	0,1559	
43,68	0,4710	143,70	799,73	0,1551	
43,70	0,4710	141,15	799,78	0,1548	
43,72	0,4708	144,55	799,58	0,1545	
43,74	0,4710	144,99	799,68	0,1540	
43,76	0,4714	141,26	799,83	0,1536	
43,78	0,4715	143,46	799,64	0,1537	
43,80	0,4716	145,70	799,63	0,1541	
43,82	0,4717	142,04	799,86	0,1548	
43,84	0,4716	142,33	799,75	0,1558	
43,86	0,4715	145,71	799,59	0,1564	
43,88	0,4718	143,01	799,82	0,1567	
43,90	0,4722	141,05	799,87	0,1569	
43,92	0,4722	144,60	799,65	0,1573	
43,94	0,4723	144,29	799,69	0,1573	
43,96	0,4724	141,74	799,72	0,1572	
43,98	0,4722	145,05	799,54	0,1571	
44,00	0,4725	145,78	799,74	0,1570	
44,02	0,4729	141,50	800,00	0,1570	
44,04	0,4729	142,17	799,79	0,1569	
44,06	0,4729	145,56	799,63	0,1566	
44,08	0,4731	142,26	799,86	0,1562	
44,10	0,4731	140,72	799,82	0,1560	
44,12	0,4732	144,17	799,63	0,1559	
44,14	0,4736	141,53	799,81	0,1557	
44,16	0,4737	138,04	799,85	0,1555	
44,18	0,4736	141,65	799,63	0,1555	
44,20	0,4737	143,00	799,70	0,1555	
44,22	0,4739	140,73	799,75	0,1558	
44,24	0,4741	143,20	799,56	0,1560	
44,26	0,4743	143,97	799,72	0,1561	
44,28	0,4744	140,61	799,95	0,1561	
44,30	0,4743	141,95	799,75	0,1563	
44,32	0,4743	144,60	799,62	0,1566	
44,34	0,4746	140,72	799,84	0,1571	
44,36	0,4749	139,85	799,80	0,1579	
44,38	0,4749	144,99	799,59	0,1584	
44,40	0,4750	144,18	799,70	0,1585	
44,42	0,4750	141,29	799,71	0,1585	
44,44	0,4749	144,31	799,55	0,1586	
44,46	0,4750	144,64	799,73	0,1586	
44,48	0,4754	141,14	799,91	0,1587	
44,50	0,4755	143,44	799,69	0,1589	
44,52	0,4756	145,69	799,66	0,1588	
44,54	0,4757	141,48	799,92	0,1586	
44,56	0,4757	141,58	799,82	0,1581	
44,58	0,4756	145,40	799,62	0,1575	
44,60	0,4760	142,16	799,81	0,1570	
44,62	0,4763	139,02	799,84	0,1568	
44,64	0,4762	143,22	799,61	0,1566	
44,66	0,4763	143,04	799,78	0,1564	
44,68	0,4766	138,32	800,03	0,1564	
44,70	0,4768	139,92	799,82	0,1565	
44,72	0,4769	143,46	799,62	0,1568	
44,74	0,4771	140,42	799,80	0,1573	
44,76	0,4771	139,79	799,77	0,1580	
44,78	0,4769	144,21	799,57	0,1584	
44,80	0,4772	142,42	799,78	0,1585	
44,82	0,4776	138,50	799,95	0,1587	
44,84	0,4776	141,41	799,73	0,1590	
44,86	0,4776	143,51	799,65	0,1590	
44,88	0,4778	140,08	799,78	0,1589	
44,90	0,4780	141,27	799,64	0,1587	
44,92	0,4782	144,59	799,61	0,1583	
44,94	0,4784	142,21	799,86	0,1581	
44,96	0,4784	141,01	799,79	0,1582	
44,98	0,4783	144,33	799,61	0,1581	
45,00	0,4784	142,83	799,81	0,1582	
45,02	0,4786	141,30	799,81	0,1586	
45,04	0,4787	144,85	799,60	0,1587	
45,06	0,4790	143,75	799,79	0,1585	
45,08	0,4791	140,09	799,94	0,1583	
45,10	0,4789	142,24	799,72	0,1582	
45,12	0,4790	143,21	799,75	0,1582	
45,14	0,4793	139,25	799,87	0,1581	
45,16	0,4794	140,86	799,65	0,1583	
45,18	0,4796	144,18	799,65	0,1582	
45,20	0,4798	140,49	800,00	0,1581	
45,22	0,4798	138,73	799,98	0,1581	
45,24	0,4796	142,85	799,66	0,1582	
45,26	0,4799	142,02	799,67	0,1583	
45,28	0,4802	139,52	799,74	0,1586	
45,30	0,4802	143,69	799,55	0,1589	
45,32	0,4803	144,65	799,69	0,1588	
45,34	0,4805	139,64	800,04	0,1585	
45,36	0,4805	140,45	799,93	0,1583	
45,38	0,4807	146,13	799,65	0,1579	
45,40	0,4810	144,79	799,71	0,1578	
45,42	0,4811	142,24	799,72	0,1579	
45,44	0,4809	145,92	799,54	0,1581	
45,46	0,4810	145,73	799,70	0,1579	
45,48	0,4812	141,48	799,88	0,1578	
45,50	0,4813	143,44	799,67	0,1579	
45,52	0,4816	145,64	799,68	0,1577	
45,54	0,4818	141,42	799,97	0,1575	
45,56	0,4818	141,33	799,87	0,1576	
45,58	0,4816	145,97	799,61	0,1578	
45,60	0,4818	143,60	799,77	0,1577	
45,62	0,4821	139,87	799,88	0,1577	
45,64	0,4822	143,61	799,66	0,1579	
45,66	0,4823	144,91	799,65	0,1577	
45,68	0,4825	140,70	799,80	0,1576	
45,70	0,4823	141,96	799,63	0,1575	
45,72	0,4824	144,70	799,63	0,1575	
45,74	0,4828	140,90	799,94	0,1574	
45,76	0,4830	139,59	799,91	0,1575	
45,78	0,4830	143,68	799,65	0,1576	
45,80	0,4831	142,89	799,75	0,1575	
45,82	0,4831	140,12	799,80	0,1574	
45,84	0,4831	143,87	799,59	0,1573	
45,86	0,4835	144,05	799,72	0,1573	
45,88	0,4838	139,04	799,94	0,1573	
45,90	0,4837	140,28	799,76	0,1575	
45,92	0,4836	143,54	799,64	0,1575	
45,94	0,4838	140,47	799,84	0,1574	
45,96	0,4841	139,64	799,77	0,1573	
45,98	0,4842	143,41	799,58	0,1572	
46,00	0,4844	141,35	799,85	0,1571	
46,02	0,4845	137,81	800,03	0,1570	
46,04	0,4843	141,24	799,76	0,1572	
46,06	0,4844	143,29	799,70	0,1572	
46,08	0,4848	139,34	799,86	0,1571	
46,10	0,4849	140,33	799,71	0,1571	
46,12	0,4850	143,40	799,60	0,1571	
46,14	0,4851	140,12	799,83	0,1568	
46,16	0,4853	138,08	799,83	0,1568	
46,18	0,4855	142,08	799,59	0,1569	
46,20	0,4857	141,64	799,69	0,1569	
46,22	0,4858	138,57	799,79	0,1570	
46,24	0,4857	141,59	799,58	0,1570	
46,26	0,4857	143,16	799,72	0,1569	
46,28	0,4860	139,22	800,07	0,1567	
46,30	0,4862	139,46	799,97	0,1566	
46,32	0,4863	143,79	799,65	0,1567	
46,34	0,4864	142,25	799,75	0,1567	
46,36	0,4865	140,14	799,81	0,1568	
46,38	0,4863	144,13	799,60	0,1569	
46,40	0,4866	143,54	799,73	0,1568	
46,42	0,4870	138,46	799,94	0,1567	
46,44	0,4870	140,24	799,74	0,1565	
46,46	0,4870	144,18	799,65	0,1564	
46,48	0,4871	141,01	799,88	0,1564	
46,50	0,4872	140,17	799,80	0,1565	
46,52	0,4875	144,18	799,63	0,1567	
46,54	0,4878	142,74	799,78	0,1566	
46,56	0,4878	140,67	799,76	0,1565	
46,58	0,4876	144,11	799,56	0,1564	
46,60	0,4878	143,30	799,82	0,1563	
46,62	0,4880	139,24	800,06	0,1561	
46,64	0,4882	141,56	799,80	0,1563	
46,66	0,4883	144,37	799,65	0,1563	
46,68	0,4885	141,02	799,86	0,1563	
46,70	0,4884	141,26	799,79	0,1563	
46,72	0,4883	145,38	799,62	0,1563	
46,74	0,4886	142,96	799,80	0,1562	
46,76	0,4890	139,74	799,83	0,1561	
46,78	0,4890	143,64	799,60	0,1561	
46,80	0,4891	144,60	799,73	0,1561	
46,82	0,4892	140,64	799,87	0,1561	
46,84	0,4892	142,90	799,67	0,1563	
46,86	0,4895	144,96	799,67	0,1564	
46,88	0,4898	141,50	799,82	0,1563	
46,90	0,4898	142,21	799,65	0,1561	
46,92	0,4897	144,62	799,63	0,1561	
46,94	0,4898	141,44	799,87	0,1561	
46,96	0,4900	140,74	799,80	0,1561	
46,98	0,4902	145,08	799,60	0,1562	
47,00	0,4904	143,55	799,73	0,1562	
47,02	0,4905	141,43	799,74	0,1562	
47,04	0,4904	144,73	799,56	0,1561	
47,06	0,4905	143,83	799,76	0,1560	
47,08	0,4907	140,18	799,91	0,1559	
47,10	0,4908	142,18	799,67	0,1560	
47,12	0,4910	143,63	799,65	0,1561	
47,14	0,4911	140,00	799,87	0,1561	
47,16	0,4910	140,93	799,74	0,1561	
47,18	0,4910	144,30	799,62	0,1560	
47,20	0,4915	140,93	799,88	0,1558	
47,22	0,4918	139,54	799,89	0,1558	
47,24	0,4917	144,18	799,62	0,1559	
47,26	0,4917	143,69	799,70	0,1559	
47,28	0,4919	139,45	799,88	0,1559	
47,30	0,4921	142,20	799,68	0,1559	
47,32	0,4923	144,38	799,65	0,1559	
47,34	0,4926	140,48	799,91	0,1557	
47,36	0,4925	141,05	799,82	0,1556	
47,38	0,4924	145,41	799,62	0,1556	
47,40	0,4926	142,42	799,81	0,1556	
47,42	0,4929	138,96	799,86	0,1555	
47,44	0,4930	143,03	799,62	0,1556	
47,46	0,4932	143,26	799,72	0,1556	
47,48	0,4933	138,79	799,91	0,1555	
47,50	0,4933	141,09	799,71	0,1555	
47,52	0,4936	144,66	799,68	0,1553	
47,54	0,4939	141,35	799,99	0,1552	
47,56	0,4938	141,36	799,93	0,1552	
47,58	0,4937	146,11	799,65	0,1554	
47,60	0,4939	143,96	799,72	0,1554	
47,62	0,4942	140,88	799,72	0,1554	
47,64	0,4943	144,16	799,58	0,1553	
47,66	0,4945	143,75	799,78	0,1552	
47,68	0,4945	140,49	799,85	0,1551	
47,70	0,4944	142,99	799,63	0,1551	
47,72	0,4945	144,35	799,71	0,1552	
47,74	0,4949	141,39	799,84	0,1552	
47,76	0,4950	143,43	799,65	0,1552	
47,78	0,4951	146,05	799,62	0,1551	
47,80	0,4953	143,32	799,80	0,1550	
47,82	0,4952	144,46	799,68	0,1549	
47,84	0,4952	148,09	799,59	0,1548	
47,86	0,4957	145,79	799,79	0,1548	
47,88	0,4958	144,59	799,74	0,1549	
47,90	0,4957	148,72	799,58	0,1550	
47,92	0,4959	147,61	799,80	0,1549	
47,94	0,4959	144,42	799,92	0,1549	
47,96	0,4961	147,49	799,67	0,1548	
47,98	0,4964	148,48	799,66	0,1547	
48,00	0,4966	144,86	799,80	0,1546	
48,02	0,4964	146,72	799,64	0,1548	
48,04	0,4964	149,20	799,65	0,1548	
48,06	0,4966	145,64	799,94	0,1548	
48,08	0,4969	145,40	799,87	0,1547	
48,10	0,4970	149,89	799,61	0,1546	
48,12	0,4972	148,36	799,70	0,1543	
48,14	0,4972	145,62	799,75	0,1542	
48,16	0,4971	149,21	799,57	0,1543	
48,18	0,4972	149,17	799,77	0,1543	
48,20	0,4974	144,81	800,02	0,1543	
48,22	0,4976	145,89	799,81	0,1546	
48,24	0,4977	149,44	799,61	0,1546	
48,26	0,4979	147,02	799,73	0,1544	
48,28	0,4979	146,37	799,64	0,1542	
48,30	0,4978	149,15	799,56	0,1541	
48,32	0,4981	146,47	799,86	0,1541	
48,34	0,4984	143,78	799,92	0,1542	
48,36	0,4984	147,25	799,66	0,1544	
48,38	0,4985	146,84	799,77	0,1543	
48,40	0,4986	142,92	799,88	0,1542	
48,42	0,4986	145,62	799,67	0,1541	
48,44	0,4990	147,68	799,63	0,1539	
48,46	0,4992	144,50	799,72	0,1539	
48,48	0,4991	145,38	799,56	0,1541	
48,50	0,4991	147,84	799,64	0,1541	
48,52	0,4993	145,12	799,93	0,1541	
48,54	0,4995	145,51	799,81	0,1541	
48,56	0,4997	149,63	799,63	0,1539	
48,58	0,4999	147,35	799,82	0,1537	
48,60	0,4999	144,97	799,81	0,1537	
48,62	0,4998	148,69	799,59	0,1537	
48,64	0,4999	147,53	799,73	0,1537	
48,66	0,5003	142,85	799,88	0,1538	
48,68	0,5004	145,70	799,66	0,1538	
48,70	0,5005	148,45	799,67	0,1538	
48,72	0,5007	144,38	799,92	0,1536	
48,74	0,5006	144,45	799,80	0,1535	
48,76	0,5005	148,60	799,61	0,1534	
48,78	0,5009	146,63	799,72	0,1534	
48,80	0,4986	145,02	799,66	0,1535	
48,82	0,4937	147,86	799,58	0,1536	
48,84	0,4910	146,01	799,93	0,1535	
48,86	0,4904	143,35	800,04	0,1535	
48,88	0,4903	146,88	799,74	0,1534	
48,90	0,4905	148,90	799,72	0,1533	
48,92	0,4907	145,24	799,89	0,1533	
48,94	0,4909	146,66	799,71	0,1534	
48,96	0,4910	149,51	799,62	0,1535	
48,98	0,4911	146,26	799,82	0,1535	
49,00	0,4911	145,20	799,74	0,1535	
49,02	0,4910	148,53	799,59	0,1533	
49,04	0,4912	146,46	799,79	0,1531	
49,06	0,4913	144,62	799,78	0,1531	
49,08	0,4914	147,91	799,60	0,1531	
49,10	0,4918	147,08	799,81	0,1531	
49,12	0,4919	144,26	799,94	0,1531	
49,14	0,4921	148,46	799,70	0,1532	
49,16	0,4925	152,47	799,65	0,1529	
49,18	0,4931	151,78	799,75	0,1525	
49,20	0,4934	156,74	799,59	0,1523	
49,22	0,4941	163,29	799,62	0,1521	
49,24	0,4949	164,21	799,89	0,1520	
49,26	0,4955	168,66	799,80	0,1520	
49,28	0,4962	178,81	799,61	0,1518	
49,30	0,4973	184,06	799,77	0,1514	
49,32	0,4983	189,26	799,78	0,1510	
49,34	0,4992	200,87	799,58	0,1505	
49,36	0,5003	208,79	799,72	0,1500	
49,38	0,5015	213,89	799,87	0,1496	
49,40	0,5027	225,86	799,66	0,1494	
49,42	0,5042	237,30	799,63	0,1490	
49,44	0,5060	242,72	799,84	0,1484	
49,46	0,5074	253,51	799,71	0,1479	
49,48	0,5089	267,94	799,65	0,1471	
49,50	0,5108	277,07	799,83	0,1464	
49,52	0,5125	287,76	799,73	0,1458	
49,54	0,5144	303,34	799,61	0,1451	
49,56	0,5165	314,54	799,79	0,1446	
49,58	0,5185	325,26	799,75	0,1440	
49,60	0,5204	341,07	799,61	0,1433	
49,62	0,5227	352,26	799,84	0,1423	
49,64	0,5251	361,75	799,89	0,1414	
49,66	0,5272	377,85	799,63	0,1405	
49,68	0,5298	391,24	799,76	0,1395	
49,70	0,5326	399,50	799,99	0,1386	
49,72	0,5352	413,73	799,78	0,1377	
49,74	0,5378	429,88	799,63	0,1367	
49,76	0,5406	438,92	799,87	0,1355	
49,78	0,5433	450,15	799,86	0,1342	
49,80	0,5460	466,51	799,64	0,1329	
49,82	0,5491	476,84	799,79	0,1316	
49,84	0,5522	485,90	799,86	0,1304	
49,86	0,5552	501,29	799,63	0,1292	
49,88	0,5586	513,79	799,72	0,1278	
49,90	0,5621	521,29	799,91	0,1263	
49,92	0,5653	534,23	799,72	0,1249	
49,94	0,5687	547,67	799,64	0,1232	
49,96	0,5725	554,38	799,81	0,1215	
49,98	0,5760	564,27	799,67	0,1199	
50,00	0,5797	576,69	799,63	0,1183	
50,02	0,5835	582,97	799,96	0,1166	
50,04	0,5873	590,04	799,98	0,1150	
50,06	0,5910	603,45	799,67	0,1133	
50,08	0,5951	612,71	799,64	0,1114	
50,10	0,5993	617,58	799,72	0,1094	
50,12	0,6032	628,07	799,56	0,1075	
50,14	0,6073	636,05	799,68	0,1057	
50,16	0,6114	637,52	799,99	0,1039	
50,18	0,6153	643,34	799,85	0,1022	
50,20	0,6193	652,70	799,65	0,1005	
50,22	0,6234	655,72	799,80	0,09863	
50,24	0,6274	659,46	799,77	0,09674	
50,26	0,6313	668,26	799,58	0,09478	
50,28	0,6355	671,30	799,72	0,09274	
50,30	0,6395	671,75	799,73	0,09090	
50,32	0,6434	677,55	799,59	0,08912	
50,34	0,6474	680,45	799,84	0,08728	
50,36	0,6512	680,41	800,03	0,08547	
50,38	0,6549	685,87	799,76	0,08356	
50,40	0,6589	691,62	799,64	0,08138	
50,42	0,6631	691,20	799,79	0,07928	
50,44	0,6670	694,02	799,68	0,07744	
50,46	0,6710	699,40	799,59	0,07552	
50,48	0,6751	698,93	799,83	0,07358	
50,50	0,6791	699,23	799,80	0,07174	
50,52	0,6830	705,05	799,61	0,06977	
50,54	0,6872	705,76	799,87	0,06761	
50,56	0,6913	704,71	800,01	0,06557	
50,58	0,6952	709,70	799,72	0,06364	
50,60	0,6992	712,87	799,66	0,06160	
50,62	0,7034	710,24	799,87	0,05968	
50,64	0,7073	713,06	799,75	0,05791	
50,66	0,7113	719,08	799,59	0,05600	
50,68	0,7154	717,59	799,75	0,05387	
50,70	0,7194	716,26	799,72	0,05173	
50,72	0,7234	720,68	799,59	0,04967	
50,74	0,7275	720,37	799,82	0,04767	
50,76	0,7315	718,31	799,88	0,04578	
50,78	0,7353	723,09	799,64	0,04384	
50,80	0,7394	725,53	799,70	0,04182	
50,82	0,7433	723,13	799,87	0,03969	
50,84	0,7470	726,35	799,69	0,03752	
50,86	0,7509	730,02	799,63	0,03538	
50,88	0,7551	726,92	799,85	0,03332	
50,90	0,7590	727,80	799,76	0,03139	
50,92	0,7630	732,60	799,61	0,02941	
50,94	0,7671	730,89	799,81	0,02735	
50,96	0,7712	728,96	799,81	0,02523	
50,98	0,7751	733,45	799,61	0,02306	
51,00	0,7792	733,36	799,80	0,02090	
51,02	0,7833	730,07	799,92	0,01882	
51,04	0,7871	733,62	799,68	0,01685	
51,06	0,7912	735,52	799,74	0,01489	
51,08	0,7954	732,41	799,86	0,01291	
51,10	0,7993	734,17	799,65	0,01086	
51,12	0,8033	736,56	799,72	0,00872	
51,14	0,8075	733,48	799,97	0,00654	
51,16	0,8114	734,63	799,83	0,00440	
51,18	0,8154	739,49	799,61	0,00230	
51,20	0,8195	738,05	799,67	0,00029	
51,22	0,8235	737,46	799,57	-0,00166	
51,24	0,8275	740,10	799,57	-0,00374	
51,26	0,8316	737,63	799,93	-0,00588	
51,28	0,8356	734,84	799,99	-0,00804	
51,30	0,8395	738,45	799,69	-0,01015	
51,32	0,8435	739,63	799,70	-0,01224	
51,34	0,8473	737,54	799,79	-0,01419	
51,36	0,8510	741,25	799,61	-0,01612	
51,38	0,8550	742,91	799,68	-0,01819	
51,40	0,8592	739,16	799,83	-0,02030	
51,42	0,8631	739,61	799,66	-0,02250	
51,44	0,8671	742,32	799,63	-0,02482	
51,46	0,8713	739,73	799,86	-0,02699	
51,48	0,8752	740,06	799,76	-0,02889	
51,50	0,8792	744,33	799,63	-0,03083	
51,52	0,8833	742,73	799,82	-0,03291	
51,54	0,8873	741,51	799,79	-0,03501	
51,56	0,8912	746,24	799,58	-0,03721	
51,58	0,8954	745,63	799,77	-0,03947	
51,60	0,8995	741,66	799,91	-0,04164	
51,62	0,9034	744,92	799,68	-0,04371	
51,64	0,9074	747,16	799,67	-0,04586	
51,66	0,9116	743,33	799,90	-0,04791	
51,68	0,9155	744,30	799,78	-0,04988	
51,70	0,9195	748,02	799,64	-0,05194	
51,72	0,9236	745,20	799,86	-0,05416	
51,74	0,9274	743,26	799,84	-0,05634	
51,76	0,9310	747,25	799,63	-0,05846	
51,78	0,9351	746,68	799,81	-0,06063	
51,80	0,9391	744,11	799,89	-0,06264	
51,82	0,9430	747,98	799,66	-0,06466	
51,84	0,9471	748,77	799,78	-0,06685	
51,86	0,9512	744,53	799,97	-0,06904	
51,88	0,9551	746,86	799,74	-0,07123	
51,90	0,9591	750,40	799,68	-0,07346	
51,92	0,9633	746,59	799,96	-0,07559	
51,94	0,9673	745,78	799,89	-0,07757	
51,96	0,9712	750,45	799,64	-0,07956	
51,98	0,9753	748,84	799,79	-0,08161	
52,00	0,9794	746,15	799,86	-0,08377	
52,02	0,9832	750,21	799,63	-0,08603	
52,04	0,9873	750,74	799,81	-0,08825	
52,06	0,9915	746,41	800,09	-0,09031	
52,08	0,9954	747,56	799,88	-0,09225	
52,10	0,9994	751,46	799,71	-0,09435	
52,12	1,004	748,83	799,96	-0,09654	
52,14	1,008	748,18	799,93	-0,09871	
52,16	1,011	752,86	799,67	-0,1009	
52,18	1,016	751,29	799,81	-0,1031	
52,20	1,020	747,15	799,92	-0,1052	
52,22	1,023	750,57	799,69	-0,1072	
52,24	1,027	752,61	799,66	-0,1093	
52,26	1,031	748,81	799,77	-0,1114	
52,28	1,035	750,10	799,61	-0,1129	
52,30	1,039	752,30	799,68	-0,1144	
52,32	1,043	749,32	799,94	-0,1163	
52,34	1,047	749,75	799,80	-0,1183	
52,36	1,051	753,55	799,65	-0,1204	
52,38	1,055	750,95	799,85	-0,1225	
52,40	1,059	749,23	799,81	-0,1245	
52,42	1,063	753,53	799,60	-0,1266	
52,44	1,067	752,03	799,79	-0,1289	
52,46	1,071	748,01	799,93	-0,1311	
52,48	1,075	751,58	799,70	-0,1332	
52,50	1,079	754,02	799,70	-0,1355	
52,52	1,084	750,50	799,86	-0,1383	
52,54	1,087	752,28	799,68	-0,1411	
52,56	1,091	755,55	799,61	-0,1435	
52,58	1,096	752,09	799,86	-0,1457	
52,60	1,100	750,80	799,80	-0,1479	
52,62	1,103	754,39	799,65	-0,1501	
52,64	1,108	752,38	799,91	-0,1523	
52,66	1,112	749,60	799,99	-0,1543	
52,68	1,116	753,52	799,71	-0,1562	
52,70	1,120	754,23	799,74	-0,1583	
52,72	1,123	750,77	799,86	-0,1605	
52,74	1,127	753,37	799,65	-0,1628	
52,76	1,131	755,58	799,66	-0,1650	
52,78	1,135	751,13	799,89	-0,1672	
52,80	1,139	750,97	799,75	-0,1692	
52,82	1,143	755,08	799,62	-0,1712	
52,84	1,147	752,58	799,88	-0,1733	
52,86	1,151	751,03	799,87	-0,1756	
52,88	1,155	756,09	799,63	-0,1779	
52,90	1,159	755,83	799,85	-0,1802	
52,92	1,163	751,92	800,03	-0,1823	
52,94	1,167	755,05	799,76	-0,1843	
52,96	1,171	757,38	799,72	-0,1864	
52,98	1,175	753,61	799,86	-0,1885	
53,00	1,179	754,61	799,68	-0,1906	
53,02	1,183	757,33	799,66	-0,1929	
53,04	1,188	753,70	799,99	-0,1951	
53,06	1,192	751,78	799,96	-0,1973	
53,08	1,195	756,40	799,67	-0,1994	
53,10	1,200	756,11	799,79	-0,2016	
53,12	1,204	753,45	799,90	-0,2036	
53,14	1,208	757,24	799,66	-0,2057	
53,16	1,212	758,53	799,69	-0,2080	
53,18	1,216	753,89	799,88	-0,2103	
53,20	1,219	754,49	799,71	-0,2124	
53,22	1,223	757,47	799,63	-0,2146	
53,24	1,227	754,66	799,91	-0,2168	
53,26	1,231	753,73	799,87	-0,2189	
53,28	1,235	757,72	799,66	-0,2209	
53,30	1,239	756,42	799,85	-0,2231	
53,32	1,243	753,58	799,90	-0,2254	
53,34	1,247	757,52	799,67	-0,2276	
53,36	1,251	758,19	799,73	-0,2298	
53,38	1,255	754,41	799,79	-0,2318	
53,40	1,259	756,79	799,58	-0,2339	
53,42	1,263	758,20	799,73	-0,2360	
53,44	1,268	753,91	799,98	-0,2382	
53,46	1,271	754,85	799,78	-0,2405	
53,48	1,275	758,10	799,68	-0,2427	
53,50	1,280	754,55	799,92	-0,2448	
53,52	1,284	753,74	799,83	-0,2468	
53,54	1,288	758,19	799,65	-0,2489	
53,56	1,292	756,20	799,85	-0,2510	
53,58	1,296	753,78	799,86	-0,2532	
53,60	1,300	758,17	799,61	-0,2554	
53,62	1,304	758,58	799,73	-0,2577	
53,64	1,308	754,55	799,88	-0,2599	
53,66	1,312	757,31	799,68	-0,2620	
53,68	1,316	759,55	799,67	-0,2641	
53,70	1,319	756,37	799,87	-0,2663	
53,72	1,323	757,78	799,72	-0,2684	
53,74	1,327	760,76	799,64	-0,2706	
53,76	1,331	757,18	799,89	-0,2728	
53,78	1,335	755,90	799,84	-0,2750	
53,80	1,339	760,28	799,63	-0,2771	
53,82	1,343	758,88	799,83	-0,2792	
53,84	1,347	756,09	799,91	-0,2812	
53,86	1,351	759,21	799,66	-0,2834	
53,88	1,355	759,57	799,71	-0,2856	
53,90	1,360	756,13	799,84	-0,2879	
53,92	1,363	758,53	799,64	-0,2901	
53,94	1,367	760,68	799,68	-0,2922	
53,96	1,372	756,80	799,94	-0,2942	
53,98	1,376	756,54	799,81	-0,2962	
54,00	1,379	760,35	799,62	-0,2983	
54,02	1,384	758,47	799,82	-0,3005	
54,04	1,388	756,14	799,85	-0,3028	
54,06	1,392	759,97	799,63	-0,3050	
54,08	1,396	759,51	799,77	-0,3072	
54,10	1,400	755,90	799,93	-0,3093	
54,12	1,403	758,79	799,71	-0,3113	
54,14	1,407	760,86	799,70	-0,3135	
54,16	1,411	756,97	799,87	-0,3157	
54,18	1,415	757,99	799,71	-0,3179	
54,20	1,419	761,56	799,64	-0,3202	
54,22	1,423	758,72	799,86	-0,3225	
54,24	1,427	757,51	799,76	-0,3245	
54,26	1,431	760,35	799,63	-0,3265	
54,28	1,435	758,17	799,87	-0,3286	
54,30	1,439	756,08	799,86	-0,3308	
54,32	1,443	759,88	799,67	-0,3331	
54,34	1,447	759,37	799,87	-0,3353	
54,36	1,451	756,87	799,90	-0,3374	
54,38	1,455	760,63	799,67	-0,3395	
54,40	1,460	760,72	799,76	-0,3416	
54,42	1,464	757,11	799,83	-0,3437	
54,44	1,467	758,99	799,62	-0,3458	
54,46	1,472	759,81	799,74	-0,3481	
54,48	1,476	756,25	799,92	-0,3503	
54,50	1,480	757,78	799,72	-0,3524	
54,52	1,484	760,54	799,70	-0,3545	
54,54	1,488	757,45	799,88	-0,3567	
54,56	1,492	758,25	799,72	-0,3588	
54,58	1,496	761,60	799,65	-0,3609	
54,60	1,500	758,65	799,87	-0,3632	
54,62	1,503	757,41	799,78	-0,3655	
54,64	1,507	760,26	799,63	-0,3677	
54,66	1,511	758,33	799,75	-0,3698	
54,68	1,515	757,45	799,67	-0,3717	
54,70	1,519	761,05	799,57	-0,3739	
54,72	1,523	759,61	799,86	-0,3762	
54,74	1,527	756,53	799,92	-0,3784	
54,76	1,531	759,18	799,67	-0,3806	
54,78	1,535	759,29	799,77	-0,3828	
54,80	1,539	756,54	799,87	-0,3849	
54,82	1,543	759,47	799,65	-0,3869	
54,84	1,547	760,62	799,73	-0,3890	
54,86	1,552	757,28	799,89	-0,3912	
54,88	1,555	759,40	799,69	-0,3934	
54,90	1,560	762,15	799,69	-0,3956	
54,92	1,564	758,28	799,95	-0,3978	
54,94	1,568	758,33	799,83	-0,3998	
54,96	1,572	762,31	799,64	-0,4019	
54,98	1,576	759,27	799,83	-0,4041	
55,00	1,580	756,58	799,83	-0,4062	
55,02	1,584	760,39	799,62	-0,4085	
55,04	1,588	760,19	799,78	-0,4108	
55,06	1,592	756,95	799,90	-0,4130	
55,08	1,595	760,41	799,64	-0,4151	
55,10	1,599	762,80	799,67	-0,4172	
55,12	1,603	758,15	800,02	-0,4193	
55,14	1,607	757,68	799,97	-0,4215	
55,16	1,611	762,29	799,68	-0,4237	
55,18	1,615	760,55	799,84	-0,4259	
55,20	1,619	757,47	799,96	-0,4281	
55,22	1,623	762,22	799,71	-0,4303	
55,24	1,627	763,28	799,75	-0,4323	
55,26	1,632	758,37	799,94	-0,4344	
55,28	1,635	759,36	799,75	-0,4366	
55,30	1,639	762,24	799,68	-0,4388	
55,32	1,644	759,28	799,86	-0,4411	
55,34	1,648	758,81	799,74	-0,4432	
55,36	1,651	762,15	799,62	-0,4453	
55,38	1,656	759,22	799,91	-0,4474	
55,40	1,660	756,52	799,98	-0,4495	
55,42	1,664	760,91	799,70	-0,4516	
55,44	1,668	762,12	799,75	-0,4539	
55,46	1,672	758,67	799,93	-0,4562	
55,48	1,676	761,54	799,74	-0,4584	
55,50	1,680	764,11	799,69	-0,4606	
55,52	1,684	760,22	799,87	-0,4627	
55,54	1,688	759,85	799,72	-0,4648	
55,56	1,691	762,68	799,65	-0,4669	
55,58	1,695	759,95	799,91	-0,4692	
55,60	1,699	758,78	799,88	-0,4715	
55,62	1,703	763,55	799,64	-0,4737	
55,64	1,707	763,01	799,79	-0,4759	
55,66	1,711	760,08	799,84	-0,4780	
55,68	1,715	763,27	799,61	-0,4800	
55,70	1,719	762,60	799,78	-0,4823	
55,72	1,724	757,67	800,00	-0,4846	
55,74	1,727	759,66	799,77	-0,4867	
55,76	1,731	763,04	799,67	-0,4889	
55,78	1,736	759,32	799,91	-0,4910	
55,80	1,740	758,70	799,82	-0,4930	
55,82	1,743	763,06	799,61	-0,4952	
55,84	1,748	760,83	799,91	-0,4974	
55,86	1,752	757,23	800,08	-0,4995	
55,88	1,756	761,23	799,78	-0,5018	
55,90	1,760	763,49	799,70	-0,5041	
55,92	1,764	759,97	799,87	-0,5063	
55,94	1,768	761,60	799,70	-0,5084	
55,96	1,772	764,60	799,64	-0,5104	
55,98	1,776	760,22	800,01	-0,5126	
56,00	1,780	757,52	800,05	-0,5149	
56,02	1,784	762,43	799,73	-0,5171	
56,04	1,788	762,81	799,77	-0,5194	
56,06	1,792	760,01	799,88	-0,5215	
56,08	1,795	763,37	799,67	-0,5235	
56,10	1,799	764,28	799,71	-0,5256	
56,12	1,803	759,98	799,90	-0,5278	
56,14	1,807	760,87	799,73	-0,5300	
56,16	1,811	763,88	799,67	-0,5323	
56,18	1,815	760,67	799,92	-0,5345	
56,20	1,819	759,81	799,84	-0,5366	
56,22	1,823	763,92	799,65	-0,5386	
56,24	1,827	762,28	799,83	-0,5407	
56,26	1,832	759,43	799,86	-0,5429	
56,28	1,835	763,06	799,62	-0,5451	
56,30	1,840	763,42	799,72	-0,5474	
56,32	1,844	760,02	799,86	-0,5497	
56,34	1,848	762,14	799,65	-0,5518	
56,36	1,852	763,29	799,75	-0,5540	
56,38	1,856	759,54	800,02	-0,5560	
56,40	1,860	760,03	799,86	-0,5580	
56,42	1,864	763,72	799,65	-0,5601	
56,44	1,868	761,80	799,79	-0,5624	
56,46	1,872	760,66	799,73	-0,5646	
56,48	1,875	764,11	799,60	-0,5669	
56,50	1,879	762,32	799,85	-0,5691	
56,52	1,883	759,44	799,90	-0,5711	
56,54	1,887	762,97	799,67	-0,5732	
56,56	1,891	763,23	799,80	-0,5754	
56,58	1,895	760,12	799,89	-0,5777	
56,60	1,899	762,31	799,67	-0,5800	
56,62	1,903	763,18	799,82	-0,5823	
56,64	1,907	759,69	800,03	-0,5843	
56,66	1,911	761,45	799,80	-0,5863	
56,68	1,915	764,31	799,71	-0,5884	
56,70	1,919	760,97	799,88	-0,5906	
56,72	1,923	761,30	799,74	-0,5928	
56,74	1,927	763,88	799,67	-0,5952	
56,76	1,931	760,41	799,91	-0,5974	
56,78	1,935	758,92	799,84	-0,5995	
56,80	1,939	763,34	799,63	-0,6016	
56,82	1,944	762,32	799,82	-0,6037	
56,84	1,948	759,50	799,90	-0,6059	
56,86	1,952	763,20	799,66	-0,6081	
56,88	1,956	764,14	799,75	-0,6104	
56,90	1,960	760,69	799,92	-0,6126	
56,92	1,964	762,59	799,71	-0,6148	
56,94	1,968	764,92	799,67	-0,6169	
56,96	1,972	761,24	799,88	-0,6191	
56,98	1,976	761,58	799,74	-0,6212	
57,00	1,980	765,70	799,64	-0,6234	
57,02	1,984	763,09	799,95	-0,6256	
57,04	1,988	760,90	799,97	-0,6278	
57,06	1,991	764,52	799,70	-0,6300	
57,08	1,995	763,53	799,80	-0,6322	
57,10	1,999	760,33	799,86	-0,6342	
57,12	2,003	763,51	799,65	-0,6363	
57,14	2,007	764,17	799,75	-0,6385	
57,16	2,011	760,16	799,89	-0,6407	
57,18	2,015	761,68	799,68	-0,6429	
57,20	2,019	763,10	799,72	-0,6452	
57,22	2,024	759,73	799,90	-0,6474	
57,24	2,027	760,91	799,73	-0,6494	
57,26	2,031	763,87	799,67	-0,6515	
57,28	2,036	760,71	799,87	-0,6537	
57,30	2,040	760,07	799,76	-0,6560	
57,32	2,043	764,07	799,64	-0,6583	
57,34	2,048	762,34	799,87	-0,6605	
57,36	2,052	760,79	799,83	-0,6626	
57,38	2,056	764,31	799,64	-0,6647	
57,40	2,060	763,21	799,85	-0,6667	
57,42	2,064	760,17	799,92	-0,6690	
57,44	2,068	763,45	799,67	-0,6712	
57,46	2,071	764,21	799,76	-0,6735	
57,48	2,075	760,70	799,92	-0,6757	
57,50	2,079	762,45	799,71	-0,6778	
57,52	2,083	764,78	799,67	-0,6799	
57,54	2,087	761,18	799,85	-0,6820	
57,56	2,091	761,38	799,71	-0,6841	
57,58	2,095	764,11	799,64	-0,6864	
57,60	2,099	760,86	799,91	-0,6887	
57,62	2,103	759,80	799,86	-0,6909	
57,64	2,107	764,00	799,64	-0,6930	
57,66	2,111	762,64	799,80	-0,6951	
57,68	2,115	759,66	799,85	-0,6971	
57,70	2,119	763,21	799,62	-0,6992	
57,72	2,123	763,59	799,76	-0,7014	
57,74	2,128	759,59	800,03	-0,7037	
57,76	2,132	761,25	799,85	-0,7059	
57,78	2,135	765,28	799,68	-0,7080	
57,80	2,140	762,80	799,87	-0,7101	
57,82	2,144	762,34	799,81	-0,7122	
57,84	2,148	766,45	799,65	-0,7144	
57,86	2,152	763,94	799,87	-0,7167	
57,88	2,156	760,60	799,93	-0,7188	
57,90	2,160	763,86	799,66	-0,7211	
57,92	2,164	764,50	799,75	-0,7234	
57,94	2,167	760,64	799,97	-0,7255	
57,96	2,171	762,20	799,78	-0,7274	
57,98	2,175	764,93	799,66	-0,7295	
58,00	2,179	761,23	799,94	-0,7318	
58,02	2,183	760,42	799,91	-0,7340	
58,04	2,187	764,47	799,68	-0,7362	
58,06	2,191	762,76	799,83	-0,7383	
58,08	2,195	759,66	799,85	-0,7404	
58,10	2,199	762,85	799,65	-0,7425	
58,12	2,203	762,65	799,77	-0,7447	
58,14	2,207	759,32	799,84	-0,7469	
58,16	2,211	761,69	799,64	-0,7492	
58,18	2,215	762,42	799,78	-0,7513	
58,20	2,220	759,90	799,89	-0,7535	
58,22	2,223	762,23	799,67	-0,7556	
58,24	2,228	763,44	799,74	-0,7578	
58,26	2,232	759,78	799,97	-0,7599	
58,28	2,236	760,70	799,80	-0,7620	
58,30	2,240	764,16	799,66	-0,7642	
58,32	2,244	761,75	799,88	-0,7665	
58,34	2,248	761,28	799,83	-0,7687	
58,36	2,252	765,70	799,63	-0,7708	
58,38	2,256	764,14	799,85	-0,7728	
58,40	2,260	760,24	799,97	-0,7749	
58,42	2,263	763,23	799,70	-0,7770	
58,44	2,267	764,23	799,72	-0,7792	
58,46	2,271	760,64	799,89	-0,7814	
58,48	2,275	762,31	799,71	-0,7836	
58,50	2,279	764,30	799,69	-0,7858	
58,52	2,283	760,28	799,96	-0,7879	
58,54	2,287	759,55	799,84	-0,7900	
58,56	2,291	763,46	799,65	-0,7922	
58,58	2,295	761,85	799,88	-0,7943	
58,60	2,299	759,74	799,93	-0,7965	
58,62	2,303	763,76	799,66	-0,7987	
58,64	2,307	763,39	799,77	-0,8010	
58,66	2,312	759,39	799,97	-0,8032	
58,68	2,315	761,76	799,75	-0,8052	
58,70	2,320	764,15	799,70	-0,8074	
58,72	2,324	760,36	799,94	-0,8096	
58,74	2,328	760,60	799,84	-0,8118	
58,76	2,332	764,66	799,64	-0,8140	
58,78	2,336	762,32	799,83	-0,8161	
58,80	2,340	759,80	799,84	-0,8182	
58,82	2,344	763,65	799,63	-0,8203	
58,84	2,347	763,17	799,84	-0,8225	
58,86	2,352	759,37	800,01	-0,8248	
58,88	2,356	761,83	799,76	-0,8270	
58,90	2,359	764,18	799,71	-0,8292	
58,92	2,363	760,60	799,88	-0,8314	
58,94	2,367	761,72	799,72	-0,8334	
58,96	2,371	764,63	799,65	-0,8356	
58,98	2,375	761,08	799,85	-0,8378	
59,00	2,379	759,86	799,76	-0,8399	
59,02	2,383	763,25	799,64	-0,8421	
59,04	2,387	761,84	799,84	-0,8443	
59,06	2,391	760,69	799,79	-0,8465	
59,08	2,395	763,70	799,62	-0,8487	
59,10	2,399	761,87	799,91	-0,8508	
59,12	2,404	759,01	800,05	-0,8529	
59,14	2,407	762,36	799,76	-0,8551	
59,16	2,412	763,85	799,75	-0,8573	
59,18	2,416	760,59	799,92	-0,8596	
59,20	2,420	762,25	799,73	-0,8617	
59,22	2,424	764,80	799,68	-0,8639	
59,24	2,428	761,04	799,90	-0,8661	
59,26	2,432	759,82	799,80	-0,8682	
59,28	2,436	763,30	799,66	-0,8703	
59,30	2,440	761,90	799,85	-0,8726	
59,32	2,444	760,70	799,81	-0,8748	
59,34	2,448	764,15	799,64	-0,8770	
59,36	2,452	762,54	799,86	-0,8792	
59,38	2,456	759,50	799,90	-0,8813	
59,40	2,459	762,94	799,66	-0,8834	
59,42	2,463	762,94	799,76	-0,8855	
59,44	2,467	759,41	799,85	-0,8877	
59,46	2,471	761,81	799,64	-0,8900	
59,48	2,475	763,34	799,74	-0,8922	
59,50	2,479	759,84	799,95	-0,8944	
59,52	2,483	760,78	799,76	-0,8965	
59,54	2,487	763,95	799,66	-0,8986	
59,56	2,492	760,87	799,90	-0,9007	
59,58	2,495	759,68	799,85	-0,9029	
59,60	2,499	763,27	799,63	-0,9052	
59,62	2,504	761,77	799,75	-0,9075	
59,64	2,508	759,80	799,75	-0,9097	
59,66	2,511	763,61	799,60	-0,9119	
59,68	2,516	763,08	799,81	-0,9140	
59,70	2,520	759,38	799,89	-0,9161	
59,72	2,524	761,57	799,66	-0,9183	
59,74	2,528	762,48	799,77	-0,9205	
59,76	2,532	759,86	799,94	-0,9226	
59,78	2,536	761,98	799,73	-0,9248	
59,80	2,539	763,56	799,69	-0,9270	
59,82	2,543	759,78	799,89	-0,9291	
59,84	2,547	759,90	799,77	-0,9312	
59,86	2,551	763,17	799,66	-0,9334	
59,88	2,555	761,28	799,88	-0,9356	
59,90	2,559	760,29	799,81	-0,9378	
59,92	2,563	764,10	799,64	-0,9402	
59,94	2,567	762,65	799,86	-0,9423	
59,96	2,571	759,59	799,91	-0,9444	
59,98	2,575	762,92	799,68	-0,9466	
60,00	2,579	762,83	799,84	-0,9489	
60,02	2,584	759,19	800,01	-0,9511	
60,04	2,587	761,64	799,76	-0,9533	
60,06	2,592	764,17	799,75	-0,9555	
60,08	2,596	760,51	799,96	-0,9576	
60,10	2,600	760,89	799,79	-0,9597	
60,12	2,604	763,89	799,72	-0,9618	
60,14	2,608	760,77	799,95	-0,9640	
60,16	2,612	759,01	799,85	-0,9661	
60,18	2,616	763,21	799,67	-0,9683	
60,20	2,620	762,40	799,94	-0,9706	
60,22	2,624	760,02	800,02	-0,9728	
60,24	2,628	763,92	799,71	-0,9749	
60,26	2,632	764,27	799,81	-0,9771	
60,28	2,636	759,62	800,01	-0,9792	
60,30	2,640	761,24	799,78	-0,9814	
60,32	2,643	764,03	799,74	-0,9837	
60,34	2,647	760,40	799,98	-0,9860	
60,36	2,651	759,53	799,84	-0,9882	
60,38	2,655	762,60	799,68	-0,9902	
60,40	2,659	760,26	799,88	-0,9924	
60,42	2,663	758,85	799,84	-0,9945	
60,44	2,667	762,76	799,66	-0,9968	
60,46	2,672	761,72	799,88	-0,9991	
60,48	2,676	758,60	799,95	-1,001	
60,50	2,679	761,30	799,69	-1,004	
60,52	2,684	762,02	799,75	-1,006	
60,54	2,688	758,75	799,85	-1,008	
60,56	2,692	760,76	799,67	-1,010	
60,58	2,696	762,13	799,75	-1,012	
60,60	2,700	759,25	799,87	-1,014	
60,62	2,704	760,54	799,66	-1,017	
60,64	2,708	762,63	799,66	-1,019	
60,66	2,712	759,72	799,88	-1,021	
60,68	2,716	760,68	799,73	-1,023	
60,70	2,720	763,95	799,67	-1,025	
60,72	2,724	760,94	799,95	-1,027	
60,74	2,728	759,71	799,90	-1,030	
60,76	2,732	763,30	799,68	-1,032	
60,78	2,736	761,90	799,80	-1,034	
60,80	2,739	759,46	799,76	-1,036	
60,82	2,743	762,31	799,60	-1,038	
60,84	2,747	761,41	799,83	-1,041	
60,86	2,751	758,58	799,91	-1,043	
60,88	2,755	761,45	799,67	-1,045	
60,90	2,759	762,16	799,75	-1,047	
60,92	2,764	758,73	799,91	-1,049	
60,94	2,767	761,01	799,71	-1,052	
60,96	2,771	763,30	799,74	-1,054	
60,98	2,776	760,04	799,95	-1,056	
61,00	2,780	760,34	799,77	-1,058	
61,02	2,784	762,75	799,70	-1,060	
61,04	2,788	759,97	799,88	-1,062	
61,06	2,792	759,64	799,75	-1,065	
61,08	2,796	762,78	799,66	-1,067	
61,10	2,800	760,46	799,95	-1,069	
61,12	2,804	758,57	799,92	-1,071	
61,14	2,808	762,15	799,71	-1,073	
61,16	2,812	761,03	799,87	-1,075	
61,18	2,816	758,49	799,88	-1,078	
61,20	2,820	761,24	799,68	-1,080	
61,22	2,824	760,20	799,92	-1,082	
61,24	2,828	756,39	800,03	-1,084	
61,26	2,831	759,64	799,75	-1,086	
61,28	2,835	761,44	799,78	-1,088	
61,30	2,839	757,84	799,91	-1,091	
61,32	2,843	759,57	799,71	-1,093	
61,34	2,847	762,30	799,73	-1,095	
61,36	2,852	759,64	799,92	-1,097	
61,38	2,855	759,59	799,74	-1,099	
61,40	2,859	762,16	799,69	-1,102	
61,42	2,864	759,63	799,97	-1,104	
61,44	2,868	759,28	799,89	-1,106	
61,46	2,871	763,23	799,67	-1,108	
61,48	2,876	760,84	799,84	-1,110	
61,50	2,880	757,94	799,84	-1,113	
61,52	2,884	761,07	799,65	-1,115	
61,54	2,888	760,25	799,86	-1,117	
61,56	2,892	756,61	799,98	-1,119	
61,58	2,896	759,50	799,73	-1,121	
61,60	2,900	761,26	799,80	-1,123	
61,62	2,904	757,80	800,00	-1,126	
61,64	2,908	759,45	799,80	-1,128	
61,66	2,912	762,59	799,69	-1,130	
61,68	2,916	759,83	799,88	-1,132	
61,70	2,920	759,50	799,76	-1,134	
61,72	2,924	762,76	799,69	-1,137	
61,74	2,928	759,97	800,03	-1,139	
61,76	2,932	757,44	800,01	-1,141	
61,78	2,935	760,97	799,74	-1,143	
61,80	2,939	760,33	799,90	-1,145	
61,82	2,944	756,87	799,98	-1,148	
61,84	2,947	760,37	799,71	-1,150	
61,86	2,951	761,96	799,79	-1,152	
61,88	2,956	757,97	800,04	-1,154	
61,90	2,960	759,36	799,86	-1,156	
61,92	2,964	762,54	799,71	-1,159	
61,94	2,968	759,85	799,82	-1,161	
61,96	2,972	759,58	799,68	-1,163	
61,98	2,976	762,65	799,64	-1,165	
62,00	2,980	759,87	799,98	-1,167	
62,02	2,984	757,32	799,99	-1,170	
62,04	2,988	760,96	799,70	-1,172	
62,06	2,992	760,35	799,91	-1,174	
62,08	2,996	756,80	800,13	-1,176	
62,10	3,000	759,78	799,85	-1,178	
62,12	3,004	762,63	799,76	-1,181	
62,14	3,008	758,50	800,06	-1,183	
62,16	3,012	757,58	799,99	-1,185	
62,18	3,015	761,94	799,70	-1,187	
62,20	3,019	760,19	799,83	-1,189	
62,22	3,023	756,86	799,88	-1,191	
62,24	3,027	760,28	799,67	-1,194	
62,26	3,031	760,60	799,82	-1,196	
62,28	3,036	756,98	799,99	-1,198	
62,30	3,039	759,21	799,74	-1,200	
62,32	3,043	762,19	799,76	-1,202	
62,34	3,048	759,03	800,01	-1,205	
62,36	3,052	759,39	799,84	-1,207	
62,38	3,056	761,78	799,71	-1,209	
62,40	3,060	759,13	799,89	-1,211	
62,42	3,064	758,25	799,81	-1,214	
62,44	3,068	762,60	799,63	-1,216	
62,46	3,072	761,34	799,86	-1,218	
62,48	3,076	758,26	799,95	-1,220	
62,50	3,080	761,11	799,69	-1,222	
62,52	3,084	760,91	799,74	-1,225	
62,54	3,088	757,22	799,85	-1,227	
62,56	3,092	759,87	799,65	-1,229	
62,58	3,096	761,56	799,73	-1,231	
62,60	3,100	757,84	799,96	-1,233	
62,62	3,104	759,04	799,78	-1,236	
62,64	3,108	762,52	799,67	-1,238	
62,66	3,112	759,53	799,90	-1,240	
62,68	3,116	758,50	799,83	-1,242	
62,70	3,119	762,76	799,65	-1,244	
62,72	3,123	760,76	799,93	-1,247	
62,74	3,128	757,66	800,04	-1,249	
62,76	3,131	761,44	799,74	-1,251	
62,78	3,135	762,46	799,73	-1,253	
62,80	3,140	757,92	799,91	-1,255	
62,82	3,143	758,78	799,72	-1,258	
62,84	3,147	761,15	799,72	-1,260	
62,86	3,152	757,41	800,06	-1,262	
62,88	3,156	756,61	800,00	-1,264	
62,90	3,160	761,01	799,70	-1,266	
62,92	3,164	759,79	799,92	-1,269	
62,94	3,168	756,69	800,06	-1,271	
62,96	3,172	760,32	799,77	-1,273	
62,98	3,176	761,56	799,81	-1,275	
63,00	3,180	757,19	800,05	-1,277	
63,02	3,184	757,94	799,86	-1,280	
63,04	3,188	761,30	799,72	-1,282	
63,06	3,192	758,10	799,96	-1,284	
63,08	3,196	756,57	799,87	-1,286	
63,10	3,200	759,46	799,73	-1,288	
63,12	3,204	758,00	799,89	-1,291	
63,14	3,208	756,69	799,80	-1,293	
63,16	3,211	759,53	799,65	-1,295	
63,18	3,215	758,38	799,87	-1,297	
63,20	3,219	756,02	799,88	-1,300	
63,22	3,223	759,42	799,67	-1,302	
63,24	3,227	759,04	799,84	-1,304	
63,26	3,232	756,26	799,92	-1,306	
63,28	3,235	759,61	799,70	-1,309	
63,30	3,239	760,42	799,83	-1,311	
63,32	3,244	757,21	799,95	-1,313	
63,34	3,247	758,84	799,73	-1,315	
63,36	3,252	760,14	799,80	-1,317	
63,38	3,256	757,27	799,94	-1,319	
63,40	3,260	758,76	799,72	-1,322	
63,42	3,264	760,19	799,75	-1,324	
63,44	3,268	756,62	799,95	-1,326	
63,46	3,272	757,13	799,78	-1,328	
63,48	3,276	759,94	799,72	-1,330	
63,50	3,280	756,94	799,90	-1,333	
63,52	3,284	756,19	799,76	-1,335	
63,54	3,288	759,16	799,67	-1,337	
63,56	3,292	757,06	799,90	-1,339	
63,58	3,296	755,60	799,82	-1,341	
63,60	3,300	759,50	799,66	-1,344	
63,62	3,304	758,64	799,97	-1,346	
63,64	3,307	755,95	800,07	-1,348	
63,66	3,311	759,49	799,77	-1,350	
63,68	3,315	759,94	799,83	-1,352	
63,70	3,320	756,25	799,94	-1,355	
63,72	3,323	758,29	799,72	-1,357	
63,74	3,327	760,25	799,74	-1,359	
63,76	3,332	756,84	799,91	-1,361	
63,78	3,336	757,32	799,72	-1,363	
63,80	3,340	760,14	799,68	-1,366	
63,82	3,344	756,98	799,98	-1,368	
63,84	3,348	755,97	799,89	-1,370	
63,86	3,352	759,74	799,70	-1,372	
63,88	3,356	757,98	799,91	-1,374	
63,90	3,360	755,82	799,92	-1,377	
63,92	3,364	760,03	799,66	-1,379	
63,94	3,368	760,18	799,78	-1,381	
63,96	3,372	756,26	799,93	-1,383	
63,98	3,376	758,24	799,71	-1,386	
64,00	3,380	760,16	799,75	-1,388	
64,02	3,384	756,90	799,94	-1,390	
64,04	3,388	758,09	799,76	-1,392	
64,06	3,392	760,72	799,72	-1,394	
64,08	3,396	757,45	799,88	-1,397	
64,10	3,400	757,59	799,72	-1,399	
64,12	3,404	760,53	799,71	-1,401	
64,14	3,408	757,83	799,93	-1,403	
64,16	3,411	756,72	799,78	-1,405	
64,18	3,415	759,28	799,70	-1,408	
64,20	3,420	757,19	799,92	-1,410	
64,22	3,424	756,43	799,83	-1,412	
64,24	3,427	760,06	799,68	-1,414	
64,26	3,432	758,82	799,91	-1,416	
64,28	3,436	756,63	799,91	-1,418	
64,30	3,440	760,14	799,67	-1,421	
64,32	3,444	759,45	799,78	-1,423	
64,34	3,448	756,42	799,80	-1,425	
64,36	3,452	759,54	799,61	-1,427	
64,38	3,456	759,73	799,83	-1,429	
64,40	3,460	756,15	799,98	-1,432	
64,42	3,464	758,27	799,74	-1,434	
64,44	3,468	760,11	799,80	-1,436	
64,46	3,472	757,29	799,98	-1,438	
64,48	3,476	758,76	799,77	-1,441	
64,50	3,480	760,46	799,76	-1,443	
64,52	3,484	756,86	800,02	-1,445	
64,54	3,488	756,66	799,87	-1,447	
64,56	3,491	759,99	799,72	-1,449	
64,58	3,496	757,39	800,06	-1,452	
64,60	3,500	755,22	800,11	-1,454	
64,62	3,503	759,76	799,78	-1,456	
64,64	3,507	759,45	799,99	-1,458	
64,66	3,512	754,93	800,26	-1,460	
64,68	3,516	756,71	799,96	-1,463	
64,70	3,519	759,49	799,86	-1,465	
64,72	3,524	755,33	800,38	-1,467	
64,74	3,528	753,80	800,48	-1,469	
64,76	3,532	757,98	799,99	-1,471	
64,78	3,536	758,50	799,85	-1,473	
64,80	3,540	754,23	800,15	-1,476	
64,82	3,544	755,61	800,04	-1,478	
64,84	3,548	759,54	799,74	-1,480	
64,86	3,552	756,56	799,88	-1,482	
64,88	3,556	753,17	799,90	-1,484	
64,90	3,560	756,60	799,68	-1,486	
64,92	3,564	756,15	799,83	-1,489	
64,94	3,568	752,50	799,93	-1,491	
64,96	3,572	755,83	799,67	-1,493	
64,98	3,576	758,21	799,75	-1,495	
65,00	3,580	754,60	799,98	-1,497	
65,02	3,584	755,37	799,79	-1,499	
65,04	3,588	758,15	799,70	-1,502	
65,06	3,592	754,85	799,95	-1,504	
65,08	3,596	754,13	799,87	-1,506	
65,10	3,600	757,81	799,67	-1,508	
65,12	3,604	756,03	799,82	-1,511	
65,14	3,608	753,84	799,81	-1,513	
65,16	3,611	757,19	799,62	-1,515	
65,18	3,616	756,25	799,84	-1,517	
65,20	3,620	752,69	799,99	-1,519	
65,22	3,624	755,41	799,71	-1,521	
65,24	3,628	757,87	799,83	-1,524	
65,26	3,632	754,12	800,25	-1,526	
65,28	3,636	754,19	800,14	-1,528	
65,30	3,640	758,65	799,79	-1,530	
65,32	3,644	756,55	800,06	-1,533	
65,34	3,648	753,01	800,31	-1,535	
65,36	3,652	755,99	800,00	-1,537	
65,38	3,656	758,24	799,82	-1,539	
65,40	3,660	754,42	800,18	-1,541	
65,42	3,664	753,53	800,19	-1,543	
65,44	3,668	758,02	799,81	-1,546	
65,46	3,672	757,09	799,96	-1,548	
65,48	3,676	752,62	800,25	-1,550	
65,50	3,680	753,87	800,02	-1,552	
65,52	3,684	756,84	799,76	-1,554	
65,54	3,688	754,03	799,96	-1,557	
65,56	3,691	753,08	799,94	-1,559	
65,58	3,695	757,35	799,68	-1,561	
65,60	3,700	756,05	799,82	-1,563	
65,62	3,704	752,16	799,90	-1,565	
65,64	3,707	754,46	799,68	-1,567	
65,66	3,712	755,53	799,80	-1,570	
65,68	3,716	752,19	799,98	-1,572	
65,70	3,720	753,91	799,76	-1,574	
65,72	3,724	756,41	799,72	-1,576	
65,74	3,728	753,32	799,90	-1,578	
65,76	3,732	753,63	799,76	-1,581	
65,78	3,736	757,17	799,68	-1,583	
65,80	3,740	754,42	799,95	-1,585	
65,82	3,744	752,61	799,90	-1,587	
65,84	3,748	756,12	799,67	-1,589	
65,86	3,752	755,12	799,83	-1,592	
65,88	3,756	752,21	799,85	-1,594	
65,90	3,760	755,45	799,64	-1,596	
65,92	3,764	755,39	799,87	-1,598	
65,94	3,768	752,01	800,06	-1,601	
65,96	3,772	754,54	799,80	-1,603	
65,98	3,776	757,64	799,83	-1,605	
66,00	3,780	754,32	800,15	-1,607	
66,02	3,783	754,44	800,02	-1,609	
66,04	3,787	758,66	799,71	-1,612	
66,06	3,792	756,47	799,88	-1,614	
66,08	3,796	753,10	799,95	-1,616	
66,10	3,799	756,23	799,72	-1,618	
66,12	3,804	755,55	799,87	-1,620	
66,14	3,808	751,57	800,03	-1,623	
66,16	3,812	753,71	799,77	-1,625	
66,18	3,816	756,64	799,79	-1,627	
66,20	3,820	753,62	800,07	-1,629	
66,22	3,824	753,72	799,91	-1,631	
66,24	3,828	757,39	799,74	-1,634	
66,26	3,832	754,73	800,01	-1,636	
66,28	3,836	752,79	800,03	-1,638	
66,30	3,840	756,95	799,74	-1,640	
66,32	3,844	756,46	799,84	-1,642	
66,34	3,848	753,04	799,93	-1,645	
66,36	3,852	756,09	799,69	-1,647	
66,38	3,856	756,69	799,81	-1,649	
66,40	3,860	752,51	800,04	-1,651	
66,42	3,864	753,95	799,83	-1,653	
66,44	3,868	757,33	799,74	-1,656	
66,46	3,872	754,23	799,96	-1,658	
66,48	3,876	753,94	799,83	-1,660	
66,50	3,880	757,32	799,72	-1,662	
66,52	3,884	754,58	800,05	-1,664	
66,54	3,888	751,63	800,06	-1,667	
66,56	3,891	754,54	799,77	-1,669	
66,58	3,896	754,52	799,91	-1,671	
66,60	3,900	752,22	800,02	-1,673	
66,62	3,904	755,32	799,75	-1,676	
66,64	3,908	756,80	799,85	-1,678	
66,66	3,912	752,96	800,11	-1,680	
66,68	3,916	753,99	799,90	-1,682	
66,70	3,920	757,47	799,76	-1,684	
66,72	3,924	754,23	800,06	-1,687	
66,74	3,928	752,53	800,03	-1,689	
66,76	3,932	756,58	799,74	-1,691	
66,78	3,936	755,74	799,94	-1,693	
66,80	3,940	752,49	800,09	-1,695	
66,82	3,944	755,29	799,79	-1,698	
66,84	3,948	756,93	799,82	-1,700	
66,86	3,952	753,03	800,07	-1,702	
66,88	3,956	753,96	799,89	-1,704	
66,90	3,960	757,78	799,75	-1,706	
66,92	3,964	754,85	800,04	-1,709	
66,94	3,968	752,82	800,01	-1,711	
66,96	3,972	756,51	799,74	-1,713	
66,98	3,976	755,49	799,97	-1,715	
67,00	3,980	752,31	800,10	-1,717	
67,02	3,983	755,82	799,80	-1,719	
67,04	3,988	757,46	799,89	-1,722	
67,06	3,992	753,18	800,23	-1,724	
67,08	3,996	753,73	800,06	-1,726	
67,10	4,000	757,69	799,79	-1,728	
67,12	4,004	754,70	800,07	-1,731	
67,14	4,008	751,34	800,16	-1,733	
67,16	4,012	754,92	799,83	-1,736	
67,18	4,016	755,60	799,93	-1,738	
67,20	4,020	751,36	800,18	-1,740	
67,22	4,024	752,66	799,92	-1,742	
67,24	4,028	755,80	799,82	-1,744	
67,26	4,032	751,92	800,31	-1,747	
67,28	4,036	749,31	800,40	-1,749	
67,30	4,040	753,27	799,92	-1,751	
67,32	4,044	754,17	799,95	-1,753	
67,34	4,048	749,28	800,45	-1,755	
67,36	4,052	749,62	800,38	-1,757	
67,38	4,056	753,92	799,88	-1,760	
67,40	4,060	752,64	800,04	-1,762	
67,42	4,064	747,91	800,41	-1,764	
67,44	4,068	749,79	800,18	-1,766	
67,46	4,072	754,03	799,78	-1,768	
67,48	4,076	751,18	800,12	-1,771	
67,50	4,080	747,75	800,41	-1,773	
67,52	4,084	751,05	800,06	-1,775	
67,54	4,088	754,17	799,82	-1,777	
67,56	4,092	749,79	800,38	-1,780	
67,58	4,096	747,94	800,66	-1,782	
67,60	4,100	751,69	800,24	-1,784	
67,62	4,104	753,96	799,82	-1,786	
67,64	4,108	749,36	800,37	-1,788	
67,66	4,112	747,69	800,83	-1,791	
67,68	4,116	750,54	800,53	-1,793	
67,70	4,120	752,83	799,92	-1,795	
67,72	4,124	751,26	799,99	-1,797	
67,74	4,128	749,73	800,36	-1,799	
67,76	4,132	752,40	800,17	-1,802	
67,78	4,136	754,16	799,83	-1,804	
67,80	4,140	749,88	800,26	-1,806	
67,82	4,144	745,93	800,60	-1,808	
67,84	4,148	749,20	800,26	-1,810	
67,86	4,152	753,01	799,82	-1,812	
67,88	4,156	750,06	800,15	-1,815	
67,90	4,160	748,57	800,43	-1,817	
67,92	4,163	751,86	800,08	-1,819	
67,94	4,167	753,20	799,82	-1,821	
67,96	4,172	748,86	800,26	-1,823	
67,98	4,176	747,80	800,43	-1,826	
68,00	4,180	752,19	800,02	-1,828	
68,02	4,184	753,41	799,87	-1,830	
68,04	4,188	748,89	800,27	-1,832	
68,06	4,192	748,96	800,31	-1,835	
68,08	4,196	753,51	799,87	-1,837	
68,10	4,200	753,54	800,01	-1,839	
68,12	4,204	748,22	800,62	-1,841	
68,14	4,208	747,90	800,61	-1,843	
68,16	4,212	750,97	800,05	-1,845	
68,18	4,216	751,26	799,88	-1,848	
68,20	4,220	748,07	800,22	-1,850	
68,22	4,224	749,96	800,14	-1,852	
68,24	4,228	753,08	799,78	-1,854	
68,26	4,232	749,77	800,08	-1,856	
68,28	4,236	745,47	800,42	-1,859	
68,30	4,240	748,37	800,13	-1,861	
68,32	4,244	752,31	799,82	-1,863	
68,34	4,248	748,99	800,22	-1,865	
68,36	4,252	747,16	800,45	-1,867	
68,38	4,256	750,94	800,05	-1,869	
68,40	4,259	753,03	799,85	-1,872	
68,42	4,264	748,94	800,42	-1,874	
68,44	4,268	747,36	800,67	-1,876	
68,46	4,272	750,06	800,24	-1,878	
68,48	4,275	752,29	799,85	-1,880	
68,50	4,280	748,80	800,31	-1,883	
68,52	4,284	747,37	800,64	-1,885	
68,54	4,288	750,03	800,29	-1,887	
68,56	4,292	752,52	799,82	-1,889	
68,58	4,296	749,24	800,23	-1,892	
68,60	4,300	746,53	800,67	-1,894	
68,62	4,304	748,94	800,41	-1,896	
68,64	4,308	752,03	799,87	-1,898	
68,66	4,312	749,86	800,21	-1,900	
68,68	4,316	746,44	800,85	-1,903	
68,70	4,320	748,44	800,78	-1,905	
68,72	4,324	751,04	800,15	-1,907	
68,74	4,328	750,68	799,88	-1,909	
68,76	4,332	747,52	800,40	-1,911	
68,78	4,336	748,02	800,62	-1,914	
68,80	4,340	750,75	800,17	-1,916	
68,82	4,344	751,99	799,83	-1,918	
68,84	4,348	746,79	800,42	-1,920	
68,86	4,352	744,16	800,85	-1,923	
68,88	4,356	746,32	800,53	-1,925	
68,90	4,359	748,89	799,91	-1,927	
68,92	4,364	747,82	800,08	-1,929	
68,94	4,368	745,99	800,70	-1,932	
68,96	4,372	747,67	800,69	-1,934	
68,98	4,376	749,23	800,11	-1,936	
69,00	4,380	749,33	799,85	-1,938	
69,02	4,384	746,43	800,32	-1,940	
69,04	4,388	747,35	800,48	-1,943	
69,06	4,392	750,89	800,02	-1,945	
69,08	4,396	751,50	799,89	-1,947	
69,10	4,400	746,17	800,55	-1,949	
69,12	4,404	744,89	800,79	-1,951	
69,14	4,408	747,63	800,32	-1,953	
69,16	4,412	749,45	799,83	-1,956	
69,18	4,416	746,03	800,29	-1,958	
69,20	4,420	744,60	800,80	-1,960	
69,22	4,424	746,80	800,57	-1,962	
69,24	4,428	749,12	799,93	-1,964	
69,26	4,432	747,97	800,10	-1,967	
69,28	4,436	744,09	801,01	-1,969	
69,30	4,440	744,29	801,24	-1,971	
69,32	4,444	745,46	800,70	-1,973	
69,34	4,447	746,29	799,98	-1,975	
69,36	4,451	746,02	799,99	-1,978	
69,38	4,456	746,17	800,52	-1,980	
69,40	4,460	747,62	800,49	-1,982	
69,42	4,464	749,17	799,96	-1,984	
69,44	4,468	747,76	800,07	-1,987	
69,46	4,472	743,85	800,77	-1,989	
69,48	4,476	745,05	800,87	-1,991	
69,50	4,480	747,81	800,30	-1,993	
69,52	4,484	749,25	799,89	-1,995	
69,54	4,488	745,46	800,56	-1,998	
69,56	4,492	743,94	801,11	-2,000	
69,58	4,496	745,19	800,82	-2,002	
69,60	4,500	745,99	800,11	-2,004	
69,62	4,504	745,62	799,92	-2,006	
69,64	4,508	744,09	800,67	-2,009	
69,66	4,512	744,24	801,00	-2,011	
69,68	4,516	744,95	800,54	-2,013	
69,70	4,520	745,97	799,90	-2,015	
69,72	4,524	744,83	800,13	-2,017	
69,74	4,528	743,74	800,76	-2,020	
69,76	4,532	745,93	800,71	-2,022	
69,78	4,536	748,44	800,09	-2,024	
69,80	4,540	748,28	799,95	-2,026	
69,82	4,544	743,66	800,73	-2,028	
69,84	4,548	743,78	801,06	-2,031	
69,86	4,552	745,71	800,62	-2,033	
69,88	4,556	746,52	799,94	-2,035	
69,90	4,560	745,08	800,07	-2,037	
69,92	4,564	743,82	800,71	-2,039	
69,94	4,568	746,05	800,71	-2,042	
69,96	4,572	748,47	800,13	-2,044	
69,98	4,576	748,76	799,89	-2,046	
70,00	4,580	744,56	800,51	-2,048	
70,02	4,584	744,33	800,78	-2,051	
70,04	4,588	747,06	800,34	-2,053	
70,06	4,592	749,01	799,84	-2,055	
70,08	4,596	745,51	800,17	-2,057	
70,10	4,600	743,84	800,56	-2,059	
70,12	4,604	746,45	800,29	-2,061	
70,14	4,608	748,91	799,85	-2,064	
70,16	4,612	745,13	800,22	-2,066	
70,18	4,616	742,33	800,63	-2,068	
70,20	4,620	745,14	800,36	-2,070	
70,22	4,624	748,54	799,83	-2,072	
70,24	4,628	745,86	800,15	-2,075	
70,26	4,631	742,39	800,72	-2,077	
70,28	4,635	744,80	800,57	-2,079	
70,30	4,639	748,32	799,97	-2,081	
70,32	4,643	746,67	800,06	-2,083	
70,34	4,648	742,48	800,66	-2,086	
70,36	4,652	744,30	800,65	-2,088	
70,38	4,655	747,88	800,08	-2,090	
70,40	4,659	748,31	799,89	-2,092	
70,42	4,664	743,80	800,49	-2,095	
70,44	4,668	743,89	800,71	-2,097	
70,46	4,672	747,00	800,25	-2,099	
70,48	4,676	748,60	799,83	-2,101	
70,50	4,680	743,95	800,26	-2,103	
70,52	4,684	742,07	800,61	-2,106	
70,54	4,688	745,03	800,26	-2,108	
70,56	4,692	746,80	799,84	-2,110	
70,58	4,696	742,18	800,36	-2,112	
70,60	4,700	739,72	800,87	-2,114	
70,62	4,704	742,56	800,61	-2,117	
70,64	4,708	745,54	799,95	-2,119	
70,66	4,712	744,74	800,02	-2,121	
70,68	4,716	741,92	800,73	-2,123	
70,70	4,720	742,89	800,83	-2,126	
70,72	4,724	744,83	800,27	-2,128	
70,74	4,728	746,06	799,82	-2,130	
70,76	4,732	742,99	800,37	-2,132	
70,78	4,736	742,08	800,85	-2,135	
70,80	4,740	743,92	800,54	-2,137	
70,82	4,744	745,90	799,89	-2,139	
70,84	4,747	744,27	800,15	-2,141	
70,86	4,752	740,77	800,97	-2,143	
70,88	4,756	741,33	801,03	-2,145	
70,90	4,760	742,31	800,43	-2,147	
70,92	4,763	742,92	799,84	-2,150	
70,94	4,768	741,53	800,21	-2,152	
70,96	4,772	741,96	800,74	-2,154	
70,98	4,776	744,07	800,51	-2,156	
71,00	4,780	745,92	799,90	-2,159	
71,02	4,784	743,43	800,14	-2,161	
71,04	4,788	739,15	800,81	-2,163	
71,06	4,792	740,98	800,79	-2,165	
71,08	4,796	743,33	800,18	-2,167	
71,10	4,800	743,29	799,87	-2,170	
71,12	4,804	739,95	800,46	-2,172	
71,14	4,808	740,62	800,77	-2,174	
71,16	4,812	743,73	800,35	-2,176	
71,18	4,816	745,88	799,85	-2,178	
71,20	4,820	741,96	800,39	-2,181	
71,22	4,824	738,94	801,05	-2,183	
71,24	4,827	740,65	800,89	-2,185	
71,26	4,831	742,25	800,20	-2,187	
71,28	4,835	742,69	799,88	-2,189	
71,30	4,840	741,19	800,43	-2,192	
71,32	4,844	741,60	800,70	-2,194	
71,34	4,848	742,39	800,27	-2,196	
71,36	4,851	742,66	799,85	-2,198	
71,38	4,856	739,19	800,17	-2,201	
71,40	4,860	739,09	800,38	-2,203	
71,42	4,864	743,18	800,00	-2,205	
71,44	4,868	744,58	799,86	-2,207	
71,46	4,872	740,35	800,34	-2,209	
71,48	4,876	739,60	800,44	-2,212	
71,50	4,880	743,32	799,99	-2,214	
71,52	4,884	744,07	799,87	-2,216	
71,54	4,888	739,22	800,29	-2,218	
71,56	4,892	739,33	800,27	-2,220	
71,58	4,896	743,75	799,84	-2,222	
71,60	4,900	743,00	800,09	-2,225	
71,62	4,904	738,08	800,65	-2,227	
71,64	4,908	739,48	800,54	-2,229	
71,66	4,912	743,97	799,95	-2,231	
71,68	4,916	743,18	800,03	-2,233	
71,70	4,920	738,01	800,66	-2,236	
71,72	4,924	738,89	800,69	-2,238	
71,74	4,927	741,80	800,11	-2,240	
71,76	4,931	741,71	799,97	-2,242	
71,78	4,936	736,94	800,73	-2,245	
71,80	4,940	736,96	801,05	-2,247	
71,82	4,944	739,63	800,60	-2,249	
71,84	4,947	740,52	799,92	-2,251	
71,86	4,952	738,68	800,09	-2,253	
71,88	4,956	736,47	800,89	-2,256	
71,90	4,960	737,13	801,01	-2,258	
71,92	4,964	738,26	800,44	-2,260	
71,94	4,968	739,24	799,89	-2,262	
71,96	4,972	737,28	800,38	-2,264	
71,98	4,976	737,10	800,98	-2,267	
72,00	4,980	738,62	800,80	-2,269	
72,02	4,984	739,23	800,14	-2,271	
72,04	4,988	739,42	799,87	-2,273	
72,06	4,992	737,80	800,54	-2,275	
72,08	4,996	738,42	800,90	-2,278	
72,10	5,000	740,63	800,49	-2,280	
72,12	5,004	742,49	799,90	-2,282	
72,14	5,008	739,32	800,33	-2,284	
72,16	5,012	736,24	801,03	-2,287	
72,18	5,016	738,08	800,93	-2,289	
72,20	5,020	739,33	800,26	-2,291	
72,22	5,023	739,55	799,86	-2,293	
72,24	5,028	737,07	800,56	-2,295	
72,26	5,032	736,57	801,10	-2,297	
72,28	5,036	737,66	800,79	-2,299	
72,30	5,040	738,82	800,06	-2,302	
72,32	5,043	738,43	800,00	-2,304	
72,34	5,048	736,64	800,82	-2,306	
72,36	5,052	737,10	801,11	-2,308	
72,38	5,056	738,09	800,62	-2,310	
72,40	5,060	739,12	799,91	-2,313	
72,42	5,064	738,50	800,04	-2,315	
72,44	5,068	737,14	800,72	-2,317	
72,46	5,072	737,48	800,72	-2,319	
72,48	5,076	738,65	800,10	-2,321	
72,50	5,080	738,06	800,02	-2,324	
72,52	5,084	734,61	800,67	-2,326	
72,54	5,088	735,75	800,82	-2,328	
72,56	5,092	738,09	800,29	-2,330	
72,58	5,096	739,27	799,84	-2,333	
72,60	5,100	736,25	800,38	-2,335	
72,62	5,104	735,29	800,88	-2,337	
72,64	5,108	736,99	800,60	-2,339	
72,66	5,111	738,84	799,96	-2,341	
72,68	5,115	737,70	800,11	-2,344	
72,70	5,120	735,68	800,75	-2,346	
72,72	5,124	736,74	800,74	-2,348	
72,74	5,128	738,46	800,14	-2,350	
72,76	5,131	738,31	799,91	-2,352	
72,78	5,136	734,80	800,48	-2,355	
72,80	5,140	735,29	800,66	-2,357	
72,82	5,144	737,79	800,18	-2,359	
72,84	5,148	739,05	799,84	-2,362	
72,86	5,152	735,71	800,30	-2,364	
72,88	5,156	734,90	800,51	-2,366	
72,90	5,160	737,90	800,08	-2,368	
72,92	5,164	738,90	799,92	-2,370	
72,94	5,168	733,95	800,61	-2,373	
72,96	5,172	732,59	800,93	-2,375	
72,98	5,176	735,92	800,47	-2,377	
73,00	5,180	738,85	799,88	-2,379	
73,02	5,184	736,35	800,24	-2,381	
73,04	5,188	733,62	800,84	-2,384	
73,06	5,192	735,55	800,68	-2,386	
73,08	5,196	738,05	800,02	-2,388	
73,10	5,200	736,09	800,01	-2,390	
73,12	5,204	731,51	800,71	-2,392	
73,14	5,208	732,00	800,84	-2,395	
73,16	5,212	734,45	800,26	-2,397	
73,18	5,215	735,80	799,92	-2,399	
73,20	5,220	732,08	800,68	-2,401	
73,22	5,224	731,06	801,18	-2,403	
73,24	5,228	732,36	800,81	-2,405	
73,26	5,232	732,91	800,07	-2,408	
73,28	5,236	731,90	800,02	-2,410	
73,30	5,240	729,98	800,80	-2,412	
73,32	5,244	730,51	801,03	-2,414	
73,34	5,248	731,82	800,51	-2,416	
73,36	5,252	733,69	799,89	-2,418	
73,38	5,256	732,27	800,24	-2,421	
73,40	5,260	730,84	800,85	-2,423	
73,42	5,264	732,70	800,70	-2,425	
73,44	5,268	735,06	800,03	-2,427	
73,46	5,272	734,51	800,01	-2,429	
73,48	5,276	730,15	800,89	-2,432	
73,50	5,280	730,11	801,17	-2,434	
73,52	5,284	731,55	800,62	-2,436	
73,54	5,288	732,68	799,92	-2,438	
73,56	5,292	731,12	800,33	-2,440	
73,58	5,296	729,83	801,18	-2,443	
73,60	5,300	730,71	801,18	-2,445	
73,62	5,303	731,63	800,49	-2,447	
73,64	5,307	732,47	799,88	-2,449	
73,66	5,311	730,62	800,15	-2,451	
73,68	5,316	730,46	800,51	-2,453	
73,70	5,320	733,06	800,21	-2,456	
73,72	5,323	735,35	799,83	-2,458	
73,74	5,328	730,98	800,49	-2,460	
73,76	5,332	727,07	801,09	-2,462	
73,78	5,336	728,80	800,82	-2,465	
73,80	5,340	731,68	800,10	-2,467	
73,82	5,344	731,38	800,08	-2,469	
73,84	5,348	729,19	800,80	-2,471	
73,86	5,352	730,06	800,94	-2,473	
73,88	5,356	731,53	800,37	-2,475	
73,90	5,360	732,59	799,85	-2,478	
73,92	5,364	729,64	800,41	-2,480	
73,94	5,368	728,50	801,01	-2,482	
73,96	5,372	730,26	800,77	-2,484	
73,98	5,376	732,10	800,07	-2,486	
74,00	5,380	731,42	800,00	-2,489	
74,02	5,384	728,55	800,78	-2,491	
74,04	5,388	729,41	801,02	-2,493	
74,06	5,392	731,23	800,49	-2,495	
74,08	5,395	732,57	799,87	-2,497	
74,10	5,399	729,95	800,34	-2,500	
74,12	5,404	727,59	801,06	-2,502	
74,14	5,408	728,22	800,97	-2,504	
74,16	5,412	728,82	800,30	-2,506	
74,18	5,415	729,47	799,82	-2,508	
74,20	5,420	727,95	800,47	-2,510	
74,22	5,424	727,40	801,11	-2,513	
74,24	5,428	728,00	800,91	-2,515	
74,26	5,432	728,71	800,21	-2,517	
74,28	5,436	728,88	799,90	-2,519	
74,30	5,440	727,63	800,49	-2,521	
74,32	5,444	728,69	800,78	-2,524	
74,34	5,448	730,82	800,33	-2,526	
74,36	5,452	732,24	799,88	-2,528	
74,38	5,456	728,11	800,40	-2,530	
74,40	5,460	726,25	800,86	-2,533	
74,42	5,464	729,10	800,54	-2,535	
74,44	5,468	732,05	799,91	-2,537	
74,46	5,472	730,14	800,33	-2,539	
74,48	5,476	726,56	801,23	-2,541	
74,50	5,480	726,87	801,27	-2,543	
74,52	5,484	728,13	800,57	-2,546	
74,54	5,488	728,90	799,90	-2,548	
74,56	5,492	726,61	800,25	-2,550	
74,58	5,496	726,27	800,76	-2,552	
74,60	5,500	727,61	800,54	-2,554	
74,62	5,503	729,04	799,92	-2,556	
74,64	5,508	727,50	800,00	-2,558	
74,66	5,512	723,63	800,65	-2,561	
74,68	5,516	724,84	800,67	-2,563	
74,70	5,520	727,88	800,09	-2,565	
74,72	5,524	728,26	800,03	-2,567	
74,74	5,528	723,76	800,86	-2,570	
74,76	5,532	723,68	801,15	-2,572	
74,78	5,536	726,32	800,61	-2,574	
74,80	5,540	727,28	799,92	-2,576	
74,82	5,544	724,93	800,31	-2,578	
74,84	5,548	723,20	801,15	-2,581	
74,86	5,552	723,98	801,18	-2,583	
74,88	5,556	724,93	800,53	-2,585	
74,90	5,560	725,87	799,89	-2,587	
74,92	5,564	724,56	800,42	-2,589	
74,94	5,568	723,86	801,23	-2,591	
74,96	5,572	724,14	801,17	-2,594	
74,98	5,576	723,30	800,49	-2,596	
75,00	5,580	723,07	799,91	-2,598	
75,02	5,584	722,41	800,43	-2,600	
75,04	5,588	723,27	801,06	-2,602	
75,06	5,592	724,53	800,85	-2,604	
75,08	5,596	725,41	800,16	-2,607	
75,10	5,599	725,11	799,90	-2,609	
75,12	5,604	722,70	800,46	-2,611	
75,14	5,608	723,01	800,67	-2,613	
75,16	5,612	724,56	800,20	-2,615	
75,18	5,616	725,66	799,89	-2,618	
75,20	5,620	722,42	800,56	-2,620	
75,22	5,624	721,07	801,01	-2,622	
75,24	5,628	723,17	800,64	-2,624	
75,26	5,632	725,41	799,98	-2,626	
75,28	5,636	723,94	800,14	-2,629	
75,30	5,640	721,74	800,77	-2,631	
75,32	5,644	723,08	800,72	-2,633	
75,34	5,648	725,10	800,09	-2,635	
75,36	5,652	724,97	799,96	-2,637	
75,38	5,656	721,29	800,72	-2,640	
75,40	5,660	721,64	801,01	-2,642	
75,42	5,664	723,95	800,49	-2,644	
75,44	5,668	725,29	799,91	-2,646	
75,46	5,672	721,67	800,40	-2,648	
75,48	5,676	719,69	801,03	-2,650	
75,50	5,680	721,19	800,88	-2,652	
75,52	5,684	722,29	800,22	-2,655	
75,54	5,688	722,77	799,89	-2,657	
75,56	5,692	721,07	800,64	-2,659	
75,58	5,696	720,58	801,14	-2,661	
75,60	5,700	721,26	800,80	-2,663	
75,62	5,704	722,21	800,08	-2,665	
75,64	5,708	721,68	800,05	-2,668	
75,66	5,712	719,76	800,92	-2,670	
75,68	5,716	720,27	801,22	-2,672	
75,70	5,720	721,35	800,71	-2,675	
75,72	5,724	722,32	799,97	-2,677	
75,74	5,728	721,96	800,03	-2,679	
75,76	5,732	720,63	800,79	-2,681	
75,78	5,736	720,88	800,96	-2,683	
75,80	5,740	721,70	800,38	-2,685	
75,82	5,744	722,53	799,93	-2,688	
75,84	5,748	718,94	800,65	-2,690	
75,86	5,752	717,80	801,31	-2,692	
75,88	5,756	719,06	801,08	-2,694	
75,90	5,760	719,16	800,37	-2,696	
75,92	5,764	719,43	799,86	-2,698	
75,94	5,768	718,49	800,32	-2,701	
75,96	5,772	718,00	800,77	-2,703	
75,98	5,776	719,24	800,47	-2,705	
76,00	5,779	721,67	799,90	-2,707	
76,02	5,783	719,98	800,28	-2,709	
76,04	5,788	716,86	800,99	-2,711	
76,06	5,792	718,57	800,89	-2,713	
76,08	5,796	721,25	800,22	-2,716	
76,10	5,800	722,21	799,89	-2,718	
76,12	5,804	718,76	800,54	-2,720	
76,14	5,808	717,99	800,90	-2,722	
76,16	5,812	719,55	800,47	-2,724	
76,18	5,816	721,26	799,87	-2,726	
76,20	5,820	718,40	800,31	-2,729	
76,22	5,824	715,30	801,03	-2,731	
76,24	5,828	716,40	800,94	-2,733	
76,26	5,832	718,14	800,26	-2,735	
76,28	5,836	719,26	799,86	-2,737	
76,30	5,840	717,17	800,62	-2,739	
76,32	5,844	716,57	801,24	-2,741	
76,34	5,848	716,63	800,98	-2,743	
76,36	5,852	716,01	800,26	-2,746	
76,38	5,856	715,99	799,85	-2,748	
76,40	5,860	715,01	800,49	-2,750	
76,42	5,864	715,68	800,97	-2,752	
76,44	5,868	717,45	800,65	-2,754	
76,46	5,871	718,93	799,97	-2,756	
76,48	5,875	718,08	800,07	-2,759	
76,50	5,880	715,05	801,06	-2,761	
76,52	5,884	714,86	801,37	-2,763	
76,54	5,888	715,28	800,84	-2,765	
76,56	5,891	715,76	800,06	-2,767	
76,58	5,896	715,67	799,94	-2,769	
76,60	5,900	715,21	800,48	-2,772	
76,62	5,904	716,53	800,54	-2,774	
76,64	5,908	718,28	800,02	-2,776	
76,66	5,912	718,22	799,94	-2,778	
76,68	5,916	713,66	800,78	-2,780	
76,70	5,920	713,42	801,15	-2,783	
76,72	5,924	716,06	800,70	-2,785	
76,74	5,928	716,95	799,98	-2,787	
76,76	5,932	715,61	800,06	-2,789	
76,78	5,936	713,97	800,77	-2,791	
76,80	5,940	714,27	800,88	-2,793	
76,82	5,944	714,96	800,33	-2,795	
76,84	5,948	715,78	799,83	-2,797	
76,86	5,952	713,20	800,36	-2,800	
76,88	5,956	712,51	800,92	-2,802	
76,90	5,960	714,02	800,65	-2,804	
76,92	5,963	715,77	799,97	-2,806	
76,94	5,967	714,41	800,37	-2,808	
76,96	5,972	711,05	801,48	-2,810	
76,98	5,976	711,80	801,74	-2,813	
77,00	5,980	712,56	801,15	-2,815	
77,02	5,984	712,37	800,30	-2,817	
77,04	5,987	713,51	799,89	-2,819	
77,06	5,992	713,93	800,53	-2,821	
77,08	5,996	713,02	800,95	-2,823	
77,10	6,000	713,60	800,56	-2,825	
77,12	6,004	715,40	799,91	-2,827	
77,14	6,008	713,52	800,36	-2,830	
77,16	6,012	710,18	801,30	-2,832	
77,18	6,016	710,86	801,35	-2,834	
77,20	6,020	711,82	800,67	-2,836	
77,22	6,024	712,66	799,95	-2,838	
77,24	6,028	712,15	800,22	-2,840	
77,26	6,032	711,35	800,93	-2,843	
77,28	6,036	711,41	800,89	-2,845	
77,30	6,040	711,93	800,23	-2,847	
77,32	6,044	712,51	799,89	-2,849	
77,34	6,048	710,36	800,62	-2,851	
77,36	6,052	709,89	801,09	-2,853	
77,38	6,056	710,97	800,72	-2,855	
77,40	6,060	712,30	800,01	-2,858	
77,42	6,063	711,23	800,21	-2,860	
77,44	6,068	708,93	801,04	-2,862	
77,46	6,072	709,83	801,15	-2,864	
77,48	6,076	711,32	800,53	-2,866	
77,50	6,080	712,52	799,88	-2,868	
77,52	6,084	710,71	800,31	-2,870	
77,54	6,088	709,84	801,03	-2,873	
77,56	6,092	710,81	800,93	-2,875	
77,58	6,096	711,90	800,22	-2,877	
77,60	6,100	712,19	799,98	-2,879	
77,62	6,104	709,53	800,92	-2,881	
77,64	6,108	709,41	801,49	-2,883	
77,66	6,112	710,93	801,12	-2,885	
77,68	6,116	711,59	800,32	-2,887	
77,70	6,120	711,33	799,89	-2,890	
77,72	6,124	710,32	800,63	-2,892	
77,74	6,128	709,21	801,22	-2,894	
77,76	6,132	708,61	800,88	-2,896	
77,78	6,136	708,90	800,11	-2,898	
77,80	6,140	708,46	800,01	-2,900	
77,82	6,144	706,62	800,86	-2,903	
77,84	6,148	707,71	801,17	-2,905	
77,86	6,152	708,83	800,64	-2,907	
77,88	6,156	709,48	799,94	-2,909	
77,90	6,160	707,85	800,34	-2,911	
77,92	6,164	706,52	801,21	-2,913	
77,94	6,168	707,38	801,20	-2,915	
77,96	6,172	708,27	800,51	-2,917	
77,98	6,176	709,22	799,83	-2,919	
78,00	6,180	708,12	800,17	-2,922	
78,02	6,184	707,35	800,83	-2,924	
78,04	6,188	707,87	800,69	-2,926	
78,06	6,192	709,00	800,03	-2,928	
78,08	6,196	707,54	800,23	-2,930	
78,10	6,200	703,59	801,09	-2,932	
78,12	6,204	704,70	801,23	-2,934	
78,14	6,208	707,36	800,63	-2,936	
78,16	6,212	708,23	799,92	-2,938	
78,18	6,216	706,38	800,32	-2,941	
78,20	6,220	704,71	801,25	-2,943	
78,22	6,224	704,66	801,32	-2,945	
78,24	6,228	705,02	800,66	-2,947	
78,26	6,232	705,85	799,92	-2,949	
78,28	6,236	705,56	800,16	-2,951	
78,30	6,240	704,64	801,03	-2,954	
78,32	6,244	704,65	801,14	-2,956	
78,34	6,248	704,98	800,54	-2,958	
78,36	6,251	705,86	799,90	-2,960	
78,38	6,256	704,70	800,45	-2,962	
78,40	6,260	703,90	801,31	-2,964	
78,42	6,264	704,42	801,30	-2,966	
78,44	6,268	704,96	800,63	-2,968	
78,46	6,272	705,86	799,94	-2,971	
78,48	6,276	705,36	800,23	-2,973	
78,50	6,280	704,64	800,84	-2,975	
78,52	6,284	704,73	800,69	-2,977	
78,54	6,288	705,52	800,03	-2,979	
78,56	6,292	704,65	800,10	-2,981	
78,58	6,296	701,04	801,08	-2,983	
78,60	6,300	701,72	801,41	-2,985	
78,62	6,304	703,06	800,89	-2,988	
78,64	6,308	703,05	800,10	-2,990	
78,66	6,312	702,78	800,04	-2,992	
78,68	6,316	702,47	800,84	-2,994	
78,70	6,320	703,52	801,08	-2,996	
78,72	6,324	704,60	800,58	-2,998	
78,74	6,328	705,66	799,91	-3,000	
78,76	6,332	704,52	800,21	-3,002	
78,78	6,336	703,22	801,01	-3,005	
78,80	6,340	703,95	801,07	-3,007	
78,82	6,344	704,89	800,46	-3,009	
78,84	6,347	705,83	799,90	-3,011	
78,86	6,352	703,32	800,46	-3,013	
78,88	6,356	702,51	801,12	-3,016	
78,90	6,360	703,98	800,93	-3,018	
78,92	6,364	705,21	800,20	-3,020	
78,94	6,368	705,53	799,96	-3,022	
78,96	6,372	702,49	800,97	-3,024	
78,98	6,376	700,93	801,60	-3,026	
79,00	6,380	701,33	801,23	-3,028	
79,02	6,384	701,76	800,44	-3,030	
79,04	6,388	702,87	799,86	-3,032	
79,06	6,392	703,22	800,39	-3,034	
79,08	6,396	702,39	801,02	-3,037	
79,10	6,400	701,71	800,83	-3,039	
79,12	6,404	702,29	800,12	-3,041	
79,14	6,408	703,18	799,94	-3,043	
79,16	6,412	701,09	800,71	-3,045	
79,18	6,416	701,55	801,02	-3,047	
79,20	6,420	702,81	800,54	-3,049	
79,22	6,424	703,25	799,89	-3,051	
79,24	6,428	701,30	800,25	-3,053	
79,26	6,432	699,72	801,04	-3,055	
79,28	6,436	700,44	801,05	-3,057	
79,30	6,440	701,41	800,41	-3,059	
79,32	6,443	702,39	799,87	-3,061	
79,34	6,448	700,55	800,45	-3,064	
79,36	6,452	699,78	801,16	-3,066	
79,38	6,456	700,74	801,03	-3,068	
79,40	6,460	701,59	800,32	-3,070	
79,42	6,464	702,38	799,90	-3,072	
79,44	6,468	700,91	800,67	-3,074	
79,46	6,472	700,43	801,33	-3,076	
79,48	6,476	701,12	801,08	-3,078	
79,50	6,480	701,65	800,35	-3,080	
79,52	6,484	702,44	799,85	-3,082	
79,54	6,488	701,69	800,41	-3,085	
79,56	6,492	701,20	800,94	-3,087	
79,58	6,496	701,35	800,64	-3,089	
79,60	6,500	702,28	799,98	-3,091	
79,62	6,504	700,88	800,29	-3,093	
79,64	6,508	698,09	801,22	-3,095	
79,66	6,512	699,32	801,36	-3,097	
79,68	6,516	701,10	800,76	-3,099	
79,70	6,520	702,30	800,01	-3,101	
79,72	6,524	702,28	800,07	-3,103	
79,74	6,528	701,31	800,90	-3,106	
79,76	6,532	701,21	801,08	-3,108	
79,78	6,536	701,52	800,51	-3,110	
79,80	6,539	702,31	799,92	-3,112	
79,82	6,544	699,85	800,49	-3,114	
79,84	6,548	699,02	801,20	-3,116	
79,86	6,552	700,44	801,03	-3,118	
79,88	6,556	701,59	800,31	-3,120	
79,90	6,560	702,08	799,92	-3,123	
79,92	6,564	700,05	800,61	-3,125	
79,94	6,568	699,87	801,10	-3,127	
79,96	6,572	700,90	800,75	-3,129	
79,98	6,576	702,04	800,04	-3,131	
80,00	6,580	701,20	800,13	-3,133	
80,02	6,584	698,90	800,94	-3,135	
80,04	6,588	699,69	801,09	-3,137	
80,06	6,592	701,17	800,50	-3,139	
80,08	6,596	702,49	799,88	-3,141	
80,10	6,600	700,34	800,58	-3,144	
80,12	6,604	697,95	801,65	-3,146	
80,14	6,608	697,71	801,71	-3,148	
80,16	6,612	698,09	801,00	-3,150	
80,18	6,616	698,79	800,13	-3,152	
80,20	6,620	700,50	800,03	-3,154	
80,22	6,624	700,21	800,93	-3,156	
80,24	6,628	698,90	801,32	-3,158	
80,26	6,632	698,30	800,87	-3,160	
80,28	6,635	698,73	800,11	-3,162	
80,30	6,639	698,79	800,04	-3,165	
80,32	6,644	698,32	800,74	-3,167	
80,34	6,648	699,67	800,89	-3,169	
80,36	6,652	701,24	800,30	-3,171	
80,38	6,656	702,00	799,92	-3,173	
80,40	6,660	697,93	800,89	-3,175	
80,42	6,664	695,98	801,68	-3,177	
80,44	6,668	697,10	801,45	-3,179	
80,46	6,672	698,08	800,66	-3,180	
80,48	6,676	698,51	799,94	-3,179	
80,50	6,680	699,00	800,39	-3,180	
80,52	6,684	698,80	801,23	-3,182	
80,54	6,688	698,33	801,22	-3,184	
80,56	6,692	698,22	800,54	-3,187	
80,58	6,696	698,95	799,91	-3,189	
80,60	6,700	697,77	800,32	-3,191	
80,62	6,704	697,12	800,89	-3,193	
80,64	6,708	697,72	800,67	-3,195	
80,66	6,712	698,84	800,01	-3,197	
80,68	6,716	697,92	800,23	-3,200	
80,70	6,720	694,93	801,18	-3,205	
80,72	6,724	695,61	801,37	-3,208	
80,74	6,728	697,49	800,77	-3,211	
80,76	6,731	698,89	800,01	-3,213	
80,78	6,736	697,72	800,37	-3,215	
80,80	6,740	695,39	801,42	-3,217	
80,82	6,744	694,63	801,59	-3,220	
80,84	6,748	694,77	800,96	-3,222	
80,86	6,752	695,27	800,13	-3,224	
80,88	6,756	696,91	799,91	-3,226	
80,90	6,760	697,09	800,75	-3,228	
80,92	6,764	695,86	801,21	-3,230	
80,94	6,768	695,05	800,79	-3,232	
80,96	6,772	695,43	800,03	-3,234	
80,98	6,776	695,25	800,12	-3,236	
81,00	6,780	693,88	801,12	-3,239	
81,02	6,784	694,07	801,44	-3,241	
81,04	6,788	694,73	800,89	-3,243	
81,06	6,792	695,49	800,09	-3,245	
81,08	6,796	696,02	800,00	-3,247	
81,10	6,800	695,58	800,82	-3,249	
81,12	6,804	695,11	801,12	-3,251	
81,14	6,808	695,04	800,64	-3,253	
81,16	6,812	695,79	799,94	-3,256	
81,18	6,816	694,54	800,28	-3,258	
81,20	6,820	693,14	801,18	-3,260	
81,22	6,824	693,90	801,26	-3,262	
81,24	6,828	694,78	800,62	-3,264	
81,26	6,832	695,78	799,94	-3,266	
81,28	6,836	694,64	800,46	-3,268	
81,30	6,840	693,85	801,37	-3,270	
81,32	6,844	694,35	801,38	-3,272	
81,34	6,848	694,81	800,70	-3,274	
81,36	6,852	695,70	799,94	-3,276	
81,38	6,856	695,98	800,28	-3,279	
81,40	6,860	694,35	801,24	-3,281	
81,42	6,864	692,48	801,40	-3,283	
81,44	6,868	691,72	800,80	-3,285	
81,46	6,872	692,27	800,03	-3,287	
81,48	6,876	693,14	800,10	-3,289	
81,50	6,880	693,78	800,89	-3,291	
81,52	6,884	694,50	801,01	-3,293	
81,54	6,888	695,00	800,39	-3,295	
81,56	6,892	695,80	799,91	-3,297	
81,58	6,896	692,30	800,80	-3,300	
81,60	6,900	689,91	801,68	-3,302	
81,62	6,904	690,56	801,56	-3,304	
81,64	6,908	691,48	800,86	-3,306	
81,66	6,911	692,28	800,09	-3,308	
81,68	6,915	694,44	800,02	-3,310	
81,70	6,920	694,37	800,74	-3,312	
81,72	6,924	692,75	800,93	-3,314	
81,74	6,928	692,27	800,39	-3,316	
81,76	6,932	694,20	799,88	-3,318	
81,78	6,936	691,99	800,66	-3,321	
81,80	6,940	690,02	801,55	-3,323	
81,82	6,944	690,69	801,44	-3,325	
81,84	6,948	691,54	800,70	-3,327	
81,86	6,952	692,57	799,97	-3,329	
81,88	6,956	693,37	800,18	-3,331	
81,90	6,960	692,74	800,84	-3,333	
81,92	6,964	692,80	800,79	-3,335	
81,94	6,968	694,45	800,15	-3,337	
81,96	6,972	694,53	800,07	-3,339	
81,98	6,976	690,25	800,94	-3,341	
82,00	6,980	689,83	801,28	-3,344	
82,02	6,984	691,43	800,80	-3,346	
82,04	6,988	692,43	800,03	-3,347	
82,06	6,992	692,42	800,07	-3,350	
82,08	6,996	691,39	801,04	-3,352	
82,10	7,000	691,23	801,38	-3,354	
82,12	7,004	691,51	800,85	-3,356	
82,14	7,007	692,28	800,05	-3,358	
82,16	7,011	691,28	800,20	-3,360	
82,18	7,016	689,72	801,13	-3,362	
82,20	7,020	690,14	801,33	-3,364	
82,22	7,024	690,27	800,76	-3,366	
82,24	7,028	690,06	800,01	-3,368	
82,26	7,032	689,03	800,20	-3,370	
82,28	7,036	687,80	801,14	-3,372	
82,30	7,040	687,79	801,35	-3,374	
82,32	7,044	688,23	800,78	-3,376	
82,34	7,048	689,03	800,00	-3,378	
82,36	7,052	688,94	800,15	-3,380	
82,38	7,056	687,86	801,17	-3,383	
82,40	7,060	687,72	801,49	-3,385	
82,42	7,064	688,01	800,94	-3,387	
82,44	7,068	688,61	800,13	-3,389	
82,46	7,072	689,10	799,95	-3,391	
82,48	7,076	688,74	800,60	-3,393	
82,50	7,080	689,20	800,78	-3,395	
82,52	7,084	690,85	800,24	-3,397	
82,54	7,088	691,53	799,97	-3,399	
82,56	7,092	686,76	800,88	-3,401	
82,58	7,096	684,59	801,47	-3,403	
82,60	7,100	686,39	801,14	-3,405	
82,62	7,104	687,72	800,38	-3,407	
82,64	7,108	687,90	799,92	-3,409	
82,66	7,112	687,63	800,65	-3,411	
82,68	7,116	687,69	801,27	-3,413	
82,70	7,120	687,96	801,00	-3,415	
82,72	7,124	688,44	800,25	-3,417	
82,74	7,128	688,42	799,97	-3,419	
82,76	7,132	686,44	800,80	-3,421	
82,78	7,136	686,63	801,26	-3,423	
82,80	7,140	687,64	800,83	-3,425	
82,82	7,144	688,66	800,06	-3,427	
82,84	7,148	688,17	800,16	-3,430	
82,86	7,152	686,27	801,13	-3,432	
82,88	7,156	686,73	801,41	-3,434	
82,90	7,160	686,91	800,82	-3,435	
82,92	7,164	686,51	800,05	-3,437	
82,94	7,168	684,73	800,40	-3,439	
82,96	7,172	683,65	801,27	-3,441	
82,98	7,176	684,05	801,28	-3,444	
83,00	7,180	684,60	800,59	-3,445	
83,02	7,184	685,58	799,94	-3,447	
83,04	7,188	684,43	800,52	-3,450	
83,06	7,192	683,68	801,35	-3,452	
83,08	7,196	684,19	801,25	-3,454	
83,10	7,200	684,73	800,52	-3,456	
83,12	7,203	685,70	799,90	-3,458	
83,14	7,208	684,45	800,44	-3,460	
83,16	7,212	683,67	801,14	-3,462	
83,18	7,216	684,17	800,95	-3,464	
83,20	7,220	684,90	800,22	-3,466	
83,22	7,224	685,00	799,96	-3,468	
83,24	7,228	682,43	800,93	-3,470	
83,26	7,232	682,20	801,55	-3,472	
83,28	7,236	682,32	801,20	-3,474	
83,30	7,240	681,87	800,43	-3,476	
83,32	7,244	682,82	799,87	-3,478	
83,34	7,248	683,61	800,51	-3,480	
83,36	7,252	682,72	801,27	-3,482	
83,38	7,256	682,57	801,12	-3,484	
83,40	7,260	683,86	800,38	-3,486	
83,42	7,264	685,21	799,92	-3,488	
83,44	7,268	683,22	800,85	-3,491	
83,46	7,272	681,46	801,71	-3,493	
83,48	7,276	681,15	801,51	-3,495	
83,50	7,280	681,37	800,71	-3,497	
83,52	7,284	682,22	799,96	-3,499	
83,54	7,288	683,05	800,16	-3,501	
83,56	7,292	682,63	800,76	-3,503	
83,58	7,296	682,09	800,62	-3,505	
83,60	7,300	683,75	800,01	-3,507	
83,62	7,304	683,12	800,10	-3,509	
83,64	7,308	679,44	800,74	-3,511	
83,66	7,312	680,68	800,74	-3,513	
83,68	7,316	683,93	800,11	-3,515	
83,70	7,320	684,70	800,06	-3,517	
83,72	7,324	679,70	801,28	-3,519	
83,74	7,328	678,28	801,96	-3,521	
83,76	7,332	679,28	801,60	-3,523	
83,78	7,336	679,05	800,83	-3,525	
83,80	7,340	679,72	800,05	-3,527	
83,82	7,344	683,76	799,92	-3,529	
83,84	7,348	683,98	800,49	-3,531	
83,86	7,352	682,25	800,57	-3,533	
83,88	7,356	681,97	800,06	-3,535	
83,90	7,360	681,07	800,02	-3,536	
83,92	7,364	677,05	800,59	-3,538	
83,94	7,368	678,25	800,62	-3,541	
83,96	7,372	682,83	800,06	-3,543	
83,98	7,376	684,16	800,04	-3,545	
84,00	7,380	678,89	801,02	-3,547	
84,02	7,384	677,73	801,45	-3,549	
84,04	7,388	680,00	800,97	-3,551	
84,06	7,391	681,40	800,18	-3,553	
84,08	7,395	680,93	799,88	-3,555	
84,10	7,400	680,11	800,52	-3,557	
84,12	7,404	680,68	800,84	-3,559	
84,14	7,408	681,43	800,40	-3,561	
84,16	7,411	682,28	799,91	-3,563	
84,18	7,416	679,25	800,62	-3,565	
84,20	7,420	677,30	801,43	-3,567	
84,22	7,424	679,33	801,28	-3,569	
84,24	7,428	680,95	800,55	-3,571	
84,26	7,432	680,86	799,90	-3,573	
84,28	7,436	679,46	800,37	-3,575	
84,30	7,440	678,49	801,07	-3,577	
84,32	7,444	678,24	800,94	-3,579	
84,34	7,448	678,45	800,23	-3,581	
84,36	7,452	678,69	800,00	-3,583	
84,38	7,456	676,62	801,07	-3,585	
84,40	7,460	676,41	801,77	-3,587	
84,42	7,464	677,22	801,44	-3,589	
84,44	7,468	676,49	800,63	-3,591	
84,46	7,472	676,58	799,91	-3,593	
84,48	7,476	678,09	800,28	-3,595	
84,50	7,480	677,85	801,07	-3,597	
84,52	7,484	677,49	801,06	-3,599	
84,54	7,488	677,91	800,37	-3,601	
84,56	7,491	678,52	799,94	-3,603	
84,58	7,496	675,70	800,85	-3,605	
84,60	7,500	673,86	801,64	-3,607	
84,62	7,504	674,16	801,43	-3,609	
84,64	7,508	674,70	800,63	-3,611	
84,66	7,512	675,57	799,92	-3,613	
84,68	7,516	675,65	800,31	-3,615	
84,70	7,520	675,14	801,00	-3,617	
84,72	7,524	675,11	800,86	-3,619	
84,74	7,528	676,92	800,16	-3,621	
84,76	7,532	677,66	800,00	-3,623	
84,78	7,536	674,09	800,83	-3,625	
84,80	7,540	673,58	801,21	-3,627	
84,82	7,544	674,69	800,75	-3,629	
84,84	7,548	675,61	799,99	-3,631	
84,86	7,552	675,08	800,32	-3,633	
84,88	7,556	673,59	801,52	-3,635	
84,90	7,560	673,57	801,86	-3,637	
84,92	7,564	672,87	801,28	-3,639	
84,94	7,568	671,95	800,42	-3,640	
84,96	7,572	673,27	799,88	-3,642	
84,98	7,576	674,60	800,54	-3,645	
85,00	7,580	673,11	801,19	-3,647	
85,02	7,584	672,00	800,94	-3,649	
85,04	7,587	673,45	800,18	-3,650	
85,06	7,591	674,36	800,05	-3,653	
85,08	7,596	671,74	800,98	-3,655	
85,10	7,600	672,09	801,41	-3,657	
85,12	7,604	673,05	800,92	-3,658	
85,14	7,608	672,89	800,09	-3,660	
85,16	7,612	672,25	800,12	-3,662	
85,18	7,616	671,06	801,15	-3,664	
85,20	7,620	670,93	801,52	-3,667	
85,22	7,624	671,26	801,02	-3,668	
85,24	7,628	671,70	800,22	-3,670	
85,26	7,632	672,46	799,92	-3,672	
85,28	7,636	672,12	800,64	-3,674	
85,30	7,640	671,53	801,02	-3,676	
85,32	7,644	671,34	800,57	-3,678	
85,34	7,648	672,11	799,92	-3,680	
85,36	7,652	670,05	800,37	-3,682	
85,38	7,656	668,01	801,24	-3,684	
85,40	7,660	669,44	801,25	-3,686	
85,42	7,664	670,98	800,59	-3,688	
85,44	7,668	672,14	799,92	-3,690	
85,46	7,672	671,05	800,40	-3,692	
85,48	7,676	670,24	801,27	-3,694	
85,50	7,680	670,81	801,26	-3,696	
85,52	7,684	671,37	800,58	-3,698	
85,54	7,687	672,31	799,90	-3,700	
85,56	7,692	670,92	800,50	-3,702	
85,58	7,696	668,67	801,47	-3,704	
85,60	7,700	667,92	801,44	-3,706	
85,62	7,704	668,03	800,73	-3,708	
85,64	7,708	668,83	799,99	-3,710	
85,66	7,712	669,01	800,34	-3,712	
85,68	7,716	668,41	801,23	-3,714	
85,70	7,720	668,04	801,33	-3,716	
85,72	7,724	667,98	800,72	-3,717	
85,74	7,728	668,67	799,96	-3,719	
85,76	7,732	669,14	800,14	-3,721	
85,78	7,736	668,40	801,10	-3,723	
85,80	7,740	667,93	801,33	-3,725	
85,82	7,744	667,92	800,75	-3,727	
85,84	7,748	668,65	800,00	-3,729	
85,86	7,752	667,77	800,29	-3,731	
85,88	7,756	666,90	801,18	-3,733	
85,90	7,760	667,43	801,25	-3,735	
85,92	7,764	667,95	800,59	-3,737	
85,94	7,768	668,85	799,88	-3,739	
85,96	7,772	667,86	800,34	-3,741	
85,98	7,776	666,87	801,32	-3,743	
86,00	7,780	667,08	801,41	-3,745	
86,02	7,784	666,31	800,74	-3,746	
86,04	7,788	665,92	799,99	-3,748	
86,06	7,792	666,01	800,19	-3,750	
86,08	7,796	666,75	800,89	-3,752	
86,10	7,800	667,67	800,87	-3,754	
86,12	7,804	668,46	800,18	-3,756	
86,14	7,808	668,18	800,11	-3,758	
86,16	7,812	663,57	801,48	-3,760	
86,18	7,816	662,16	802,32	-3,762	
86,20	7,820	662,74	802,03	-3,764	
86,22	7,824	662,25	801,25	-3,766	
86,24	7,828	662,52	800,40	-3,768	
86,26	7,832	667,51	799,92	-3,769	
86,28	7,836	669,06	800,44	-3,771	
86,30	7,840	666,64	800,85	-3,773	
86,32	7,844	665,20	800,50	-3,775	
86,34	7,848	666,92	799,91	-3,777	
86,36	7,852	665,34	800,29	-3,779	
86,38	7,856	663,07	801,00	-3,781	
86,40	7,860	665,21	800,90	-3,783	
86,42	7,863	667,88	800,20	-3,785	
86,44	7,867	668,21	800,03	-3,787	
86,46	7,872	664,73	800,94	-3,789	
86,48	7,876	664,15	801,39	-3,791	
86,50	7,880	664,91	800,93	-3,793	
86,52	7,884	665,39	800,13	-3,795	
86,54	7,888	665,42	800,08	-3,797	
86,56	7,892	664,38	801,05	-3,799	
86,58	7,896	664,20	801,43	-3,800	
86,60	7,900	664,32	800,91	-3,802	
86,62	7,904	663,65	800,09	-3,804	
86,64	7,908	662,52	800,12	-3,806	
86,66	7,912	661,08	801,25	-3,808	
86,68	7,916	660,91	801,72	-3,810	
86,70	7,920	661,28	801,21	-3,812	
86,72	7,924	661,66	800,35	-3,814	
86,74	7,928	662,70	799,94	-3,816	
86,76	7,932	662,82	800,71	-3,818	
86,78	7,936	661,97	801,23	-3,820	
86,80	7,940	661,40	800,86	-3,822	
86,82	7,944	662,64	800,08	-3,823	
86,84	7,948	662,93	800,23	-3,825	
86,86	7,952	660,24	801,45	-3,827	
86,88	7,956	659,98	801,92	-3,829	
86,90	7,960	660,67	801,37	-3,831	
86,92	7,964	659,76	800,47	-3,833	
86,94	7,967	660,10	799,91	-3,835	
86,96	7,972	661,84	800,53	-3,837	
86,98	7,976	661,96	801,10	-3,839	
87,00	7,980	661,47	800,76	-3,841	
87,02	7,984	661,94	800,03	-3,842	
87,04	7,988	660,13	800,31	-3,844	
87,06	7,992	657,00	801,20	-3,846	
87,08	7,996	658,42	801,27	-3,848	
87,10	8,000	660,59	800,57	-3,850	
87,12	8,004	661,82	799,94	-3,852	
87,14	8,008	658,67	800,54	-3,854	
87,16	8,012	657,15	801,24	-3,856	
87,18	8,016	658,59	801,01	-3,858	
87,20	8,020	660,54	800,21	-3,859	
87,22	8,024	660,71	800,14	-3,861	
87,24	8,028	657,08	801,17	-3,863	
87,26	8,032	656,34	801,59	-3,865	
87,28	8,036	657,28	801,05	-3,867	
87,30	8,040	658,36	800,18	-3,869	
87,32	8,044	658,64	800,23	-3,871	
87,34	8,048	657,37	801,45	-3,873	
87,36	8,052	655,84	801,94	-3,874	
87,38	8,056	654,87	801,41	-3,876	
87,40	8,060	654,66	800,54	-3,878	
87,42	8,063	656,27	799,88	-3,880	
87,44	8,068	658,68	800,35	-3,882	
87,46	8,072	658,70	801,00	-3,884	
87,48	8,076	658,14	800,79	-3,886	
87,50	8,080	658,66	800,06	-3,887	
87,52	8,084	657,01	800,39	-3,889	
87,54	8,088	652,82	801,67	-3,891	
87,56	8,092	652,64	802,08	-3,893	
87,58	8,096	654,03	801,52	-3,895	
87,60	8,100	654,47	800,66	-3,897	
87,62	8,104	655,68	799,92	-3,899	
87,64	8,108	658,08	800,44	-3,901	
87,66	8,112	656,95	801,44	-3,903	
87,68	8,116	655,16	801,46	-3,905	
87,70	8,120	654,60	800,71	-3,906	
87,72	8,124	655,41	799,98	-3,908	
87,74	8,128	655,00	800,33	-3,910	
87,76	8,132	655,12	800,93	-3,912	
87,78	8,136	656,68	800,75	-3,914	
87,80	8,140	658,25	800,07	-3,916	
87,82	8,144	657,97	800,06	-3,918	
87,84	8,148	654,02	801,21	-3,919	
87,86	8,152	653,19	801,71	-3,921	
87,88	8,156	654,13	801,20	-3,923	
87,90	8,160	654,87	800,33	-3,925	
87,92	8,164	655,74	799,97	-3,927	
87,94	8,168	655,32	800,80	-3,929	
87,96	8,172	654,70	801,34	-3,931	
87,98	8,176	654,32	800,98	-3,932	
88,00	8,180	653,33	800,21	-3,934	
88,02	8,184	652,51	799,94	-3,936	
88,04	8,188	651,88	800,75	-3,938	
88,06	8,192	653,08	801,18	-3,940	
88,08	8,196	654,21	800,71	-3,942	
88,10	8,200	655,29	799,96	-3,943	
88,12	8,204	653,49	800,37	-3,945	
88,14	8,208	650,62	801,40	-3,947	
88,16	8,212	650,90	801,54	-3,949	
88,18	8,216	651,40	800,88	-3,951	
88,20	8,220	651,97	800,05	-3,953	
88,22	8,224	652,30	800,22	-3,955	
88,24	8,228	651,54	801,18	-3,956	
88,26	8,232	651,08	801,39	-3,958	
88,28	8,236	651,11	800,81	-3,960	
88,30	8,240	651,85	800,02	-3,962	
88,32	8,244	651,69	800,33	-3,964	
88,34	8,248	650,56	801,56	-3,966	
88,36	8,252	649,26	801,92	-3,968	
88,38	8,256	648,34	801,29	-3,969	
88,40	8,260	648,15	800,37	-3,971	
88,42	8,264	649,80	799,97	-3,973	
88,44	8,268	650,84	800,83	-3,975	
88,46	8,272	649,50	801,43	-3,977	
88,48	8,276	648,20	801,07	-3,979	
88,50	8,280	648,08	800,25	-3,980	
88,52	8,284	648,41	800,02	-3,982	
88,54	8,288	646,86	801,14	-3,984	
88,56	8,292	646,79	801,84	-3,986	
88,58	8,296	647,54	801,48	-3,988	
88,60	8,300	647,89	800,63	-3,989	
88,62	8,304	649,14	799,95	-3,991	
88,64	8,308	650,25	800,54	-3,993	
88,66	8,312	649,28	801,45	-3,995	
88,68	8,316	648,16	801,41	-3,997	
88,70	8,320	647,83	800,70	-3,999	
88,72	8,324	648,48	799,96	-4,000	
88,74	8,328	649,26	800,27	-4,002	
88,76	8,332	648,89	801,14	-4,004	
88,78	8,336	648,17	801,20	-4,006	
88,80	8,340	647,94	800,52	-4,008	
88,82	8,343	648,70	799,91	-4,009	
88,84	8,348	646,83	800,71	-4,011	
88,86	8,352	645,80	801,77	-4,013	
88,88	8,356	646,55	801,77	-4,015	
88,90	8,360	646,06	801,04	-4,017	
88,92	8,364	645,50	800,16	-4,018	
88,94	8,368	647,63	800,05	-4,020	
88,96	8,372	648,74	800,91	-4,022	
88,98	8,376	648,28	801,23	-4,024	
89,00	8,380	647,90	800,70	-4,026	
89,02	8,384	648,53	799,97	-4,027	
89,04	8,388	646,76	800,41	-4,029	
89,06	8,392	644,48	801,41	-4,031	
89,08	8,396	644,66	801,53	-4,033	
89,10	8,400	644,86	800,87	-4,035	
89,12	8,404	645,31	800,04	-4,036	
89,14	8,408	645,44	800,32	-4,038	
89,16	8,412	644,75	801,34	-4,040	
89,18	8,416	644,43	801,51	-4,042	
89,20	8,420	644,52	800,88	-4,044	
89,22	8,424	645,27	800,06	-4,045	
89,24	8,428	645,08	800,29	-4,047	
89,26	8,432	644,10	801,40	-4,049	
89,28	8,436	644,07	801,70	-4,051	
89,30	8,440	643,57	801,11	-4,053	
89,32	8,444	642,60	800,21	-4,055	
89,34	8,448	642,83	800,12	-4,056	
89,36	8,452	642,44	801,28	-4,058	
89,38	8,456	641,64	801,88	-4,060	
89,40	8,460	641,23	801,45	-4,062	
89,42	8,464	641,20	800,61	-4,063	
89,44	8,468	642,60	799,95	-4,065	
89,46	8,472	644,20	800,52	-4,067	
89,48	8,476	643,17	801,31	-4,069	
89,50	8,480	642,45	801,18	-4,071	
89,52	8,484	643,58	800,43	-4,072	
89,54	8,488	645,01	799,96	-4,074	
89,56	8,492	643,09	800,90	-4,076	
89,58	8,496	641,27	801,75	-4,078	
89,60	8,500	640,90	801,54	-4,080	
89,62	8,504	641,08	800,73	-4,081	
89,64	8,508	642,14	799,98	-4,083	
89,66	8,512	642,77	800,38	-4,085	
89,68	8,516	642,09	801,19	-4,087	
89,70	8,520	641,42	801,16	-4,088	
89,72	8,524	641,30	800,49	-4,090	
89,74	8,527	642,01	799,94	-4,092	
89,76	8,532	640,68	800,68	-4,094	
89,78	8,536	639,94	801,44	-4,095	
89,80	8,540	640,53	801,23	-4,097	
89,82	8,544	641,18	800,45	-4,099	
89,84	8,548	641,87	799,92	-4,101	
89,86	8,552	640,46	800,59	-4,102	
89,88	8,556	640,16	801,24	-4,104	
89,90	8,560	640,76	800,98	-4,106	
89,92	8,564	641,47	800,22	-4,108	
89,94	8,568	641,66	800,06	-4,109	
89,96	8,572	639,50	801,27	-4,111	
89,98	8,576	638,81	802,02	-4,113	
90,00	8,580	638,38	801,67	-4,115	
90,02	8,584	638,06	800,84	-4,116	
90,04	8,588	638,94	800,05	-4,118	
90,06	8,592	641,48	800,21	-4,120	
90,08	8,596	640,74	801,07	-4,122	
90,10	8,600	638,68	801,19	-4,124	
90,12	8,604	638,56	800,57	-4,125	
90,14	8,608	640,85	799,94	-4,127	
90,16	8,612	639,35	800,73	-4,129	
90,18	8,616	637,00	801,84	-4,131	
90,20	8,620	637,04	801,87	-4,132	
90,22	8,624	636,89	801,11	-4,134	
90,24	8,628	635,96	800,20	-4,136	
90,26	8,631	637,76	800,09	-4,138	
90,28	8,636	637,99	801,17	-4,139	
90,30	8,640	635,95	801,72	-4,141	
90,32	8,644	634,66	801,30	-4,143	
90,34	8,648	634,53	800,45	-4,144	
90,36	8,652	635,99	799,89	-4,146	
90,38	8,656	636,91	800,65	-4,148	
90,40	8,660	635,67	801,42	-4,150	
90,42	8,664	634,59	801,21	-4,151	
90,44	8,668	634,41	800,45	-4,153	
90,46	8,672	635,55	799,87	-4,155	
90,48	8,676	635,45	800,69	-4,157	
90,50	8,680	634,63	801,69	-4,159	
90,52	8,684	634,30	801,63	-4,160	
90,54	8,688	634,38	800,89	-4,162	
90,56	8,692	635,10	800,06	-4,164	
90,58	8,696	636,64	800,17	-4,165	
90,60	8,700	636,36	801,11	-4,167	
90,62	8,704	635,11	801,35	-4,169	
90,64	8,708	634,58	800,77	-4,171	
90,66	8,712	635,20	799,99	-4,172	
90,68	8,716	634,47	800,30	-4,174	
90,70	8,720	633,41	801,38	-4,176	
90,72	8,724	633,79	801,60	-4,178	
90,74	8,728	634,28	800,98	-4,179	
90,76	8,732	634,21	800,13	-4,181	
90,78	8,736	633,38	800,20	-4,183	
90,80	8,740	631,76	801,34	-4,184	
90,82	8,744	630,96	801,79	-4,186	
90,84	8,748	630,94	801,29	-4,188	
90,86	8,752	631,19	800,44	-4,189	
90,88	8,756	632,55	799,96	-4,191	
90,90	8,760	634,23	800,72	-4,193	
90,92	8,764	634,75	801,40	-4,195	
90,94	8,768	634,68	801,14	-4,196	
90,96	8,772	634,74	800,36	-4,198	
90,98	8,776	635,13	799,99	-4,200	
91,00	8,780	633,44	800,91	-4,201	
91,02	8,784	631,97	801,59	-4,203	
91,04	8,788	631,31	801,28	-4,205	
91,06	8,792	631,27	800,47	-4,206	
91,08	8,796	632,26	799,90	-4,208	
91,10	8,800	632,10	800,66	-4,210	
91,12	8,804	631,35	801,52	-4,212	
91,14	8,808	631,08	801,40	-4,213	
91,16	8,812	631,09	800,66	-4,215	
91,18	8,815	631,85	799,94	-4,217	
91,20	8,820	632,08	800,34	-4,218	
91,22	8,824	631,67	801,16	-4,220	
91,24	8,828	631,34	801,15	-4,222	
91,26	8,832	631,26	800,48	-4,223	
91,28	8,836	632,11	799,89	-4,225	
91,30	8,840	630,89	800,72	-4,227	
91,32	8,844	630,00	801,79	-4,229	
91,34	8,848	629,82	801,78	-4,230	
91,36	8,852	628,85	801,04	-4,232	
91,38	8,856	628,50	800,17	-4,233	
91,40	8,860	630,81	800,06	-4,235	
91,42	8,864	631,35	800,95	-4,237	
91,44	8,868	630,13	801,30	-4,239	
91,46	8,872	630,28	800,78	-4,241	
91,48	8,876	631,60	800,01	-4,242	
91,50	8,880	630,40	800,42	-4,244	
91,52	8,884	627,91	801,60	-4,246	
91,54	8,888	627,39	801,88	-4,247	
91,56	8,892	627,65	801,28	-4,249	
91,58	8,896	627,12	800,43	-4,250	
91,60	8,900	628,22	799,89	-4,252	
91,62	8,904	630,02	800,71	-4,254	
91,64	8,908	629,25	801,59	-4,256	
91,66	8,912	628,20	801,46	-4,257	
91,68	8,916	627,89	800,70	-4,259	
91,70	8,920	628,58	799,95	-4,260	
91,72	8,924	628,75	800,40	-4,262	
91,74	8,928	627,45	801,46	-4,264	
91,76	8,932	625,61	801,59	-4,266	
91,78	8,936	624,73	800,95	-4,267	
91,80	8,940	624,95	800,14	-4,269	
91,82	8,944	627,01	799,99	-4,270	
91,84	8,948	628,02	800,82	-4,272	
91,86	8,952	628,05	801,18	-4,274	
91,88	8,956	627,99	800,71	-4,276	
91,90	8,960	628,60	799,99	-4,277	
91,92	8,964	627,64	800,26	-4,279	
91,94	8,968	626,08	801,22	-4,281	
91,96	8,972	626,69	801,38	-4,282	
91,98	8,976	626,89	800,75	-4,284	
92,00	8,980	626,42	799,99	-4,285	
92,02	8,984	625,21	800,37	-4,287	
92,04	8,988	624,11	801,42	-4,289	
92,06	8,992	624,10	801,59	-4,291	
92,08	8,996	624,38	800,95	-4,292	
92,10	8,999	625,17	800,10	-4,294	
92,12	9,003	625,68	800,19	-4,295	
92,14	9,008	625,00	801,10	-4,297	
92,16	9,012	624,50	801,30	-4,299	
92,18	9,016	624,48	800,70	-4,300	
92,20	9,020	625,23	799,96	-4,302	
92,22	9,024	624,36	800,39	-4,304	
92,24	9,028	623,31	801,51	-4,306	
92,26	9,032	623,51	801,72	-4,307	
92,28	9,036	622,79	801,12	-4,309	
92,30	9,040	621,96	800,29	-4,310	
92,32	9,044	623,38	799,96	-4,312	
92,34	9,048	624,55	800,68	-4,314	
92,36	9,052	624,06	801,10	-4,315	
92,38	9,056	624,00	800,68	-4,317	
92,40	9,060	624,99	799,97	-4,318	
92,42	9,064	623,43	800,32	-4,320	
92,44	9,068	620,31	801,34	-4,322	
92,46	9,072	620,04	801,50	-4,324	
92,48	9,076	620,82	800,84	-4,325	
92,50	9,080	621,79	800,01	-4,327	
92,52	9,084	622,19	800,24	-4,328	
92,54	9,088	621,45	801,37	-4,330	
92,56	9,092	621,00	801,70	-4,332	
92,58	9,096	621,09	801,10	-4,333	
92,60	9,099	621,61	800,21	-4,335	
92,62	9,103	621,83	800,16	-4,336	
92,64	9,108	620,12	801,34	-4,338	
92,66	9,112	618,43	801,88	-4,340	
92,68	9,116	617,78	801,41	-4,342	
92,70	9,120	617,81	800,54	-4,343	
92,72	9,124	619,13	800,00	-4,345	
92,74	9,128	620,13	800,83	-4,346	
92,76	9,132	619,11	801,62	-4,348	
92,78	9,136	618,06	801,39	-4,350	
92,80	9,140	617,81	800,59	-4,351	
92,82	9,144	618,84	799,92	-4,353	
92,84	9,148	619,44	800,49	-4,354	
92,86	9,152	618,80	801,39	-4,356	
92,88	9,156	618,10	801,35	-4,358	
92,90	9,160	617,89	800,63	-4,359	
92,92	9,164	618,63	799,92	-4,361	
92,94	9,168	618,13	800,45	-4,362	
92,96	9,172	617,39	801,41	-4,364	
92,98	9,176	617,51	801,43	-4,366	
93,00	9,180	617,79	800,70	-4,367	
93,02	9,184	618,61	799,98	-4,369	
93,04	9,188	617,49	800,57	-4,370	
93,06	9,192	616,43	801,49	-4,372	
93,08	9,196	615,69	801,40	-4,374	
93,10	9,200	614,97	800,61	-4,375	
93,12	9,203	615,38	799,93	-4,377	
93,14	9,208	614,65	800,60	-4,378	
93,16	9,212	613,98	801,52	-4,380	
93,18	9,216	614,15	801,39	-4,382	
93,20	9,220	614,49	800,54	-4,383	
93,22	9,224	615,11	799,97	-4,385	
93,24	9,228	613,74	800,76	-4,386	
93,26	9,232	613,45	801,55	-4,388	
93,28	9,236	614,07	801,33	-4,390	
93,30	9,240	614,55	800,53	-4,391	
93,32	9,244	615,36	799,94	-4,393	
93,34	9,248	614,35	800,65	-4,394	
93,36	9,252	612,53	801,46	-4,396	
93,38	9,256	611,44	801,32	-4,398	
93,40	9,260	611,12	800,59	-4,399	
93,42	9,264	612,04	799,92	-4,401	
93,44	9,268	612,57	800,48	-4,402	
93,46	9,272	611,98	801,37	-4,404	
93,48	9,276	611,29	801,35	-4,406	
93,50	9,280	611,07	800,64	-4,407	
93,52	9,284	611,82	799,92	-4,409	
93,54	9,287	611,94	800,48	-4,410	
93,56	9,292	611,46	801,57	-4,412	
93,58	9,296	611,15	801,61	-4,414	
93,60	9,300	611,03	800,83	-4,415	
93,62	9,304	611,69	799,99	-4,416	
93,64	9,308	612,06	800,32	-4,418	
93,66	9,312	611,54	801,37	-4,420	
93,68	9,316	611,16	801,55	-4,421	
93,70	9,320	611,07	800,91	-4,423	
93,72	9,324	610,85	800,08	-4,424	
93,74	9,328	610,51	800,11	-4,426	
93,76	9,332	609,12	801,17	-4,428	
93,78	9,336	607,97	801,59	-4,429	
93,80	9,340	607,60	801,10	-4,431	
93,82	9,344	607,80	800,28	-4,432	
93,84	9,348	609,17	799,99	-4,434	
93,86	9,352	609,13	801,01	-4,435	
93,88	9,356	608,18	801,72	-4,437	
93,90	9,360	607,64	801,39	-4,439	
93,92	9,364	607,67	800,56	-4,440	
93,94	9,368	608,90	799,91	-4,442	
93,96	9,372	609,42	800,57	-4,443	
93,98	9,376	608,34	801,49	-4,445	
94,00	9,380	607,68	801,42	-4,446	
94,02	9,384	607,65	800,68	-4,448	
94,04	9,387	608,51	799,94	-4,449	
94,06	9,391	607,88	800,53	-4,451	
94,08	9,396	605,88	801,63	-4,453	
94,10	9,400	604,60	801,73	-4,454	
94,12	9,404	604,29	801,06	-4,455	
94,14	9,408	604,59	800,21	-4,457	
94,16	9,412	606,76	799,94	-4,458	
94,18	9,416	607,15	800,83	-4,460	
94,20	9,420	605,65	801,36	-4,462	
94,22	9,424	605,29	800,96	-4,463	
94,24	9,428	606,61	800,14	-4,465	
94,26	9,432	607,03	800,11	-4,466	
94,28	9,436	604,30	801,31	-4,468	
94,30	9,440	603,38	801,89	-4,469	
94,32	9,444	603,65	801,42	-4,471	
94,34	9,448	602,75	800,54	-4,472	
94,36	9,452	602,91	799,90	-4,474	
94,38	9,456	604,58	800,56	-4,475	
94,40	9,460	603,69	801,44	-4,477	
94,42	9,464	603,11	801,34	-4,479	
94,44	9,468	603,66	800,58	-4,480	
94,46	9,471	604,89	799,93	-4,482	
94,48	9,475	604,31	800,74	-4,483	
94,50	9,480	602,97	801,82	-4,485	
94,52	9,484	601,61	801,82	-4,486	
94,54	9,488	600,97	801,08	-4,488	
94,56	9,492	601,25	800,21	-4,489	
94,58	9,496	603,71	800,04	-4,491	
94,60	9,500	604,60	800,79	-4,492	
94,62	9,504	603,93	801,01	-4,494	
94,64	9,508	603,99	800,42	-4,495	
94,66	9,512	604,84	799,93	-4,497	
94,68	9,516	601,36	800,86	-4,498	
94,70	9,520	598,76	801,81	-4,500	
94,72	9,524	599,60	801,69	-4,501	
94,74	9,528	600,05	800,93	-4,503	
94,76	9,532	599,64	800,08	-4,504	
94,78	9,536	600,64	800,32	-4,506	
94,80	9,540	599,98	801,53	-4,507	
94,82	9,544	598,35	801,91	-4,509	
94,84	9,548	597,58	801,33	-4,510	
94,86	9,552	597,54	800,46	-4,512	
94,88	9,556	599,55	799,88	-4,513	
94,90	9,560	601,51	800,62	-4,515	
94,92	9,564	599,85	801,56	-4,516	
94,94	9,568	598,00	801,52	-4,518	
94,96	9,572	597,49	800,78	-4,519	
94,98	9,575	598,44	800,00	-4,520	
95,00	9,580	599,26	800,31	-4,522	
95,02	9,584	598,59	801,13	-4,524	
95,04	9,588	597,80	801,14	-4,525	
95,06	9,592	597,60	800,48	-4,526	
95,08	9,596	598,38	799,89	-4,528	
95,10	9,600	597,14	800,63	-4,529	
95,12	9,604	596,21	801,59	-4,531	
95,14	9,608	596,78	801,51	-4,533	
95,16	9,612	597,40	800,76	-4,534	
95,18	9,616	598,26	799,98	-4,535	
95,20	9,620	598,43	800,30	-4,537	
95,22	9,624	597,84	801,26	-4,539	
95,24	9,628	597,50	801,39	-4,540	
95,26	9,632	597,50	800,74	-4,542	
95,28	9,636	598,24	799,98	-4,543	
95,30	9,640	597,20	800,48	-4,545	
95,32	9,644	594,87	801,68	-4,546	
95,34	9,648	593,99	801,93	-4,548	
95,36	9,652	594,08	801,29	-4,549	
95,38	9,656	594,47	800,38	-4,550	
95,40	9,660	596,21	800,02	-4,552	
95,42	9,664	596,31	800,97	-4,553	
95,44	9,668	594,95	801,58	-4,555	
95,46	9,672	594,18	801,17	-4,556	
95,48	9,675	594,40	800,29	-4,558	
95,50	9,679	594,81	800,07	-4,559	
95,52	9,684	592,52	801,34	-4,561	
95,54	9,688	590,87	802,22	-4,563	
95,56	9,692	590,63	801,95	-4,564	
95,58	9,696	590,63	801,14	-4,565	
95,60	9,700	590,25	800,30	-4,567	
95,62	9,704	594,83	799,93	-4,568	
95,64	9,708	596,72	800,70	-4,570	
95,66	9,712	594,97	801,25	-4,571	
95,68	9,716	594,08	800,95	-4,573	
95,70	9,720	594,45	800,20	-4,574	
95,72	9,724	594,90	800,04	-4,576	
95,74	9,728	593,31	801,16	-4,577	
95,76	9,732	592,92	801,79	-4,579	
95,78	9,736	592,30	801,36	-4,580	
95,80	9,740	591,39	800,50	-4,581	
95,82	9,744	592,20	799,88	-4,583	
95,84	9,748	594,00	800,51	-4,585	
95,86	9,752	594,44	801,35	-4,586	
95,88	9,756	594,24	801,24	-4,588	
95,90	9,759	594,24	800,47	-4,589	
95,92	9,763	594,92	799,92	-4,590	
95,94	9,767	592,93	800,83	-4,592	
95,96	9,772	591,06	801,85	-4,593	
95,98	9,776	590,65	801,80	-4,595	
96,00	9,780	590,78	801,08	-4,596	
96,02	9,784	590,81	800,22	-4,598	
96,04	9,787	592,89	800,11	-4,599	
96,06	9,792	593,22	801,23	-4,601	
96,08	9,796	591,12	801,81	-4,602	
96,10	9,800	590,34	801,38	-4,604	
96,12	9,804	590,78	800,49	-4,605	
96,14	9,808	591,89	800,03	-4,607	
96,16	9,812	591,45	801,03	-4,608	
96,18	9,816	589,65	801,90	-4,609	
96,20	9,820	588,12	801,70	-4,611	
96,22	9,824	587,64	800,91	-4,612	
96,24	9,828	588,48	800,07	-4,613	
96,26	9,832	591,82	800,14	-4,615	
96,28	9,836	592,89	801,12	-4,616	
96,30	9,840	591,68	801,43	-4,618	
96,32	9,844	590,93	800,88	-4,619	
96,34	9,848	591,39	800,07	-4,621	
96,36	9,852	591,50	800,19	-4,622	
96,38	9,856	590,61	801,26	-4,624	
96,40	9,860	589,84	801,54	-4,625	
96,42	9,864	588,62	800,92	-4,626	
96,44	9,867	588,15	800,09	-4,628	
96,46	9,871	588,87	799,95	-4,629	
96,48	9,876	589,02	800,77	-4,631	
96,50	9,880	589,59	801,13	-4,632	
96,52	9,884	590,48	800,65	-4,634	
96,54	9,888	591,58	799,96	-4,635	
96,56	9,892	589,49	800,49	-4,636	
96,58	9,896	587,09	801,55	-4,638	
96,60	9,900	587,27	801,63	-4,639	
96,62	9,904	587,59	800,90	-4,641	
96,64	9,908	588,16	800,04	-4,642	
96,66	9,912	588,83	800,34	-4,644	
96,68	9,916	588,38	801,62	-4,645	
96,70	9,920	587,45	801,96	-4,647	
96,72	9,924	586,02	801,28	-4,648	
96,74	9,928	585,19	800,27	-4,649	
96,76	9,932	585,38	800,29	-4,651	
96,78	9,936	584,37	801,80	-4,652	
96,80	9,940	582,50	802,61	-4,654	
96,82	9,943	581,10	802,22	-4,655	
96,84	9,947	580,66	801,36	-4,656	
96,86	9,951	581,27	800,50	-4,658	
96,88	9,955	586,94	799,91	-4,659	
96,90	9,959	589,87	800,44	-4,661	
96,92	9,964	587,05	801,09	-4,662	
96,94	9,968	585,21	800,88	-4,663	
96,96	9,972	586,59	800,12	-4,665	
96,98	9,976	587,19	800,21	-4,666	
97,00	9,980	583,38	801,51	-4,667	
97,02	9,984	580,32	802,09	-4,668	
97,04	9,988	576,14	801,64	-4,668	
97,06	9,990	568,28	800,81	-4,668	
97,08	9,991	557,92	800,01	-4,668	
97,10	9,992	547,89	800,31	-4,668	
97,12	9,992	533,63	801,38	-4,668	
97,14	9,992	519,05	801,58	-4,669	
97,16	9,992	507,36	800,92	-4,669	
97,18	9,992	497,70	800,08	-4,669	
97,20	9,992	488,14	800,25	-4,669	
97,22	9,992	478,08	801,36	-4,669	
97,24	9,992	469,63	801,69	-4,669	
97,26	9,992	461,97	801,13	-4,669	
97,28	9,992	454,11	800,28	-4,669	
97,30	9,992	448,19	800,02	-4,669	
97,32	9,992	442,04	801,07	-4,669	
97,34	9,992	435,58	801,77	-4,669	
97,36	9,992	429,08	801,44	-4,669	
97,38	9,992	422,51	800,64	-4,669	
97,40	9,992	417,58	799,92	-4,669	
97,42	9,992	414,29	800,41	-4,669	
97,44	9,992	409,09	801,34	-4,669	
97,46	9,992	403,64	801,40	-4,669	
97,48	9,992	398,89	800,74	-4,669	
97,50	9,992	395,66	799,98	-4,669	
97,52	9,992	391,97	800,47	-4,669	
97,54	9,992	389,20	801,70	-4,670	
97,56	9,992	388,72	801,96	-4,670	
97,58	9,992	389,02	801,32	-4,670	
97,60	9,992	389,26	800,44	-4,670	
97,62	9,992	390,04	799,92	-4,670	
97,64	9,992	389,32	800,62	-4,670	
97,66	9,992	388,78	801,35	-4,670	
97,68	9,992	388,94	801,13	-4,670	
97,70	9,992	389,43	800,33	-4,670	
97,72	9,992	390,00	800,09	-4,670	
97,74	9,992	389,08	801,26	-4,670	
97,76	9,992	388,85	802,03	-4,670	
97,78	9,992	389,03	801,71	-4,670	
97,80	9,992	389,12	800,93	-4,670	
97,82	9,992	389,52	800,13	-4,670	
97,84	9,992	389,77	799,96	-4,670	
97,86	9,992	388,96	800,54	-4,670	
97,88	9,992	388,76	800,66	-4,670	
97,90	9,992	389,22	800,13	-4,670	
97,92	9,992	389,86	799,99	-4,670	
97,94	9,992	388,98	801,12	-4,670	
97,96	9,992	388,73	801,82	-4,670	
97,98	9,992	388,97	801,48	-4,670	
98,00	9,992	385,78	800,69	-4,670	
98,02	9,992	358,71	799,96	-4,670	
98,04	9,992	328,34	800,38	-4,670	
98,06	9,992	312,87	801,27	-4,671	
98,08	9,992	308,55	801,26	-4,671	
98,10	9,992	306,92	800,55	-4,671	
98,12	9,992	304,53	799,73	-4,670	
98,14	9,992	304,45	798,91	-4,670	
98,16	9,992	308,89	798,08	-4,670	
98,18	9,992	313,52	797,24	-4,670	
98,20	9,992	316,72	796,41	-4,670	
98,22	9,992	319,70	795,59	-4,670	
98,24	9,992	322,95	794,74	-4,670	
98,26	9,992	326,37	793,87	-4,670	
98,28	9,992	330,21	793,00	-4,670	
98,30	9,992	334,29	792,13	-4,670	
98,32	9,992	338,03	791,26	-4,670	
98,34	9,992	341,63	790,43	-4,670	
98,36	9,992	345,73	789,63	-4,670	
98,38	9,992	349,70	788,83	-4,670	
98,40	9,992	353,22	788,02	-4,670	
98,42	9,992	356,59	787,20	-4,670	
98,44	9,992	359,99	786,41	-4,670	
98,46	9,992	363,38	785,61	-4,670	
98,48	9,992	366,54	784,83	-4,670	
98,50	9,992	369,12	784,04	-4,670	
98,52	9,992	371,82	783,25	-4,670	
98,54	9,992	374,94	782,41	-4,670	
98,56	9,992	377,83	781,56	-4,670	
98,58	9,992	380,32	780,79	-4,670	
98,60	9,992	382,54	780,05	-4,670	
98,62	9,992	384,71	779,25	-4,669	
98,64	9,992	387,12	778,41	-4,669	
98,66	9,992	390,00	777,56	-4,669	
98,68	9,992	392,53	776,74	-4,670	
98,70	9,992	394,77	775,94	-4,670	
98,72	9,992	397,01	775,14	-4,670	
98,74	9,992	398,68	774,36	-4,670	
98,76	9,992	400,48	773,59	-4,670	
98,78	9,992	402,60	772,80	-4,670	
98,80	9,992	404,70	772,03	-4,670	
98,82	9,992	406,39	771,28	-4,670	
98,84	9,992	408,38	770,53	-4,670	
98,86	9,992	410,64	769,80	-4,669	
98,88	9,992	412,35	769,08	-4,669	
98,90	9,992	414,02	768,36	-4,670	
98,92	9,992	415,56	767,65	-4,670	
98,94	9,992	417,34	766,94	-4,670	
98,96	9,992	418,83	766,22	-4,670	
98,98	9,992	419,98	765,51	-4,670	
99,00	9,992	421,51	764,85	-4,670	
99,02	9,992	422,41	764,20	-4,670	
99,04	9,992	422,70	763,55	-4,670	
99,06	9,992	423,95	762,89	-4,670	
99,08	9,992	425,33	762,22	-4,670	
99,10	9,992	425,90	761,54	-4,670	
99,12	9,992	426,03	760,77	-4,670	
99,14	9,992	426,67	759,99	-4,670	
99,16	9,992	428,14	759,33	-4,670	
99,18	9,992	429,13	758,70	-4,670	
99,20	9,992	429,44	758,00	-4,670	
99,22	9,992	429,43	757,34	-4,670	
99,24	9,992	429,52	756,73	-4,670	
99,26	9,992	429,57	756,10	-4,670	
99,28	9,992	429,51	755,44	-4,670	
99,30	9,992	429,48	754,78	-4,670	
99,32	9,992	429,47	754,09	-4,671	
99,34	9,992	428,84	753,42	-4,671	
99,36	9,992	427,36	752,79	-4,671	
99,38	9,992	426,42	752,18	-4,671	
99,40	9,992	426,19	751,59	-4,671	
99,42	9,992	425,55	750,97	-4,671	
99,44	9,992	423,93	750,36	-4,671	
99,46	9,992	422,85	749,77	-4,671	
99,48	9,992	421,95	749,19	-4,671	
99,50	9,992	420,52	748,63	-4,671	
99,52	9,992	419,04	748,09	-4,671	
99,54	9,992	417,31	747,56	-4,671	
99,56	9,992	415,71	746,99	-4,671	
99,58	9,992	413,91	746,41	-4,671	
99,60	9,992	412,76	745,84	-4,671	
99,62	9,992	411,23	745,31	-4,672	
99,64	9,992	409,22	744,84	-4,672	
99,66	9,992	407,17	744,40	-4,672	
99,68	9,992	405,53	743,94	-4,672	
99,70	9,992	403,68	743,41	-4,672	
99,72	9,992	401,52	742,87	-4,672	
99,74	9,992	399,74	742,38	-4,672	
99,76	9,992	397,98	741,93	-4,673	
99,78	9,992	395,93	741,50	-4,673	
99,80	9,992	393,73	741,05	-4,673	
99,82	9,992	391,51	740,59	-4,673	
99,84	9,992	389,30	740,15	-4,673	
99,86	9,992	386,65	739,71	-4,674	
99,88	9,992	383,96	739,27	-4,674	
99,90	9,992	381,47	738,82	-4,674	
99,92	9,992	379,21	738,38	-4,674	
99,94	9,992	377,00	737,97	-4,675	
99,96	9,992	374,56	737,57	-4,675	
99,98	9,992	371,72	737,13	-4,675	
100,00	9,992	369,16	736,66	-4,675	
100,02	9,992	366,80	736,22	-4,676	
100,04	9,992	364,36	735,76	-4,676	
100,06	9,992	361,55	735,36	-4,676	
100,08	9,992	359,04	735,01	-4,677	
100,10	9,992	356,33	734,60	-4,677	
100,12	9,992	353,12	734,14	-4,677	
100,14	9,992	350,21	733,69	-4,677	
100,16	9,992	347,69	733,28	-4,678	
100,18	9,992	344,75	732,92	-4,678	
100,20	9,992	341,43	732,59	-4,678	
100,22	9,992	338,20	732,23	-4,679	
100,24	9,992	335,58	731,85	-4,679	
100,26	9,992	332,85	731,51	-4,680	
100,28	9,992	330,12	731,18	-4,680	
100,30	9,992	327,50	730,83	-4,680	
100,32	9,992	324,49	730,47	-4,681	
100,34	9,992	321,16	730,09	-4,681	
100,36	9,992	317,90	729,71	-4,681	
100,38	9,992	315,25	729,35	-4,682	
100,40	9,992	312,46	729,00	-4,682	
100,42	9,992	309,36	728,66	-4,682	
100,44	9,992	306,04	728,31	-4,683	
100,46	9,992	302,62	727,95	-4,683	
100,48	9,992	299,61	727,56	-4,684	
100,50	9,992	297,01	727,18	-4,684	
100,52	9,992	294,10	726,82	-4,685	
100,54	9,992	290,93	726,47	-4,685	
100,56	9,992	288,30	726,10	-4,685	
100,58	9,992	285,62	725,72	-4,686	
100,60	9,992	283,08	725,34	-4,686	
100,62	9,992	280,61	724,96	-4,687	
100,64	9,992	277,77	724,60	-4,687	
100,66	9,992	275,15	724,26	-4,687	
100,68	9,992	272,36	723,95	-4,688	
100,70	9,992	269,63	723,63	-4,688	
100,72	9,992	267,03	723,29	-4,688	
100,74	9,992	264,13	722,93	-4,689	
100,76	9,992	261,56	722,58	-4,689	
100,78	9,992	259,25	722,24	-4,690	
100,80	9,992	257,03	721,90	-4,690	
100,82	9,992	254,86	721,55	-4,690	
100,84	9,992	252,74	721,20	-4,691	
100,86	9,992	251,08	720,85	-4,691	
100,88	9,992	249,26	720,49	-4,691	
100,90	9,992	247,12	720,12	-4,692	
100,92	9,992	244,84	719,76	-4,692	
100,94	9,992	242,66	719,40	-4,692	
100,96	9,992	240,97	719,03	-4,693	
100,98	9,992	239,20	718,66	-4,693	
101,00	9,992	237,61	718,31	-4,693	
101,02	9,992	235,90	717,96	-4,694	
101,04	9,992	234,79	717,59	-4,694	
101,06	9,992	233,35	717,23	-4,694	
101,08	9,992	231,90	716,92	-4,695	
101,10	9,992	230,71	716,63	-4,695	
101,12	9,992	229,15	716,32	-4,695	
101,14	9,992	228,14	715,96	-4,696	
101,16	9,992	227,32	715,54	-4,696	
101,18	9,992	225,84	715,12	-4,696	
101,20	9,992	224,81	714,70	-4,697	
101,22	9,992	224,41	714,32	-4,697	
101,24	9,992	223,28	713,98	-4,697	
101,26	9,992	221,98	713,62	-4,697	
101,28	9,992	221,41	713,26	-4,698	
101,30	9,992	221,26	712,92	-4,698	
101,32	9,992	221,11	712,59	-4,698	
101,34	9,992	219,99	712,22	-4,699	
101,36	9,992	218,54	711,81	-4,699	
101,38	9,992	217,89	711,44	-4,699	
101,40	9,992	217,83	711,12	-4,699	
101,42	9,992	217,90	710,76	-4,699	
101,44	9,992	217,37	710,40	-4,700	
101,46	9,992	215,89	710,04	-4,700	
101,48	9,992	214,86	709,69	-4,700	
101,50	9,992	214,52	709,32	-4,700	
101,52	9,992	214,54	708,93	-4,701	
101,54	9,992	214,62	708,57	-4,701	
101,56	9,992	214,57	708,24	-4,701	
101,58	9,992	214,52	707,89	-4,701	
101,60	9,992	214,49	707,52	-4,701	
101,62	9,992	214,49	707,14	-4,702	
101,64	9,992	214,45	706,77	-4,702	
101,66	9,992	214,45	706,41	-4,702	
101,68	9,992	214,48	706,04	-4,702	
101,70	9,992	214,44	705,68	-4,702	
101,72	9,992	214,43	705,32	-4,703	
101,74	9,992	214,47	704,97	-4,703	
101,76	9,992	214,47	704,59	-4,703	
101,78	9,992	214,46	704,21	-4,703	
101,80	9,992	214,47	703,84	-4,703	
101,82	9,992	214,44	703,49	-4,704	
101,84	9,992	214,47	703,11	-4,704	
101,86	9,992	214,47	702,72	-4,704	
101,88	9,992	215,00	702,34	-4,704	
101,90	9,992	216,45	701,98	-4,704	
101,92	9,992	217,51	701,62	-4,705	
101,94	9,992	217,83	701,22	-4,705	
101,96	9,992	217,84	700,82	-4,705	
101,98	9,992	217,86	700,44	-4,705	
102,00	9,992	218,51	700,03	-4,705	
102,02	9,992	220,01	699,63	-4,706	
102,04	9,992	220,98	699,23	-4,706	
102,06	9,992	221,24	698,85	-4,706	
102,08	9,992	221,71	698,46	-4,706	
102,10	9,992	223,14	698,07	-4,706	
102,12	9,992	224,24	697,66	-4,706	
102,14	9,992	224,66	697,25	-4,707	
102,16	9,992	224,83	696,85	-4,707	
102,18	9,992	225,98	696,47	-4,707	
102,20	9,992	227,43	696,10	-4,707	
102,22	9,992	228,03	695,75	-4,707	
102,24	9,992	228,61	695,41	-4,707	
102,26	9,992	230,07	695,05	-4,708	
102,28	9,992	231,10	694,69	-4,708	
102,30	9,992	231,38	694,33	-4,708	
102,32	9,992	231,93	693,94	-4,708	
102,34	9,992	233,37	693,54	-4,708	
102,36	9,992	234,39	693,15	-4,708	
102,38	9,992	234,82	692,74	-4,708	
102,40	9,992	236,01	692,31	-4,709	
102,42	9,992	237,39	691,86	-4,709	
102,44	9,992	238,00	691,41	-4,709	
102,46	9,992	238,62	690,97	-4,709	
102,48	9,992	240,09	690,57	-4,709	
102,50	9,992	241,21	690,18	-4,709	
102,52	9,992	242,66	689,79	-4,709	
102,54	9,992	244,12	689,41	-4,710	
102,56	9,992	244,69	689,04	-4,710	
102,58	9,992	245,25	688,66	-4,710	
102,60	9,992	246,73	688,27	-4,710	
102,62	9,992	247,84	687,88	-4,710	
102,64	9,992	248,29	687,49	-4,711	
102,66	9,992	249,42	687,10	-4,711	
102,68	9,992	250,75	686,71	-4,711	
102,70	9,992	251,45	686,32	-4,711	
102,72	9,992	252,63	685,95	-4,711	
102,74	9,992	253,99	685,56	-4,711	
102,76	9,992	254,76	685,15	-4,711	
102,78	9,992	256,06	684,74	-4,712	
102,80	9,992	257,45	684,34	-4,712	
102,82	9,992	258,59	683,94	-4,712	
102,84	9,992	260,21	683,54	-4,712	
102,86	9,992	261,29	683,13	-4,712	
102,88	9,992	262,10	682,72	-4,712	
102,90	9,992	263,56	682,31	-4,712	
102,92	9,992	264,78	681,90	-4,712	
102,94	9,992	266,33	681,50	-4,713	
102,96	9,992	267,86	681,09	-4,713	
102,98	9,992	269,62	680,66	-4,713	
103,00	9,992	271,11	680,22	-4,713	
103,02	9,992	271,76	679,81	-4,713	
103,04	9,992	272,94	679,43	-4,713	
103,06	9,992	274,37	679,06	-4,713	
103,08	9,992	276,09	678,67	-4,713	
103,10	9,992	277,57	678,26	-4,714	
103,12	9,992	278,82	677,83	-4,714	
103,14	9,992	280,47	677,42	-4,714	
103,16	9,992	282,04	677,04	-4,714	
103,18	9,992	283,77	676,66	-4,714	
103,20	9,992	284,80	676,26	-4,714	
103,22	9,992	285,62	675,86	-4,714	
103,24	9,992	287,11	675,46	-4,714	
103,26	9,992	288,25	675,06	-4,715	
103,28	9,992	289,71	674,66	-4,715	
103,30	9,992	291,26	674,25	-4,715	
103,32	9,992	293,04	673,83	-4,715	
103,34	9,992	294,51	673,42	-4,715	
103,36	9,992	295,57	673,01	-4,715	
103,38	9,992	297,12	672,61	-4,715	
103,40	9,992	298,71	672,21	-4,716	
103,42	9,992	300,56	671,82	-4,716	
103,44	9,992	301,81	671,42	-4,716	
103,46	9,992	303,23	671,02	-4,716	
103,48	9,992	305,15	670,63	-4,716	
103,50	9,992	307,35	670,23	-4,716	
103,52	9,992	309,61	669,83	-4,716	
103,54	9,992	311,37	669,45	-4,716	
103,56	9,992	313,15	669,09	-4,716	
103,58	9,992	315,15	668,72	-4,717	
103,60	9,992	317,27	668,31	-4,717	
103,62	9,992	318,99	667,87	-4,717	
103,64	9,992	320,77	667,42	-4,717	
103,66	9,992	322,33	667,01	-4,717	
103,68	9,992	324,10	666,61	-4,717	
103,70	9,992	325,69	666,22	-4,717	
103,72	9,992	327,49	665,83	-4,717	
103,74	9,992	329,10	665,43	-4,717	
103,76	9,992	330,86	665,02	-4,717	
103,78	9,992	332,42	664,62	-4,718	
103,80	9,992	334,26	664,22	-4,718	
103,82	9,992	336,41	663,80	-4,718	