Zeit  1 - Standardmessrate [s]	ZwickWeg [mm]	ZwickKraft [N]	Pyrometer [°C]	Maytec [mm]
0	-0,01371	164,94	150,06	-0,00980	
0,02000	-0,01370	164,93	150,06	-0,00978	
0,04000	-0,01370	164,86	150,07	-0,00983	
0,06000	-0,01370	164,84	150,07	-0,00998	
0,08000	-0,01369	164,89	150,06	-0,01009	
0,1000	-0,01369	164,92	150,06	-0,01013	
0,1200	-0,01370	164,93	150,06	-0,01010	
0,1400	-0,01370	164,91	150,07	-0,01003	
0,1600	-0,01369	164,87	150,07	-0,00991	
0,1800	-0,01367	164,91	150,06	-0,00989	
0,2000	-0,01367	164,93	150,06	-0,00989	
0,2200	-0,01367	164,91	150,06	-0,00997	
0,2400	-0,01368	164,90	150,07	-0,01010	
0,2600	-0,01370	164,96	150,07	-0,01010	
0,2800	-0,01371	165,02	150,06	-0,01001	
0,3000	-0,01371	165,03	150,06	-0,00990	
0,3200	-0,01371	165,05	150,07	-0,00988	
0,3400	-0,01370	165,07	150,07	-0,00985	
0,3600	-0,01369	165,04	150,07	-0,00988	
0,3800	-0,01368	165,03	150,06	-0,01001	
0,4000	-0,01368	164,99	150,06	-0,01010	
0,4200	-0,01368	165,00	150,06	-0,01010	
0,4400	-0,01370	165,05	150,07	-0,01002	
0,4600	-0,01369	165,04	150,07	-0,00996	
0,4800	-0,01369	165,00	150,06	-0,00987	
0,5000	-0,01369	165,00	150,06	-0,00979	
0,5200	-0,01368	164,99	150,06	-0,00989	
0,5400	-0,01367	164,97	150,07	-0,01004	
0,5600	-0,01369	164,93	150,07	-0,01011	
0,5800	-0,01370	164,88	150,06	-0,01007	
0,6000	-0,01370	164,84	150,06	-0,00999	
0,6200	-0,01368	164,84	150,06	-0,00992	
0,6400	-0,01368	164,89	150,07	-0,00984	
0,6600	-0,01369	164,92	150,07	-0,00979	
0,6800	-0,01370	164,97	150,06	-0,00992	
0,7000	-0,01368	164,96	150,06	-0,01004	
0,7200	-0,01367	164,97	150,07	-0,01005	
0,7400	-0,01368	164,97	150,07	-0,01007	
0,7600	-0,01370	164,92	150,07	-0,00998	
0,7800	-0,01370	164,90	150,06	-0,00984	
0,8000	-0,01368	164,96	150,06	-0,00982	
0,8200	-0,01369	165,05	150,07	-0,00986	
0,8400	-0,01370	165,10	150,07	-0,00993	
0,8600	-0,01370	165,09	150,07	-0,01003	
0,8800	-0,01369	165,11	150,06	-0,01006	
0,9000	-0,01368	165,08	150,06	-0,01003	
0,9200	-0,01368	165,09	150,07	-0,00995	
0,9400	-0,01369	165,05	150,07	-0,00990	
0,9600	-0,01369	164,99	150,07	-0,00987	
0,9800	-0,01368	164,95	150,06	-0,00989	
1,000	-0,01369	164,94	150,06	-0,01003	
1,020	-0,01370	164,94	150,06	-0,01016	
1,040	-0,01370	164,96	150,07	-0,01014	
1,060	-0,01370	164,98	150,06	-0,01007	
1,080	-0,01371	164,97	150,06	-0,01002	
1,100	-0,01372	165,00	150,06	-0,00997	
1,120	-0,01372	165,02	150,06	-0,00993	
1,140	-0,01371	165,00	150,07	-0,00995	
1,160	-0,01370	164,96	150,06	-0,01002	
1,180	-0,01369	164,93	150,06	-0,01008	
1,200	-0,01369	164,93	150,06	-0,01005	
1,220	-0,01369	164,95	150,07	-0,00995	
1,240	-0,01370	164,94	150,07	-0,00988	
1,260	-0,01371	164,92	150,06	-0,00990	
1,280	-0,01370	164,96	150,06	-0,00992	
1,300	-0,01368	164,97	150,07	-0,00992	
1,320	-0,01367	164,99	150,07	-0,01003	
1,340	-0,01367	164,94	150,06	-0,01013	
1,360	-0,01368	164,89	150,06	-0,01007	
1,380	-0,01368	164,92	150,06	-0,00990	
1,400	-0,01369	164,93	150,06	-0,00979	
1,420	-0,01369	164,98	150,06	-0,00980	
1,440	-0,01369	165,05	150,06	-0,00990	
1,460	-0,01369	165,11	150,06	-0,01006	
1,480	-0,01370	165,14	150,06	-0,01017	
1,500	-0,01370	165,12	150,07	-0,01015	
1,520	-0,01370	165,08	150,07	-0,01010	
1,540	-0,01370	165,03	150,06	-0,01004	
1,560	-0,01369	164,95	150,06	-0,00996	
1,580	-0,01369	164,96	150,06	-0,00989	
1,600	-0,01370	164,99	150,07	-0,00990	
1,620	-0,01371	165,04	150,07	-0,00998	
1,640	-0,01370	165,07	150,06	-0,01006	
1,660	-0,01370	165,07	150,06	-0,01012	
1,680	-0,01370	165,03	150,06	-0,01009	
1,700	-0,01371	165,02	150,07	-0,00994	
1,720	-0,01370	165,03	150,07	-0,00984	
1,740	-0,01371	164,98	150,06	-0,00983	
1,760	-0,01371	164,92	150,06	-0,00986	
1,780	-0,01371	164,92	150,06	-0,00995	
1,800	-0,01370	164,89	150,06	-0,01005	
1,820	-0,01371	164,79	150,06	-0,01004	
1,840	-0,01371	164,75	150,06	-0,01001	
1,860	-0,01370	164,79	150,06	-0,00994	
1,880	-0,01369	164,92	150,06	-0,00985	
1,900	-0,01370	164,98	150,07	-0,00983	
1,920	-0,01369	164,94	150,06	-0,00989	
1,940	-0,01369	164,98	150,06	-0,01003	
1,960	-0,01370	164,99	150,06	-0,01008	
1,980	-0,01370	164,99	150,07	-0,01002	
2,000	-0,01368	164,99	150,07	-0,00994	
2,020	-0,01367	164,98	150,06	-0,00979	
2,040	-0,01369	164,94	150,06	-0,00969	
2,060	-0,01369	165,00	150,06	-0,00971	
2,080	-0,01370	165,03	150,07	-0,00984	
2,100	-0,01369	164,98	150,07	-0,00999	
2,120	-0,01368	164,96	150,06	-0,01012	
2,140	-0,01368	164,94	150,06	-0,01010	
2,160	-0,01367	164,88	150,06	-0,00997	
2,180	-0,01367	164,87	150,07	-0,00985	
2,200	-0,01368	164,92	150,07	-0,00984	
2,220	-0,01367	164,92	150,06	-0,00988	
2,240	-0,01368	164,89	150,06	-0,00993	
2,260	-0,01368	164,87	150,06	-0,01000	
2,280	-0,01368	164,94	150,07	-0,01009	
2,300	-0,01367	164,97	150,07	-0,01012	
2,320	-0,01367	164,96	150,06	-0,01002	
2,340	-0,01368	164,94	150,06	-0,00989	
2,360	-0,01369	164,88	150,06	-0,00985	
2,380	-0,01369	164,88	150,07	-0,00991	
2,400	-0,01368	164,92	150,06	-0,00999	
2,420	-0,01368	164,94	150,06	-0,01005	
2,440	-0,01368	164,93	150,06	-0,01004	
2,460	-0,01368	164,94	150,07	-0,00998	
2,480	-0,01368	164,93	150,07	-0,00993	
2,500	-0,01369	164,91	150,06	-0,00991	
2,520	-0,01370	164,91	150,06	-0,00986	
2,540	-0,01370	164,88	150,06	-0,00988	
2,560	-0,01368	164,82	150,07	-0,00999	
2,580	-0,01367	164,85	150,07	-0,01003	
2,600	-0,01368	164,90	150,06	-0,01007	
2,620	-0,01368	164,94	150,06	-0,01009	
2,640	-0,01369	164,92	150,06	-0,01003	
2,660	-0,01369	164,89	150,07	-0,00984	
2,680	-0,01370	164,90	150,07	-0,00977	
2,700	-0,01371	164,87	150,06	-0,00990	
2,720	-0,01371	164,84	150,06	-0,01003	
2,740	-0,01370	164,86	150,06	-0,01007	
2,760	-0,01370	164,89	150,07	-0,01003	
2,780	-0,01370	164,90	150,07	-0,00998	
2,800	-0,01370	164,94	150,06	-0,00991	
2,820	-0,01369	164,96	150,06	-0,00986	
2,840	-0,01370	164,92	150,06	-0,00987	
2,860	-0,01372	164,92	150,07	-0,01000	
2,880	-0,01371	164,98	150,07	-0,01015	
2,900	-0,01369	165,04	150,06	-0,01018	
2,920	-0,01370	165,04	150,06	-0,01012	
2,940	-0,01371	165,00	150,06	-0,01000	
2,960	-0,01371	165,00	150,07	-0,00985	
2,980	-0,01369	165,00	150,07	-0,00978	
3,000	-0,01368	164,99	150,07	-0,00982	
3,020	-0,01369	164,97	150,06	-0,00997	
3,040	-0,01370	164,91	150,06	-0,01011	
3,060	-0,01369	164,89	150,07	-0,01018	
3,080	-0,01369	164,89	150,07	-0,01014	
3,100	-0,01370	164,93	150,07	-0,00998	
3,120	-0,01370	165,00	150,06	-0,00990	
3,140	-0,01370	165,01	150,06	-0,00989	
3,160	-0,01368	165,00	150,07	-0,00996	
3,180	-0,01367	165,02	150,07	-0,01007	
3,200	-0,01367	165,04	150,07	-0,01010	
3,220	-0,01368	165,04	150,06	-0,01009	
3,240	-0,01369	165,01	150,06	-0,01001	
3,260	-0,01368	165,04	150,07	-0,00991	
3,280	-0,01367	165,08	150,07	-0,00982	
3,300	-0,01367	165,13	150,07	-0,00980	
3,320	-0,01367	165,10	150,06	-0,00989	
3,340	-0,01368	165,02	150,06	-0,01008	
3,360	-0,01370	164,99	150,07	-0,01013	
3,380	-0,01373	165,03	150,07	-0,01008	
3,400	-0,01372	165,01	150,07	-0,00998	
3,420	-0,01369	164,99	150,06	-0,00983	
3,440	-0,01367	165,01	150,06	-0,00978	
3,460	-0,01367	165,03	150,06	-0,00980	
3,480	-0,01368	164,99	150,07	-0,00991	
3,500	-0,01369	164,96	150,06	-0,01001	
3,520	-0,01369	164,91	150,06	-0,01008	
3,540	-0,01369	164,88	150,06	-0,01008	
3,560	-0,01370	164,87	150,07	-0,01003	
3,580	-0,01369	164,90	150,07	-0,00988	
3,600	-0,01370	164,94	150,06	-0,00976	
3,620	-0,01371	164,95	150,06	-0,00979	
3,640	-0,01370	164,95	150,06	-0,00993	
3,660	-0,01370	164,91	150,07	-0,01005	
3,680	-0,01370	164,91	150,07	-0,01007	
3,700	-0,01369	164,92	150,06	-0,01003	
3,720	-0,01370	164,91	150,06	-0,00996	
3,740	-0,01370	164,95	150,06	-0,00986	
3,760	-0,01369	165,00	150,07	-0,00985	
3,780	-0,01369	164,98	150,07	-0,00991	
3,800	-0,01369	165,09	150,07	-0,00998	
3,820	-0,01369	165,17	150,06	-0,01007	
3,840	-0,01369	165,08	150,06	-0,01012	
3,860	-0,01368	164,97	150,07	-0,01008	
3,880	-0,01368	164,96	150,07	-0,00993	
3,900	-0,01368	165,04	150,06	-0,00981	
3,920	-0,01368	165,08	150,06	-0,00979	
3,940	-0,01369	165,05	150,06	-0,00998	
3,960	-0,01369	165,00	150,07	-0,01011	
3,980	-0,01369	165,03	150,07	-0,01010	
4,000	-0,01369	165,02	150,06	-0,01011	
4,020	-0,01370	165,01	150,06	-0,01004	
4,040	-0,01371	165,01	150,06	-0,00995	
4,060	-0,01371	164,98	150,07	-0,00982	
4,080	-0,01371	164,99	150,07	-0,00981	
4,100	-0,01371	165,06	150,06	-0,00992	
4,120	-0,01370	165,05	150,06	-0,01009	
4,140	-0,01370	164,95	150,06	-0,01019	
4,160	-0,01371	164,93	150,07	-0,01011	
4,180	-0,01371	165,04	150,07	-0,00995	
4,200	-0,01371	165,10	150,06	-0,00990	
4,220	-0,01371	165,04	150,06	-0,00989	
4,240	-0,01371	164,95	150,07	-0,00989	
4,260	-0,01371	164,94	150,07	-0,00994	
4,280	-0,01370	165,00	150,07	-0,01001	
4,300	-0,01369	165,03	150,06	-0,01003	
4,320	-0,01371	164,97	150,06	-0,00999	
4,340	-0,01372	164,94	150,07	-0,00987	
4,360	-0,01371	164,91	150,07	-0,00979	
4,380	-0,01368	164,84	150,07	-0,00981	
4,400	-0,01366	164,82	150,06	-0,00990	
4,420	-0,01367	164,87	150,06	-0,01000	
4,440	-0,01368	164,94	150,07	-0,01008	
4,460	-0,01369	164,99	150,07	-0,01009	
4,480	-0,01368	164,94	150,07	-0,01001	
4,500	-0,01368	164,90	150,06	-0,00991	
4,520	-0,01369	164,88	150,06	-0,00985	
4,540	-0,01369	164,87	150,06	-0,00990	
4,560	-0,01369	164,87	150,07	-0,00994	
4,580	-0,01367	164,95	150,07	-0,00996	
4,600	-0,01367	165,04	150,06	-0,00999	
4,620	-0,01369	165,03	150,06	-0,01000	
4,640	-0,01370	165,03	150,06	-0,00996	
4,660	-0,01370	165,04	150,07	-0,00981	
4,680	-0,01370	165,04	150,06	-0,00974	
4,700	-0,01370	165,06	150,06	-0,00979	
4,720	-0,01370	165,04	150,06	-0,00989	
4,740	-0,01369	165,00	150,07	-0,01001	
4,760	-0,01368	165,09	150,07	-0,01009	
4,780	-0,01369	165,11	150,06	-0,01011	
4,800	-0,01369	165,01	150,06	-0,01001	
4,820	-0,01370	164,95	150,06	-0,00991	
4,840	-0,01370	164,95	150,07	-0,00983	
4,860	-0,01370	165,02	150,07	-0,00984	
4,880	-0,01369	165,09	150,06	-0,00995	
4,900	-0,01370	165,04	150,06	-0,01000	
4,920	-0,01370	165,02	150,06	-0,01005	
4,940	-0,01371	165,02	150,07	-0,01006	
4,960	-0,01371	164,96	150,07	-0,00995	
4,980	-0,01370	164,94	150,06	-0,00984	
5,000	-0,01370	164,95	150,06	-0,00983	
5,020	-0,01370	164,96	150,06	-0,00991	
5,040	-0,01369	164,92	150,07	-0,01002	
5,060	-0,01367	164,97	150,07	-0,01007	
5,080	-0,01367	165,00	150,06	-0,01010	
5,100	-0,01367	165,05	150,06	-0,01006	
5,120	-0,01366	165,11	150,06	-0,00991	
5,140	-0,01368	165,11	150,07	-0,00983	
5,160	-0,01369	165,02	150,07	-0,00981	
5,180	-0,01368	165,01	150,06	-0,00988	
5,200	-0,01367	165,03	150,06	-0,00999	
5,220	-0,01370	165,06	150,06	-0,01005	
5,240	-0,01372	165,06	150,07	-0,01003	
5,260	-0,01372	164,99	150,06	-0,00997	
5,280	-0,01370	164,90	150,06	-0,00988	
5,300	-0,01370	164,87	150,06	-0,00987	
5,320	-0,01370	164,93	150,07	-0,00991	
5,340	-0,01369	164,98	150,07	-0,00997	
5,360	-0,01370	164,97	150,06	-0,01004	
5,380	-0,01372	164,94	150,06	-0,01006	
5,400	-0,01373	164,94	150,06	-0,01007	
5,420	-0,01374	164,95	150,07	-0,01001	
5,440	-0,01374	164,92	150,07	-0,00983	
5,460	-0,01372	164,92	150,06	-0,00967	
5,480	-0,01372	164,90	150,06	-0,00970	
5,500	-0,01372	164,92	150,06	-0,00991	
5,520	-0,01371	165,00	150,07	-0,01008	
5,540	-0,01371	165,06	150,07	-0,01011	
5,560	-0,01370	165,09	150,06	-0,01006	
5,580	-0,01370	164,99	150,06	-0,01000	
5,600	-0,01369	164,97	150,06	-0,00991	
5,620	-0,01370	164,98	150,07	-0,00980	
5,640	-0,01371	164,92	150,07	-0,00983	
5,660	-0,01370	164,93	150,06	-0,00994	
5,680	-0,01369	164,97	150,06	-0,01002	
5,700	-0,01368	165,01	150,06	-0,01002	
5,720	-0,01368	164,98	150,07	-0,00994	
5,740	-0,01368	164,92	150,07	-0,00983	
5,760	-0,01368	164,87	150,06	-0,00976	
5,780	-0,01368	164,85	150,06	-0,00973	
5,800	-0,01369	164,91	150,06	-0,00981	
5,820	-0,01370	164,93	150,06	-0,00987	
5,840	-0,01370	164,92	150,06	-0,00994	
5,860	-0,01369	164,96	150,06	-0,01002	
5,880	-0,01368	165,01	150,06	-0,00997	
5,900	-0,01368	164,96	150,06	-0,00990	
5,920	-0,01370	164,90	150,06	-0,00983	
5,940	-0,01372	164,90	150,06	-0,00976	
5,960	-0,01373	164,90	150,06	-0,00985	
5,980	-0,01372	164,86	150,06	-0,00999	
6,000	-0,01371	164,90	150,07	-0,01004	
6,020	-0,01370	164,98	150,06	-0,00997	
6,040	-0,01370	165,00	150,06	-0,00988	
6,060	-0,01372	164,98	150,06	-0,00978	
6,080	-0,01372	164,97	150,06	-0,00978	
6,100	-0,01371	165,01	150,07	-0,00980	
6,120	-0,01371	165,00	150,06	-0,00990	
6,140	-0,01371	164,94	150,06	-0,01002	
6,160	-0,01371	164,86	150,06	-0,01002	
6,180	-0,01371	164,82	150,07	-0,01004	
6,200	-0,01371	164,82	150,06	-0,00994	
6,220	-0,01370	164,83	150,06	-0,00985	
6,240	-0,01371	164,91	150,06	-0,00983	
6,260	-0,01371	165,02	150,06	-0,00988	
6,280	-0,01368	165,02	150,06	-0,00996	
6,300	-0,01369	164,94	150,06	-0,00997	
6,320	-0,01368	164,91	150,06	-0,00996	
6,340	-0,01367	164,88	150,06	-0,00999	
6,360	-0,01368	164,92	150,06	-0,00988	
6,380	-0,01370	164,92	150,06	-0,00979	
6,400	-0,01371	164,90	150,06	-0,00979	
6,420	-0,01370	164,90	150,06	-0,00986	
6,440	-0,01370	164,89	150,06	-0,00995	
6,460	-0,01370	164,86	150,06	-0,01002	
6,480	-0,01370	164,88	150,06	-0,01000	
6,500	-0,01369	164,89	150,06	-0,00994	
6,520	-0,01369	164,88	150,06	-0,00985	
6,540	-0,01369	164,89	150,07	-0,00980	
6,560	-0,01369	164,97	150,06	-0,00986	
6,580	-0,01368	164,97	150,06	-0,00990	
6,600	-0,01369	164,97	150,06	-0,00998	
6,620	-0,01369	165,04	150,07	-0,01005	
6,640	-0,01368	165,08	150,06	-0,01003	
6,660	-0,01369	165,05	150,06	-0,00995	
6,680	-0,01369	164,99	150,06	-0,00991	
6,700	-0,01369	164,92	150,06	-0,00993	
6,720	-0,01369	164,90	150,07	-0,00999	
6,740	-0,01370	164,89	150,06	-0,01009	
6,760	-0,01370	164,84	150,06	-0,01011	
6,780	-0,01369	164,83	150,06	-0,01009	
6,800	-0,01371	164,90	150,07	-0,01005	
6,820	-0,01372	164,95	150,07	-0,00998	
6,840	-0,01371	164,96	150,06	-0,00990	
6,860	-0,01369	165,00	150,06	-0,00985	
6,880	-0,01369	165,02	150,06	-0,00983	
6,900	-0,01369	165,00	150,07	-0,00990	
6,920	-0,01369	164,99	150,07	-0,01003	
6,940	-0,01369	165,02	150,06	-0,01009	
6,960	-0,01371	165,13	150,06	-0,01010	
6,980	-0,01370	165,11	150,06	-0,01000	
7,000	-0,01368	165,01	150,07	-0,00984	
7,020	-0,01366	164,95	150,06	-0,00981	
7,040	-0,01366	164,93	150,06	-0,00990	
7,060	-0,01366	164,95	150,06	-0,01001	
7,080	-0,01368	164,96	150,07	-0,01003	
7,100	-0,01369	164,92	150,07	-0,01004	
7,120	-0,01369	164,91	150,07	-0,01000	
7,140	-0,01368	164,94	150,06	-0,00985	
7,160	-0,01368	164,91	150,06	-0,00971	
7,180	-0,01369	164,83	150,06	-0,00976	
7,200	-0,01370	164,81	150,07	-0,00989	
7,220	-0,01370	164,87	150,06	-0,01000	
7,240	-0,01369	164,94	150,06	-0,01002	
7,260	-0,01369	165,01	150,06	-0,01000	
7,280	-0,01368	165,02	150,07	-0,00998	
7,300	-0,01368	165,01	150,07	-0,00988	
7,320	-0,01368	165,03	150,07	-0,00980	
7,340	-0,01368	165,03	150,06	-0,00985	
7,360	-0,01369	164,97	150,06	-0,00996	
7,380	-0,01370	164,93	150,07	-0,01006	
7,400	-0,01370	164,91	150,07	-0,01014	
7,420	-0,01369	164,93	150,06	-0,01013	
7,440	-0,01369	164,88	150,06	-0,00998	
7,460	-0,01370	164,84	150,06	-0,00987	
7,480	-0,01369	164,80	150,07	-0,00982	
7,500	-0,01368	164,87	150,07	-0,00990	
7,520	-0,01368	164,98	150,06	-0,01003	
7,540	-0,01369	164,99	150,06	-0,01012	
7,560	-0,01370	164,93	150,06	-0,01012	
7,580	-0,01369	164,91	150,07	-0,01001	
7,600	-0,01369	164,98	150,07	-0,00994	
7,620	-0,01369	164,97	150,06	-0,00984	
7,640	-0,01368	164,93	150,06	-0,00978	
7,660	-0,01367	164,97	150,06	-0,00985	
7,680	-0,01367	164,99	150,07	-0,00999	
7,700	-0,01367	164,97	150,07	-0,01008	
7,720	-0,01367	164,99	150,06	-0,01013	
7,740	-0,01367	164,95	150,06	-0,01008	
7,760	-0,01368	164,92	150,06	-0,00988	
7,780	-0,01368	164,88	150,07	-0,00978	
7,800	-0,01368	164,89	150,06	-0,00983	
7,820	-0,01368	164,97	150,06	-0,00994	
7,840	-0,01368	165,04	150,06	-0,01004	
7,860	-0,01369	165,03	150,06	-0,01001	
7,880	-0,01369	165,01	150,06	-0,00993	
7,900	-0,01369	164,95	150,06	-0,00984	
7,920	-0,01371	164,87	150,06	-0,00979	
7,940	-0,01371	164,89	150,06	-0,00976	
7,960	-0,01370	164,96	150,07	-0,00980	
7,980	-0,01369	164,99	150,07	-0,00987	
8,000	-0,01370	165,00	150,06	-0,01001	
8,020	-0,01371	164,98	150,06	-0,01013	
8,040	-0,01372	164,99	150,06	-0,01014	
8,060	-0,01372	164,94	150,07	-0,01007	
8,080	-0,01371	164,93	150,06	-0,00990	
8,100	-0,01370	165,04	150,06	-0,00980	
8,120	-0,01370	165,09	150,06	-0,00984	
8,140	-0,01370	165,02	150,07	-0,00996	
8,160	-0,01371	165,02	150,07	-0,01009	
8,180	-0,01370	165,03	150,07	-0,01013	
8,200	-0,01369	164,96	150,06	-0,01010	
8,220	-0,01370	164,94	150,06	-0,00997	
8,240	-0,01371	164,94	150,06	-0,00992	
8,260	-0,01371	164,92	150,06	-0,00988	
8,280	-0,01372	164,87	150,06	-0,00985	
8,300	-0,01372	164,90	150,06	-0,00990	
8,320	-0,01372	164,91	150,06	-0,00992	
8,340	-0,01370	164,87	150,07	-0,00997	
8,360	-0,01370	164,86	150,06	-0,00994	
8,380	-0,01369	164,91	150,06	-0,00987	
8,400	-0,01369	164,91	150,06	-0,00984	
8,420	-0,01369	164,85	150,06	-0,00983	
8,440	-0,01370	164,87	150,06	-0,00985	
8,460	-0,01371	164,89	150,06	-0,00994	
8,480	-0,01370	164,88	150,06	-0,01002	
8,500	-0,01370	164,89	150,06	-0,01006	
8,520	-0,01370	164,92	150,06	-0,01001	
8,540	-0,01370	164,93	150,06	-0,00989	
8,560	-0,01369	164,90	150,06	-0,00984	
8,580	-0,01368	164,83	150,06	-0,00983	
8,600	-0,01368	164,82	150,06	-0,00981	
8,620	-0,01369	164,83	150,06	-0,00992	
8,640	-0,01370	164,90	150,06	-0,01001	
8,660	-0,01370	164,96	150,06	-0,00999	
8,680	-0,01369	165,00	150,06	-0,00997	
8,700	-0,01369	164,98	150,06	-0,00995	
8,720	-0,01368	164,97	150,06	-0,00988	
8,740	-0,01367	165,00	150,06	-0,00983	
8,760	-0,01366	165,00	150,06	-0,00991	
8,780	-0,01367	164,95	150,06	-0,01007	
8,800	-0,01368	164,95	150,06	-0,01016	
8,820	-0,01368	164,95	150,06	-0,01012	
8,840	-0,01369	164,91	150,06	-0,00998	
8,860	-0,01368	164,90	150,06	-0,00985	
8,880	-0,01368	164,88	150,07	-0,00980	
8,900	-0,01367	164,88	150,06	-0,00984	
8,920	-0,01366	164,82	150,06	-0,00996	
8,940	-0,01368	164,85	150,06	-0,01000	
8,960	-0,01421	167,70	150,17	-0,01047	
8,980	-0,01360	144,97	150,04	-0,01143	
9,000	-0,01335	98,82	149,99	-0,01143	
9,020	-0,01355	54,08	150,03	-0,01090	
9,040	-0,01334	18,25	150,06	-0,01054	
9,060	-0,01076	-6,444	150,07	-0,01045	
9,080	-0,00530	-1,926	150,06	-0,01050	
9,100	0,00062	35,65	150,06	-0,01059	
9,120	0,00526	79,44	150,06	-0,01064	
9,140	0,00845	116,71	150,07	-0,01058	
9,160	0,01035	143,72	150,06	-0,01040	
9,180	0,01131	160,88	150,06	-0,01028	
9,200	0,01145	169,33	150,06	-0,01028	
9,220	0,01127	172,98	150,06	-0,01037	
9,240	0,01116	174,51	150,06	-0,01047	
9,260	0,01112	174,69	150,06	-0,01055	
9,280	0,01086	173,38	150,06	-0,01060	
9,300	0,01060	172,03	150,06	-0,01057	
9,320	0,01046	171,45	150,07	-0,01048	
9,340	0,01018	171,41	150,07	-0,01036	
9,360	0,00991	170,74	150,06	-0,01028	
9,380	0,00982	169,25	150,06	-0,01033	
9,400	0,00978	168,31	150,06	-0,01044	
9,420	0,00954	168,12	150,06	-0,01050	
9,440	0,00927	168,17	150,06	-0,01053	
9,460	0,00916	168,22	150,06	-0,01047	
9,480	0,00915	168,23	150,06	-0,01040	
9,500	0,00915	168,21	150,06	-0,01029	
9,520	0,00913	168,25	150,07	-0,01023	
9,540	0,00913	167,52	150,06	-0,01031	
9,560	0,00914	165,93	150,06	-0,01046	
9,580	0,00900	165,03	150,06	-0,01055	
9,600	0,00870	164,85	150,06	-0,01053	
9,620	0,00853	164,80	150,06	-0,01050	
9,640	0,00848	164,84	150,06	-0,01041	
9,660	0,00847	164,87	150,06	-0,01032	
9,680	0,00847	164,89	150,07	-0,01026	
9,700	0,00846	164,91	150,06	-0,01037	
9,720	0,00846	164,90	150,06	-0,01048	
9,740	0,00847	164,91	150,06	-0,01050	
9,760	0,00846	164,93	150,06	-0,01052	
9,780	0,00847	164,91	150,07	-0,01048	
9,800	0,00848	164,91	150,06	-0,01042	
9,820	0,00847	164,94	150,06	-0,01027	
9,840	0,00846	164,94	150,06	-0,00958	
9,860	0,00846	164,88	150,07	-0,00898	
9,880	0,00844	164,93	150,07	-0,00892	
9,900	0,00845	164,99	150,06	-0,00898	
9,920	0,00847	164,98	150,06	-0,00888	
9,940	0,00848	164,97	150,06	-0,00882	
9,960	0,00849	164,91	150,07	-0,00871	
9,980	0,00848	164,81	150,06	-0,00859	
10,00	0,00844	164,80	150,06	-0,00862	
10,02	0,00817	164,88	150,06	-0,00878	
10,04	0,00791	164,91	150,06	-0,00893	
10,06	0,00780	164,95	150,06	-0,00916	
10,08	0,00777	164,89	150,06	-0,00979	
10,10	0,00777	164,72	150,06	-0,01019	
10,12	0,00777	164,74	150,06	-0,01033	
10,14	0,00776	164,77	150,07	-0,01030	
10,16	0,00777	164,75	150,06	-0,01024	
10,18	0,00777	164,75	150,06	-0,01036	
10,20	0,00777	164,86	150,06	-0,01049	
10,22	0,00779	164,93	150,07	-0,01050	
10,24	0,00779	164,98	150,07	-0,01042	
10,26	0,00779	164,98	150,06	-0,01035	
10,28	0,00779	164,96	150,06	-0,01028	
10,30	0,00780	164,98	150,06	-0,01026	
10,32	0,00780	165,01	150,07	-0,01030	
10,34	0,00781	164,96	150,06	-0,01040	
10,36	0,00780	164,96	150,06	-0,01050	
10,38	0,00779	164,95	150,06	-0,01048	
10,40	0,00780	164,87	150,07	-0,01038	
10,42	0,00780	164,88	150,07	-0,01029	
10,44	0,00780	164,91	150,06	-0,01025	
10,46	0,00765	164,91	150,06	-0,01030	
10,48	0,00735	164,88	150,06	-0,01035	
10,50	0,00717	164,94	150,07	-0,01045	
10,52	0,00712	164,98	150,06	-0,01048	
10,54	0,00713	164,95	150,06	-0,01042	
10,56	0,00712	164,95	150,06	-0,01035	
10,58	0,00712	164,94	150,06	-0,01026	
10,60	0,00713	164,91	150,07	-0,01017	
10,62	0,00713	164,98	150,07	-0,01013	
10,64	0,00713	164,97	150,06	-0,01021	
10,66	0,00713	164,90	150,06	-0,01030	
10,68	0,00712	164,92	150,07	-0,01044	
10,70	0,00712	164,92	150,07	-0,01048	
10,72	0,00713	164,90	150,06	-0,01038	
10,74	0,00713	164,94	150,06	-0,01030	
10,76	0,00711	164,96	150,06	-0,01021	
10,78	0,00710	164,93	150,06	-0,01023	
10,80	0,00710	164,94	150,07	-0,01031	
10,82	0,00710	164,92	150,06	-0,01042	
10,84	0,00711	164,85	150,06	-0,01045	
10,86	0,00711	164,91	150,06	-0,01036	
10,88	0,00711	165,03	150,07	-0,01024	
10,90	0,00712	165,02	150,07	-0,01016	
10,92	0,00712	165,00	150,06	-0,01020	
10,94	0,00710	164,99	150,06	-0,01027	
10,96	0,00709	164,94	150,06	-0,01032	
10,98	0,00708	164,92	150,07	-0,01039	
11,00	0,00709	164,99	150,06	-0,01040	
11,02	0,00710	165,02	150,06	-0,01040	
11,04	0,00710	165,03	150,06	-0,01033	
11,06	0,00710	165,03	150,07	-0,01022	
11,08	0,00710	164,99	150,07	-0,01017	
11,10	0,00710	164,98	150,07	-0,01024	
11,12	0,00710	164,94	150,06	-0,01036	
11,14	0,00710	164,94	150,06	-0,01041	
11,16	0,00711	164,99	150,07	-0,01043	
11,18	0,00706	165,06	150,07	-0,01037	
11,20	0,00681	165,06	150,07	-0,01023	
11,22	0,00655	165,02	150,06	-0,01013	
11,24	0,00646	165,03	150,06	-0,01014	
11,26	0,00645	165,02	150,06	-0,01022	
11,28	0,00646	164,94	150,07	-0,01026	
11,30	0,00646	164,94	150,06	-0,01033	
11,32	0,00646	164,98	150,06	-0,01040	
11,34	0,00647	164,95	150,06	-0,01035	
11,36	0,00647	164,97	150,07	-0,01027	
11,38	0,00648	164,94	150,07	-0,01017	
11,40	0,00648	164,90	150,06	-0,01011	
11,42	0,00648	164,87	150,06	-0,01024	
11,44	0,00647	164,85	150,06	-0,01038	
11,46	0,00647	164,84	150,07	-0,01042	
11,48	0,00647	164,85	150,07	-0,01040	
11,50	0,00646	164,97	150,06	-0,01028	
11,52	0,00647	165,02	150,06	-0,01017	
11,54	0,00649	165,03	150,06	-0,01006	
11,56	0,00649	164,99	150,07	-0,01002	
11,58	0,00648	164,99	150,07	-0,01010	
11,60	0,00647	165,03	150,06	-0,01027	
11,62	0,00646	165,05	150,06	-0,01045	
11,64	0,00645	165,04	150,06	-0,01046	
11,66	0,00645	165,06	150,07	-0,01030	
11,68	0,00645	165,09	150,07	-0,01021	
11,70	0,00646	164,96	150,06	-0,01016	
11,72	0,00646	164,84	150,06	-0,01007	
11,74	0,00645	164,89	150,06	-0,01011	
11,76	0,00646	164,91	150,07	-0,01027	
11,78	0,00647	164,88	150,06	-0,01037	
11,80	0,00647	164,93	150,06	-0,01034	
11,82	0,00645	164,95	150,06	-0,01023	
11,84	0,00644	164,93	150,06	-0,01017	
11,86	0,00644	165,01	150,07	-0,01012	
11,88	0,00644	165,01	150,06	-0,01010	
11,90	0,00644	164,96	150,06	-0,01020	
11,92	0,00643	164,99	150,06	-0,01032	
11,94	0,00645	164,99	150,06	-0,01040	
11,96	0,00634	165,00	150,06	-0,01041	
11,98	0,00602	165,05	150,06	-0,01032	
12,00	0,00584	165,00	150,06	-0,01018	
12,02	0,00581	164,94	150,07	-0,01005	
12,04	0,00581	165,05	150,07	-0,01004	
12,06	0,00580	165,13	150,07	-0,01019	
12,08	0,00581	165,04	150,06	-0,01031	
12,10	0,00581	164,95	150,06	-0,01035	
12,12	0,00580	164,92	150,07	-0,01034	
12,14	0,00581	164,91	150,07	-0,01026	
12,16	0,00580	164,97	150,06	-0,01009	
12,18	0,00580	165,07	150,06	-0,01001	
12,20	0,00580	164,99	150,06	-0,01006	
12,22	0,00579	164,89	150,07	-0,01021	
12,24	0,00578	164,87	150,07	-0,01037	
12,26	0,00580	164,86	150,06	-0,01036	
12,28	0,00582	164,89	150,06	-0,01037	
12,30	0,00581	164,96	150,06	-0,01032	
12,32	0,00580	164,97	150,06	-0,01014	
12,34	0,00580	164,98	150,06	-0,01000	
12,36	0,00580	165,08	150,06	-0,01002	
12,38	0,00581	165,08	150,06	-0,01013	
12,40	0,00580	165,00	150,07	-0,01025	
12,42	0,00579	164,96	150,07	-0,01034	
12,44	0,00578	164,93	150,06	-0,01035	
12,46	0,00577	164,92	150,06	-0,01031	
12,48	0,00576	164,94	150,07	-0,01021	
12,50	0,00577	164,84	150,07	-0,01004	
12,52	0,00579	164,77	150,06	-0,01003	
12,54	0,00579	164,83	150,06	-0,01014	
12,56	0,00579	164,85	150,06	-0,01022	
12,58	0,00579	164,94	150,06	-0,01029	
12,60	0,00578	164,98	150,07	-0,01037	
12,62	0,00578	164,92	150,06	-0,01030	
12,64	0,00580	164,88	150,06	-0,01022	
12,66	0,00580	164,99	150,06	-0,01017	
12,68	0,00581	165,06	150,07	-0,01004	
12,70	0,00581	165,04	150,07	-0,01007	
12,72	0,00581	165,03	150,06	-0,01026	
12,74	0,00580	164,94	150,06	-0,01042	
12,76	0,00581	164,91	150,06	-0,01042	
12,78	0,00580	164,97	150,07	-0,01032	
12,80	0,00581	165,02	150,07	-0,01018	
12,82	0,00581	165,06	150,06	-0,01009	
12,84	0,00579	165,05	150,06	-0,01011	
12,86	0,00577	164,97	150,06	-0,01018	
12,88	0,00578	164,96	150,07	-0,01028	
12,90	0,00578	164,97	150,06	-0,01035	
12,92	0,00577	164,96	150,06	-0,01031	
12,94	0,00578	164,93	150,06	-0,01024	
12,96	0,00573	164,96	150,07	-0,01017	
12,98	0,00548	164,98	150,07	-0,01013	
13,00	0,00522	164,94	150,06	-0,01007	
13,02	0,00510	164,97	150,06	-0,01016	
13,04	0,00510	164,99	150,06	-0,01030	
13,06	0,00512	164,95	150,06	-0,01033	
13,08	0,00513	164,91	150,07	-0,01034	
13,10	0,00514	164,91	150,06	-0,01031	
13,12	0,00514	164,87	150,06	-0,01019	
13,14	0,00512	164,86	150,06	-0,01009	
13,16	0,00512	164,88	150,07	-0,01011	
13,18	0,00514	164,85	150,07	-0,01023	
13,20	0,00514	164,86	150,06	-0,01026	
13,22	0,00514	164,95	150,06	-0,01028	
13,24	0,00514	165,00	150,07	-0,01031	
13,26	0,00514	165,10	150,07	-0,01025	
13,28	0,00514	165,14	150,07	-0,01014	
13,30	0,00514	165,03	150,06	-0,01000	
13,32	0,00512	165,03	150,06	-0,01002	
13,34	0,00511	165,16	150,06	-0,01017	
13,36	0,00511	165,19	150,07	-0,01032	
13,38	0,00512	165,14	150,06	-0,01036	
13,40	0,00511	165,06	150,06	-0,01030	
13,42	0,00511	165,07	150,06	-0,01020	
13,44	0,00513	165,05	150,07	-0,01009	
13,46	0,00512	164,99	150,07	-0,01000	
13,48	0,00513	164,98	150,06	-0,01003	
13,50	0,00513	164,91	150,06	-0,01019	
13,52	0,00513	164,85	150,06	-0,01028	
13,54	0,00512	164,90	150,07	-0,01036	
13,56	0,00513	164,95	150,07	-0,01037	
13,58	0,00513	164,94	150,06	-0,01022	
13,60	0,00513	164,92	150,06	-0,01007	
13,62	0,00512	164,87	150,06	-0,01004	
13,64	0,00512	164,90	150,07	-0,01012	
13,66	0,00510	164,98	150,07	-0,01023	
13,68	0,00511	164,99	150,06	-0,01034	
13,70	0,00512	165,05	150,06	-0,01038	
13,72	0,00512	165,08	150,06	-0,01032	
13,74	0,00513	164,99	150,07	-0,01020	
13,76	0,00514	164,99	150,06	-0,01013	
13,78	0,00514	165,02	150,06	-0,01015	
13,80	0,00515	164,95	150,06	-0,01016	
13,82	0,00513	164,96	150,07	-0,01021	
13,84	0,00512	165,00	150,07	-0,01030	
13,86	0,00512	164,97	150,07	-0,01031	
13,88	0,00512	164,97	150,06	-0,01027	
13,90	0,00511	164,96	150,06	-0,01022	
13,92	0,00498	164,90	150,06	-0,01017	
13,94	0,00468	164,89	150,07	-0,01017	
13,96	0,00449	164,90	150,06	-0,01019	
13,98	0,00445	164,90	150,06	-0,01025	
14,00	0,00446	164,95	150,06	-0,01032	
14,02	0,00446	165,00	150,07	-0,01031	
14,04	0,00447	164,99	150,07	-0,01029	
14,06	0,00447	164,96	150,06	-0,01017	
14,08	0,00446	165,01	150,06	-0,01009	
14,10	0,00446	165,03	150,06	-0,01012	
14,12	0,00446	165,07	150,06	-0,01026	
14,14	0,00445	165,14	150,06	-0,01036	
14,16	0,00445	165,14	150,06	-0,01040	
14,18	0,00446	165,11	150,06	-0,01039	
14,20	0,00446	165,03	150,07	-0,01029	
14,22	0,00445	164,97	150,07	-0,01015	
14,24	0,00445	164,98	150,06	-0,01006	
14,26	0,00445	165,07	150,06	-0,01011	
14,28	0,00445	165,08	150,06	-0,01023	
14,30	0,00445	164,99	150,06	-0,01028	
14,32	0,00444	164,98	150,06	-0,01037	
14,34	0,00443	164,96	150,06	-0,01034	
14,36	0,00444	164,86	150,06	-0,01020	
14,38	0,00445	164,85	150,06	-0,01002	
14,40	0,00446	164,90	150,07	-0,00990	
14,42	0,00446	164,84	150,06	-0,00994	
14,44	0,00446	164,86	150,06	-0,01008	
14,46	0,00446	164,92	150,06	-0,01020	
14,48	0,00446	164,92	150,07	-0,01027	
14,50	0,00445	164,98	150,07	-0,01025	
14,52	0,00446	165,02	150,06	-0,01011	
14,54	0,00448	164,99	150,06	-0,01005	
14,56	0,00448	164,93	150,06	-0,01009	
14,58	0,00447	164,93	150,07	-0,01018	
14,60	0,00449	164,95	150,06	-0,01025	
14,62	0,00448	164,99	150,06	-0,01022	
14,64	0,00447	165,03	150,06	-0,01023	
14,66	0,00447	164,98	150,06	-0,01021	
14,68	0,00447	165,00	150,07	-0,01011	
14,70	0,00446	165,04	150,06	-0,01003	
14,72	0,00447	164,96	150,06	-0,00998	
14,74	0,00446	164,94	150,06	-0,01005	
14,76	0,00446	164,97	150,07	-0,01025	
14,78	0,00447	164,94	150,07	-0,01038	
14,80	0,00436	165,50	150,08	-0,01037	
14,82	0,00425	164,98	150,10	-0,01030	
14,84	0,00434	157,68	150,08	-0,01029	
14,86	0,00442	145,13	150,06	-0,01030	
14,88	0,00443	132,49	150,06	-0,01025	
14,90	0,00455	120,15	150,06	-0,01025	
14,92	0,00513	107,14	150,06	-0,01031	
14,94	0,00635	99,18	150,05	-0,01041	
14,96	0,00778	96,65	150,06	-0,01044	
14,98	0,00917	95,36	150,06	-0,01047	
15,00	0,01064	94,58	150,06	-0,01042	
15,02	0,01229	95,08	150,05	-0,01033	
15,04	0,01398	97,92	150,06	-0,01023	
15,06	0,01569	101,69	150,06	-0,01017	
15,08	0,01722	105,79	150,06	-0,01024	
15,10	0,01860	109,38	150,06	-0,01038	
15,12	0,01995	110,98	150,06	-0,01046	
15,14	0,02131	111,21	150,06	-0,01046	
15,16	0,02262	110,55	150,06	-0,01036	
15,18	0,02371	109,02	150,06	-0,01025	
15,20	0,02477	108,04	150,06	-0,01025	
15,22	0,02600	107,86	150,06	-0,01024	
15,24	0,02735	107,92	150,06	-0,01024	
15,26	0,02869	107,92	150,05	-0,01035	
15,28	0,03004	107,92	150,06	-0,01047	
15,30	0,03138	107,89	150,06	-0,01056	
15,32	0,03271	107,87	150,06	-0,01054	
15,34	0,03404	107,89	150,06	-0,01039	
15,36	0,03537	107,91	150,06	-0,01028	
15,38	0,03670	107,88	150,06	-0,01025	
15,40	0,03804	107,92	150,06	-0,01028	
15,42	0,03939	108,00	150,06	-0,01040	
15,44	0,04074	108,00	150,06	-0,01049	
15,46	0,04208	108,01	150,06	-0,01050	
15,48	0,04344	108,00	150,06	-0,01041	
15,50	0,04479	107,98	150,06	-0,01031	
15,52	0,04611	107,99	150,06	-0,01031	
15,54	0,04745	107,97	150,06	-0,01029	
15,56	0,04879	107,95	150,06	-0,01036	
15,58	0,05013	107,92	150,06	-0,01046	
15,60	0,05148	107,77	150,05	-0,01055	
15,62	0,05283	106,52	150,06	-0,01056	
15,64	0,05417	105,12	150,07	-0,01048	
15,66	0,05552	104,54	150,06	-0,01037	
15,68	0,05698	104,55	150,06	-0,01033	
15,70	0,05863	104,71	150,06	-0,01031	
15,72	0,06019	104,74	150,06	-0,01037	
15,74	0,06160	104,69	150,06	-0,01048	
15,76	0,06294	104,80	150,06	-0,01048	
15,78	0,06426	105,36	150,06	-0,01044	
15,80	0,06561	105,15	150,06	-0,01038	
15,82	0,06696	104,76	150,06	-0,01027	
15,84	0,06830	104,60	150,06	-0,01025	
15,86	0,06963	104,60	150,06	-0,01024	
15,88	0,07096	104,66	150,06	-0,01032	
15,90	0,07231	104,61	150,06	-0,01046	
15,92	0,07389	104,54	150,06	-0,01053	
15,94	0,07550	104,58	150,06	-0,01050	
15,96	0,07695	104,70	150,06	-0,01036	
15,98	0,07831	104,04	150,07	-0,01027	
16,00	0,07966	102,38	150,06	-0,01027	
16,02	0,08100	101,33	150,05	-0,01033	
16,04	0,08234	101,08	150,06	-0,01039	
16,06	0,08380	101,11	150,06	-0,01046	
16,08	0,08544	101,13	150,06	-0,01049	
16,10	0,08700	101,09	150,06	-0,01049	
16,12	0,08840	101,07	150,06	-0,01043	
16,14	0,08974	101,12	150,07	-0,01031	
16,16	0,09109	101,18	150,07	-0,01023	
16,18	0,09267	101,17	150,06	-0,01023	
16,20	0,09431	101,09	150,06	-0,01035	
16,22	0,09577	101,10	150,06	-0,01044	
16,24	0,09714	101,13	150,06	-0,01041	
16,26	0,09851	101,12	150,06	-0,01033	
16,28	0,1001	101,14	150,06	-0,01025	
16,30	0,1017	101,23	150,06	-0,01021	
16,32	0,1032	101,19	150,06	-0,01020	
16,34	0,1045	101,17	150,06	-0,01031	
16,36	0,1059	101,15	150,06	-0,01044	
16,38	0,1075	101,11	150,06	-0,01051	
16,40	0,1091	101,11	150,06	-0,01047	
16,42	0,1106	101,15	150,06	-0,01038	
16,44	0,1119	101,13	150,06	-0,01027	
16,46	0,1135	101,13	150,06	-0,01023	
16,48	0,1152	101,20	150,06	-0,01032	
16,50	0,1166	101,23	150,07	-0,01041	
16,52	0,1181	101,11	150,06	-0,01045	
16,54	0,1197	99,87	150,06	-0,01045	
16,56	0,1213	98,43	150,06	-0,01034	
16,58	0,1228	97,76	150,06	-0,01020	
16,60	0,1244	97,67	150,06	-0,01017	
16,62	0,1260	97,72	150,06	-0,01015	
16,64	0,1274	97,72	150,06	-0,01018	
16,66	0,1290	97,83	150,06	-0,01031	
16,68	0,1306	98,93	150,06	-0,01043	
16,70	0,1320	99,18	150,06	-0,01047	
16,72	0,1336	98,44	150,06	-0,01042	
16,74	0,1353	97,92	150,06	-0,01028	
16,76	0,1367	97,82	150,06	-0,01015	
16,78	0,1384	97,83	150,06	-0,01015	
16,80	0,1400	97,85	150,06	-0,01026	
16,82	0,1415	97,85	150,06	-0,01042	
16,84	0,1431	97,85	150,06	-0,01054	
16,86	0,1447	97,85	150,07	-0,01049	
16,88	0,1463	97,86	150,18	-0,01039	
16,90	0,1480	97,28	150,82	-0,01029	
16,92	0,1495	95,75	151,99	-0,01024	
16,94	0,1510	94,75	153,37	-0,01021	
16,96	0,1526	94,51	155,38	-0,01025	
16,98	0,1542	94,51	157,87	-0,01037	
17,00	0,1558	94,48	160,04	-0,01049	
17,02	0,1575	94,45	161,40	-0,01049	
17,04	0,1592	94,45	162,23	-0,01039	
17,06	0,1608	94,44	163,19	-0,01030	
17,08	0,1625	94,44	164,57	-0,01022	
17,10	0,1641	94,49	166,40	-0,01024	
17,12	0,1657	94,53	168,19	-0,01031	
17,14	0,1674	94,49	169,87	-0,01046	
17,16	0,1690	94,45	171,27	-0,01054	
17,18	0,1707	94,42	172,57	-0,01049	
17,20	0,1723	94,46	173,95	-0,01038	
17,22	0,1739	94,49	175,50	-0,01028	
17,24	0,1756	94,41	176,73	-0,01023	
17,26	0,1773	94,40	177,75	-0,01026	
17,28	0,1789	94,49	178,83	-0,01041	
17,30	0,1806	94,50	180,29	-0,01051	
17,32	0,1824	94,47	181,69	-0,01054	
17,34	0,1842	94,27	182,87	-0,01049	
17,36	0,1858	93,06	184,13	-0,01040	
17,38	0,1875	91,75	185,59	-0,01026	
17,40	0,1892	91,20	187,13	-0,01015	
17,42	0,1909	91,08	188,76	-0,01018	
17,44	0,1925	91,07	190,34	-0,01033	
17,46	0,1943	91,08	191,73	-0,01044	
17,48	0,1961	91,11	193,11	-0,01047	
17,50	0,1979	91,06	194,45	-0,01043	
17,52	0,1996	91,06	195,79	-0,01038	
17,54	0,2013	91,03	197,16	-0,01033	
17,56	0,2030	91,02	198,40	-0,01027	
17,58	0,2048	91,04	199,63	-0,01027	
17,60	0,2065	90,99	200,91	-0,01035	
17,62	0,2082	90,95	202,35	-0,01042	
17,64	0,2099	90,36	203,84	-0,01041	
17,66	0,2117	88,88	205,26	-0,01038	
17,68	0,2135	87,93	206,68	-0,01031	
17,70	0,2153	87,62	208,20	-0,01021	
17,72	0,2170	87,60	209,69	-0,01014	
17,74	0,2189	87,65	211,15	-0,01019	
17,76	0,2207	87,70	212,59	-0,01037	
17,78	0,2224	87,74	213,98	-0,01047	
17,80	0,2242	87,74	215,35	-0,01044	
17,82	0,2260	87,78	216,76	-0,01036	
17,84	0,2278	87,78	218,20	-0,01036	
17,86	0,2296	87,81	219,64	-0,01032	
17,88	0,2314	87,85	221,04	-0,01028	
17,90	0,2333	87,86	222,44	-0,01031	
17,92	0,2352	87,79	223,90	-0,01038	
17,94	0,2370	87,79	225,36	-0,01043	
17,96	0,2388	87,27	226,73	-0,01041	
17,98	0,2406	85,71	228,04	-0,01035	
18,00	0,2424	84,64	229,35	-0,01030	
18,02	0,2443	84,35	230,72	-0,01026	
18,04	0,2462	84,35	232,16	-0,01025	
18,06	0,2481	84,35	233,68	-0,01028	
18,08	0,2500	84,42	235,19	-0,01035	
18,10	0,2518	84,51	236,62	-0,01039	
18,12	0,2536	84,51	237,99	-0,01043	
18,14	0,2554	84,43	239,39	-0,01041	
18,16	0,2574	84,38	240,82	-0,01031	
18,18	0,2594	84,39	242,25	-0,01027	
18,20	0,2612	84,34	243,68	-0,01028	
18,22	0,2631	84,33	245,12	-0,01033	
18,24	0,2650	84,41	246,57	-0,01045	
18,26	0,2669	84,47	248,05	-0,01051	
18,28	0,2689	84,44	249,53	-0,01051	
18,30	0,2708	84,42	251,02	-0,01042	
18,32	0,2726	84,40	252,49	-0,01026	
18,34	0,2744	83,76	253,93	-0,01020	
18,36	0,2763	82,22	255,39	-0,01028	
18,38	0,2783	81,24	256,93	-0,01045	
18,40	0,2802	80,98	259,00	-0,01050	
18,42	0,2821	80,97	262,24	-0,01052	
18,44	0,2840	80,97	266,33	-0,01053	
18,46	0,2860	80,97	269,53	-0,01042	
18,48	0,2880	81,03	271,58	-0,01031	
18,50	0,2899	81,08	273,21	-0,01029	
18,52	0,2917	81,01	274,84	-0,01032	
18,54	0,2937	80,89	276,39	-0,01039	
18,56	0,2957	80,88	277,80	-0,01045	
18,58	0,2977	80,91	279,17	-0,01046	
18,60	0,2998	80,95	280,66	-0,01041	
18,62	0,3018	80,96	282,22	-0,01027	
18,64	0,3038	80,94	283,78	-0,01017	
18,66	0,3058	80,84	285,30	-0,01018	
18,68	0,3078	79,65	286,76	-0,01028	
18,70	0,3098	78,20	288,29	-0,01044	
18,72	0,3119	77,58	289,79	-0,01056	
18,74	0,3139	77,49	291,30	-0,01048	
18,76	0,3159	77,55	292,85	-0,01033	
18,78	0,3179	77,61	294,41	-0,01027	
18,80	0,3199	77,66	295,94	-0,01023	
18,82	0,3219	77,69	297,42	-0,01020	
18,84	0,3241	77,64	298,92	-0,01019	
18,86	0,3263	77,64	300,49	-0,01032	
18,88	0,3283	77,67	302,07	-0,01047	
18,90	0,3303	77,66	303,63	-0,01052	
18,92	0,3323	77,70	305,23	-0,01042	
18,94	0,3343	77,71	306,82	-0,01029	
18,96	0,3365	77,65	308,47	-0,01019	
18,98	0,3386	77,66	310,18	-0,01017	
19,00	0,3407	77,74	311,77	-0,01024	
19,02	0,3428	77,75	313,34	-0,01036	
19,04	0,3448	77,72	314,96	-0,01042	
19,06	0,3468	77,16	316,63	-0,01038	
19,08	0,3488	75,69	318,37	-0,01032	
19,10	0,3508	74,68	320,07	-0,01025	
19,12	0,3530	74,41	321,79	-0,01024	
19,14	0,3551	74,42	323,51	-0,01024	
19,16	0,3572	74,39	325,20	-0,01026	
19,18	0,3593	74,34	326,94	-0,01033	
19,20	0,3615	74,29	328,69	-0,01037	
19,22	0,3637	74,25	330,41	-0,01039	
19,24	0,3659	74,26	332,18	-0,01038	
19,26	0,3680	74,32	333,95	-0,01030	
19,28	0,3702	74,22	335,74	-0,01024	
19,30	0,3723	73,01	337,54	-0,01027	
19,32	0,3744	71,53	339,38	-0,01036	
19,34	0,3765	70,89	341,22	-0,01041	
19,36	0,3787	70,84	343,05	-0,01042	
19,38	0,3810	70,90	344,93	-0,01032	
19,40	0,3832	70,90	346,82	-0,01023	
19,42	0,3854	70,97	348,69	-0,01021	
19,44	0,3877	71,00	350,63	-0,01013	
19,46	0,3899	70,98	352,59	-0,01016	
19,48	0,3921	70,95	354,50	-0,01035	
19,50	0,3944	70,88	356,45	-0,01053	
19,52	0,3966	70,86	358,44	-0,01056	
19,54	0,3989	70,92	360,43	-0,01043	
19,56	0,4012	70,55	362,39	-0,01023	
19,58	0,4035	70,83	363,95	-0,01009	
19,60	0,4057	77,70	364,77	-0,01007	
19,62	0,4078	91,56	365,10	-0,01015	
19,64	0,4100	106,73	365,31	-0,01029	
19,66	0,4119	120,69	365,64	-0,01030	
19,68	0,4132	133,61	366,15	-0,01019	
19,70	0,4140	139,82	366,87	-0,01015	
19,72	0,4146	138,97	367,76	-0,01014	
19,74	0,4151	136,68	368,71	-0,01007	
19,76	0,4157	135,90	369,59	-0,01011	
19,78	0,4164	136,55	370,46	-0,01025	
19,80	0,4173	138,68	371,33	-0,01037	
19,82	0,4179	141,18	372,23	-0,01042	
19,84	0,4185	141,67	373,17	-0,01032	
19,86	0,4189	141,06	374,01	-0,01017	
19,88	0,4193	139,97	374,84	-0,01012	
19,90	0,4199	136,85	375,79	-0,01017	
19,92	0,4206	133,70	376,74	-0,01021	
19,94	0,4213	132,96	377,61	-0,01028	
19,96	0,4218	133,45	378,44	-0,01033	
19,98	0,4223	132,54	379,32	-0,01031	
20,00	0,4230	131,45	380,25	-0,01029	
20,02	0,4237	131,76	381,16	-0,01020	
20,04	0,4242	132,37	382,03	-0,01012	
20,06	0,4248	132,06	382,87	-0,01015	
20,08	0,4256	131,59	383,76	-0,01026	
20,10	0,4263	131,19	384,71	-0,01039	
20,12	0,4269	130,85	385,65	-0,01039	
20,14	0,4275	131,56	386,51	-0,01030	
20,16	0,4280	132,32	387,34	-0,01022	
20,18	0,4287	131,75	388,26	-0,01018	
20,20	0,4294	131,39	389,17	-0,01016	
20,22	0,4301	131,39	390,06	-0,01017	
20,24	0,4307	129,89	391,00	-0,01031	
20,26	0,4312	127,98	391,86	-0,01041	
20,28	0,4317	128,41	392,66	-0,01043	
20,30	0,4323	128,31	393,60	-0,01038	
20,32	0,4329	126,99	394,55	-0,01027	
20,34	0,4335	126,44	395,41	-0,01011	
20,36	0,4341	126,05	396,32	-0,01004	
20,38	0,4348	124,90	397,23	-0,01007	
20,40	0,4353	125,29	398,09	-0,01018	
20,42	0,4359	126,14	398,98	-0,01031	
20,44	0,4365	124,77	399,93	-0,01035	
20,46	0,4371	123,73	400,81	-0,01034	
20,48	0,4376	124,78	401,62	-0,01024	
20,50	0,4382	124,34	402,54	-0,01015	
20,52	0,4388	123,29	403,42	-0,01013	
20,54	0,4394	124,04	404,23	-0,01006	
20,56	0,4399	123,78	405,19	-0,01015	
20,58	0,4406	121,98	406,11	-0,01031	
20,60	0,4412	122,07	406,96	-0,01034	
20,62	0,4417	121,70	407,90	-0,01031	
20,64	0,4423	120,40	408,81	-0,01020	
20,66	0,4428	120,95	409,65	-0,01007	
20,68	0,4433	120,65	410,61	-0,01005	
20,70	0,4439	118,61	411,54	-0,01011	
20,72	0,4445	118,54	412,36	-0,01020	
20,74	0,4450	119,58	413,19	-0,01027	
20,76	0,4456	119,06	414,06	-0,01036	
20,78	0,4462	118,36	414,97	-0,01040	
20,80	0,4467	118,68	415,88	-0,01031	
20,82	0,4472	119,06	416,73	-0,01018	
20,84	0,4477	119,10	417,63	-0,01016	
20,86	0,4483	118,22	418,60	-0,01022	
20,88	0,4489	118,94	419,46	-0,01028	
20,90	0,4495	120,51	420,29	-0,01031	
20,92	0,4500	119,53	421,21	-0,01024	
20,94	0,4506	118,45	422,09	-0,01015	
20,96	0,4512	119,67	422,95	-0,01013	
20,98	0,4518	119,25	423,86	-0,01010	
21,00	0,4523	118,30	424,76	-0,01003	
21,02	0,4529	118,83	425,66	-0,01009	
21,04	0,4535	118,62	426,57	-0,01018	
21,06	0,4540	118,19	427,45	-0,01023	
21,08	0,4546	118,70	428,31	-0,01029	
21,10	0,4553	118,69	429,22	-0,01029	
21,12	0,4558	117,63	430,17	-0,01016	
21,14	0,4564	117,15	431,03	-0,01010	
21,16	0,4569	117,83	431,85	-0,01014	
21,18	0,4576	117,50	432,76	-0,01017	
21,20	0,4583	116,59	433,66	-0,01021	
21,22	0,4589	116,75	434,53	-0,01025	
21,24	0,4594	116,28	435,46	-0,01027	
21,26	0,4600	115,21	436,36	-0,01018	
21,28	0,4606	114,78	437,23	-0,01010	
21,30	0,4612	114,16	438,12	-0,00999	
21,32	0,4617	113,24	438,98	-0,01004	
21,34	0,4623	113,13	439,89	-0,01020	
21,36	0,4628	112,28	440,83	-0,01029	
21,38	0,4633	112,13	441,68	-0,01032	
21,40	0,4640	112,29	442,54	-0,01029	
21,42	0,4647	111,31	443,45	-0,01019	
21,44	0,4652	111,17	444,31	-0,01009	
21,46	0,4657	111,87	445,16	-0,01007	
21,48	0,4664	110,73	446,08	-0,01012	
21,50	0,4671	108,64	447,07	-0,01019	
21,52	0,4677	109,51	447,90	-0,01025	
21,54	0,4683	111,68	448,66	-0,01033	
21,56	0,4690	111,19	449,61	-0,01033	
21,58	0,4697	110,06	450,60	-0,01016	
21,60	0,4702	111,02	451,48	-0,01001	
21,62	0,4708	111,61	452,30	-0,00996	
21,64	0,4714	109,73	453,16	-0,01004	
21,66	0,4721	108,67	454,08	-0,01017	
21,68	0,4726	110,14	454,96	-0,01025	
21,70	0,4731	110,49	455,87	-0,01023	
21,72	0,4738	109,59	456,81	-0,01018	
21,74	0,4744	110,33	457,66	-0,01007	
21,76	0,4750	110,97	458,51	-0,01000	
21,78	0,4755	110,07	459,41	-0,01007	
21,80	0,4761	109,23	460,31	-0,01016	
21,82	0,4766	109,57	461,16	-0,01022	
21,84	0,4772	108,68	462,06	-0,01024	
21,86	0,4778	107,29	462,97	-0,01018	
21,88	0,4784	107,28	463,83	-0,01011	
21,90	0,4790	107,48	464,76	-0,01008	
21,92	0,4796	106,61	465,67	-0,01006	
21,94	0,4801	105,95	466,54	-0,01004	
21,96	0,4808	105,53	467,48	-0,01011	
21,98	0,4815	105,50	468,37	-0,01025	
22,00	0,4820	106,36	469,18	-0,01032	
22,02	0,4825	106,57	470,10	-0,01032	
22,04	0,4832	105,67	471,01	-0,01022	
22,06	0,4838	106,13	471,85	-0,01007	
22,08	0,4844	105,29	472,80	-0,00998	
22,10	0,4850	102,99	473,73	-0,01003	
22,12	0,4855	102,93	474,58	-0,01022	
22,14	0,4862	103,40	475,51	-0,01034	
22,16	0,4869	102,22	476,37	-0,01033	
22,18	0,4875	102,65	477,17	-0,01022	
22,20	0,4882	102,97	478,13	-0,01013	
22,22	0,4889	101,63	479,07	-0,01007	
22,24	0,4895	101,83	479,91	-0,00997	
22,26	0,4900	101,94	480,84	-0,00997	
22,28	0,4906	100,51	481,72	-0,01014	
22,30	0,4913	100,47	482,57	-0,01031	
22,32	0,4920	100,13	483,51	-0,01031	
22,34	0,4926	99,43	484,37	-0,01021	
22,36	0,4932	100,29	485,22	-0,01006	
22,38	0,4939	100,82	486,17	-0,00999	
22,40	0,4946	100,73	487,02	-0,01003	
22,42	0,4952	102,02	487,89	-0,01003	
22,44	0,4959	101,87	488,84	-0,01012	
22,46	0,4966	101,51	489,69	-0,01016	
22,48	0,4972	102,89	490,56	-0,01019	
22,50	0,4980	102,30	491,51	-0,01021	
22,52	0,4986	101,48	492,36	-0,01011	
22,54	0,4992	102,32	493,23	-0,01000	
22,56	0,4999	101,48	494,16	-0,00992	
22,58	0,5006	101,14	495,00	-0,00992	
22,60	0,5012	102,04	495,90	-0,01002	
22,62	0,5020	101,24	496,85	-0,01017	
22,64	0,5026	100,51	497,70	-0,01019	
22,66	0,5033	100,45	498,61	-0,01014	
22,68	0,5040	99,70	499,54	-0,01010	
22,70	0,5046	101,05	500,34	-0,00997	
22,72	0,5053	102,34	501,24	-0,00992	
22,74	0,5060	101,24	502,20	-0,00999	
22,76	0,5066	101,50	503,05	-0,01010	
22,78	0,5072	102,25	503,97	-0,01023	
22,80	0,5078	100,81	504,88	-0,01029	
22,82	0,5084	100,30	505,70	-0,01019	
22,84	0,5091	101,07	506,61	-0,01007	
22,86	0,5098	100,27	507,53	-0,01000	
22,88	0,5104	100,01	508,38	-0,00996	
22,90	0,5110	100,26	509,29	-0,00999	
22,92	0,5117	100,30	510,15	-0,01013	
22,94	0,5123	101,42	510,98	-0,01024	
22,96	0,5131	101,16	511,97	-0,01023	
22,98	0,5137	99,83	512,88	-0,01014	
23,00	0,5143	100,34	513,73	-0,01015	
23,02	0,5150	100,20	514,67	-0,01013	
23,04	0,5157	99,96	515,54	-0,01008	
23,06	0,5163	101,87	516,37	-0,01006	
23,08	0,5171	101,99	517,31	-0,01014	
23,10	0,5177	101,14	518,13	-0,01021	
23,12	0,5184	102,28	518,95	-0,01021	
23,14	0,5191	101,97	519,97	-0,01019	
23,16	0,5198	100,96	520,90	-0,01005	
23,18	0,5204	102,01	521,76	-0,00999	
23,20	0,5211	101,94	522,64	-0,00999	
23,22	0,5218	100,37	523,47	-0,01009	
23,24	0,5224	100,30	524,38	-0,01026	
23,26	0,5232	100,23	525,34	-0,01027	
23,28	0,5238	100,89	526,13	-0,01018	
23,30	0,5244	101,65	527,01	-0,01014	
23,32	0,5252	99,65	528,02	-0,01005	
23,34	0,5258	99,36	528,87	-0,00995	
23,36	0,5266	100,08	529,75	-0,00994	
23,38	0,5273	98,55	530,67	-0,01006	
23,40	0,5279	98,51	531,45	-0,01022	
23,42	0,5286	99,76	532,36	-0,01028	
23,44	0,5293	98,01	533,35	-0,01026	
23,46	0,5298	96,50	534,20	-0,01012	
23,48	0,5305	96,68	535,11	-0,01007	
23,50	0,5312	95,93	536,00	-0,01006	
23,52	0,5319	96,38	536,77	-0,01006	
23,54	0,5327	96,55	537,69	-0,01013	
23,56	0,5335	95,58	538,63	-0,01025	
23,58	0,5342	96,25	539,43	-0,01028	
23,60	0,5348	96,49	540,38	-0,01024	
23,62	0,5356	94,95	541,34	-0,01014	
23,64	0,5362	95,12	542,18	-0,01010	
23,66	0,5369	94,65	543,09	-0,01010	
23,68	0,5376	92,74	543,98	-0,01015	
23,70	0,5382	93,24	544,79	-0,01024	
23,72	0,5389	93,87	545,70	-0,01022	
23,74	0,5396	92,58	546,59	-0,01016	
23,76	0,5404	91,64	547,43	-0,01016	
23,78	0,5412	90,44	548,39	-0,01010	
23,80	0,5419	89,48	549,28	-0,01001	
23,82	0,5426	89,84	550,13	-0,01008	
23,84	0,5433	88,89	551,10	-0,01016	
23,86	0,5440	87,65	551,93	-0,01024	
23,88	0,5448	88,70	552,73	-0,01032	
23,90	0,5456	87,27	553,75	-0,01030	
23,92	0,5463	85,35	554,66	-0,01017	
23,94	0,5469	86,30	555,46	-0,01010	
23,96	0,5478	85,23	556,40	-0,01006	
23,98	0,5487	82,30	557,30	-0,01005	
24,00	0,5495	81,46	558,17	-0,01005	
24,02	0,5503	80,67	559,07	-0,01013	
24,04	0,5510	79,12	559,90	-0,01027	
24,06	0,5518	78,59	560,77	-0,01029	
24,08	0,5526	76,98	561,73	-0,01020	
24,10	0,5534	75,45	562,57	-0,01004	
24,12	0,5542	75,10	563,46	-0,00995	
24,14	0,5552	73,59	564,43	-0,00998	
24,16	0,5560	72,69	565,26	-0,01010	
24,18	0,5569	72,20	566,14	-0,01021	
24,20	0,5579	70,37	567,07	-0,01025	
24,22	0,5587	69,40	567,86	-0,01027	
24,24	0,5596	69,40	568,73	-0,01020	
24,26	0,5606	67,39	569,75	-0,01011	
24,28	0,5614	65,55	570,63	-0,01003	
24,30	0,5622	65,15	571,44	-0,01004	
24,32	0,5633	63,69	572,35	-0,01014	
24,34	0,5644	62,07	573,25	-0,01028	
24,36	0,5654	61,81	574,11	-0,01029	
24,38	0,5663	60,43	575,01	-0,01021	
24,40	0,5673	58,20	575,90	-0,01014	
24,42	0,5684	56,83	576,76	-0,01008	
24,44	0,5694	55,35	577,63	-0,01006	
24,46	0,5706	52,54	578,59	-0,01007	
24,48	0,5717	50,94	579,48	-0,01013	
24,50	0,5727	50,61	580,31	-0,01028	
24,52	0,5738	48,35	581,25	-0,01032	
24,54	0,5748	45,06	582,17	-0,01025	
24,56	0,5760	43,30	583,01	-0,01019	
24,58	0,5772	42,13	583,82	-0,01012	
24,60	0,5786	39,60	584,74	-0,01005	
24,62	0,5797	37,18	585,68	-0,01009	
24,64	0,5807	36,97	586,53	-0,01020	
24,66	0,5820	35,63	587,45	-0,01028	
24,68	0,5833	32,83	588,35	-0,01034	
24,70	0,5846	31,35	589,16	-0,01034	
24,72	0,5860	29,02	590,12	-0,01027	
24,74	0,5874	25,86	591,07	-0,01013	
24,76	0,5886	24,38	591,86	-0,01006	
24,78	0,5900	22,34	592,72	-0,01006	
24,80	0,5914	19,07	593,69	-0,01019	
24,82	0,5927	16,74	594,54	-0,01034	
24,84	0,5942	15,87	595,24	-0,01037	
24,86	0,5958	13,90	596,13	-0,01036	
24,88	0,5974	10,44	597,30	-0,01030	
24,90	0,5988	7,825	598,28	-0,01019	
24,92	0,6003	7,504	598,79	-0,01010	
24,94	0,6019	6,833	599,28	-0,01009	
24,96	0,6036	4,564	600,25	-0,01022	
24,98	0,6053	1,924	601,63	-0,01037	
25,00	0,6068	-1,285	603,08	-0,01039	
25,02	0,6083	-6,439	604,14	-0,01032	
25,04	0,6098	-8,720	604,56	-0,01017	
25,06	0,6116	-8,791	605,04	-0,01010	
25,08	0,6134	-10,39	606,11	-0,01011	
25,10	0,6153	-12,62	607,35	-0,01014	
25,12	0,6169	-11,62	608,15	-0,01023	
25,14	0,6184	-10,09	608,71	-0,01038	
25,16	0,6203	-11,97	609,70	-0,01044	
25,18	0,6223	-12,94	610,88	-0,01031	
25,20	0,6240	-9,780	611,62	-0,01014	
25,22	0,6255	-4,361	612,10	-0,01009	
25,24	0,6272	-3,055	613,05	-0,01011	
25,26	0,6290	-3,184	614,45	-0,01024	
25,28	0,6308	0,7397	615,44	-0,01026	
25,30	0,6322	7,825	615,85	-0,01026	
25,32	0,6337	12,12	616,54	-0,01032	
25,34	0,6355	12,36	617,91	-0,01032	
25,36	0,6371	14,44	619,19	-0,01018	
25,38	0,6384	21,11	619,78	-0,01006	
25,40	0,6396	27,05	620,34	-0,01006	
25,42	0,6413	27,45	621,47	-0,01018	
25,44	0,6430	29,53	622,61	-0,01025	
25,46	0,6442	36,47	623,29	-0,01021	
25,48	0,6452	41,54	623,86	-0,01015	
25,50	0,6464	41,67	624,82	-0,01015	
25,52	0,6478	43,78	625,93	-0,01011	
25,54	0,6489	49,89	626,79	-0,01006	
25,56	0,6499	53,72	627,54	-0,01008	
25,58	0,6511	54,82	628,44	-0,01023	
25,60	0,6523	57,11	629,37	-0,01036	
25,62	0,6532	62,04	630,17	-0,01035	
25,64	0,6541	64,39	631,07	-0,01026	
25,66	0,6552	63,83	632,05	-0,01019	
25,68	0,6560	66,03	632,90	-0,01011	
25,70	0,6568	68,41	633,79	-0,01006	
25,72	0,6577	67,85	634,69	-0,01009	
25,74	0,6584	68,09	635,51	-0,01024	
25,76	0,6593	69,81	636,46	-0,01034	
25,78	0,6602	70,32	637,37	-0,01023	
25,80	0,6610	72,04	638,13	-0,01012	
25,82	0,6617	72,94	639,08	-0,01010	
25,84	0,6625	71,52	640,09	-0,01006	
25,86	0,6633	72,71	640,94	-0,01003	
25,88	0,6641	73,86	641,83	-0,01010	
25,90	0,6649	72,57	642,70	-0,01021	
25,92	0,6657	72,40	643,53	-0,01032	
25,94	0,6665	73,13	644,46	-0,01031	
25,96	0,6674	72,85	645,30	-0,01017	
25,98	0,6681	73,66	646,10	-0,01001	
26,00	0,6690	73,45	647,11	-0,00998	
26,02	0,6698	72,72	648,04	-0,00999	
26,04	0,6705	73,62	648,88	-0,01009	
26,06	0,6712	73,07	649,84	-0,01020	
26,08	0,6720	71,30	650,71	-0,01025	
26,10	0,6728	71,96	651,53	-0,01015	
26,12	0,6735	71,77	652,46	-0,01007	
26,14	0,6743	70,12	653,28	-0,01004	
26,16	0,6751	70,14	654,10	-0,01001	
26,18	0,6759	68,81	655,15	-0,01006	
26,20	0,6767	66,69	656,09	-0,01016	
26,22	0,6775	66,63	656,94	-0,01025	
26,24	0,6783	65,68	657,82	-0,01029	
26,26	0,6791	64,61	658,63	-0,01027	
26,28	0,6800	65,15	659,50	-0,01017	
26,30	0,6809	64,26	660,45	-0,01000	
26,32	0,6816	62,36	661,27	-0,00989	
26,34	0,6825	62,11	662,15	-0,00992	
26,36	0,6834	60,85	663,15	-0,01010	
26,38	0,6843	60,06	663,98	-0,01019	
26,40	0,6851	60,21	664,85	-0,01021	
26,42	0,6860	58,21	665,82	-0,01021	
26,44	0,6867	56,83	666,65	-0,01015	
26,46	0,6876	57,32	667,51	-0,01003	
26,48	0,6886	56,51	668,46	-0,00991	
26,50	0,6894	55,27	669,30	-0,00998	
26,52	0,6904	54,84	670,21	-0,01017	
26,54	0,6913	53,53	671,14	-0,01022	
26,56	0,6922	53,14	671,94	-0,01018	
26,58	0,6932	52,83	672,86	-0,01017	
26,60	0,6942	49,91	673,85	-0,01012	
26,62	0,6950	49,11	674,65	-0,01003	
26,64	0,6959	49,42	675,52	-0,00995	
26,66	0,6969	47,92	676,48	-0,01001	
26,68	0,6979	47,95	677,33	-0,01017	
26,70	0,6989	48,32	678,21	-0,01030	
26,72	0,6998	46,42	679,06	-0,01028	
26,74	0,7008	45,34	679,89	-0,01019	
26,76	0,7018	45,26	680,88	-0,01009	
26,78	0,7029	44,13	681,82	-0,01001	
26,80	0,7038	44,02	682,62	-0,01001	
26,82	0,7048	43,98	683,54	-0,01008	
26,84	0,7059	42,29	684,48	-0,01019	
26,86	0,7068	42,24	685,31	-0,01026	
26,88	0,7078	41,68	686,20	-0,01021	
26,90	0,7088	39,79	687,07	-0,01009	
26,92	0,7098	39,78	687,94	-0,01004	
26,94	0,7109	39,70	688,90	-0,01002	
26,96	0,7120	38,94	689,79	-0,01001	
26,98	0,7130	39,62	690,60	-0,01010	
27,00	0,7141	38,73	691,54	-0,01023	
27,02	0,7151	36,98	692,47	-0,01024	
27,04	0,7162	36,85	693,31	-0,01021	
27,06	0,7172	36,31	694,16	-0,01011	
27,08	0,7183	34,36	695,09	-0,01000	
27,10	0,7195	33,46	696,00	-0,00993	
27,12	0,7205	34,29	696,85	-0,00997	
27,14	0,7217	33,82	697,74	-0,01010	
27,16	0,7229	32,43	698,61	-0,01021	
27,18	0,7239	32,50	699,46	-0,01017	
27,20	0,7250	32,16	700,42	-0,01010	
27,22	0,7261	31,09	701,37	-0,01004	
27,24	0,7272	31,77	702,21	-0,01001	
27,26	0,7284	32,11	703,06	-0,01001	
27,28	0,7297	31,15	703,96	-0,01008	
27,30	0,7308	30,63	704,85	-0,01019	
27,32	0,7318	30,72	705,71	-0,01027	
27,34	0,7330	30,54	706,61	-0,01027	
27,36	0,7342	29,82	707,54	-0,01019	
27,38	0,7352	29,53	708,42	-0,01004	
27,40	0,7364	29,41	709,29	-0,00998	
27,42	0,7377	29,35	710,19	-0,01005	
27,44	0,7389	29,40	711,08	-0,01017	
27,46	0,7399	29,37	711,96	-0,01028	
27,48	0,7411	28,78	712,81	-0,01034	
27,50	0,7423	28,53	713,67	-0,01031	
27,52	0,7434	27,89	714,60	-0,01025	
27,54	0,7445	26,32	715,54	-0,01010	
27,56	0,7457	25,97	716,41	-0,00998	
27,58	0,7468	25,57	717,30	-0,00998	
27,60	0,7479	24,10	718,17	-0,01005	
27,62	0,7492	23,23	719,04	-0,01018	
27,64	0,7505	22,27	719,95	-0,01028	
27,66	0,7516	20,99	720,82	-0,01024	
27,68	0,7526	21,12	721,62	-0,01018	
27,70	0,7539	20,82	722,57	-0,01012	
27,72	0,7552	18,66	723,58	-0,01006	
27,74	0,7565	17,74	724,46	-0,01001	
27,76	0,7575	18,76	725,24	-0,01010	
27,78	0,7586	18,23	726,13	-0,01023	
27,80	0,7599	17,14	727,12	-0,01031	
27,82	0,7612	18,87	727,96	-0,01030	
27,84	0,7625	20,78	728,83	-0,01024	
27,86	0,7637	21,38	729,81	-0,01010	
27,88	0,7648	23,11	730,73	-0,01004	
27,90	0,7659	26,52	731,59	-0,01001	
27,92	0,7673	28,73	732,44	-0,01001	
27,94	0,7686	30,31	733,33	-0,01017	
27,96	0,7697	33,37	734,24	-0,01033	
27,98	0,7708	36,54	735,16	-0,01029	
28,00	0,7719	39,20	736,03	-0,01016	
28,02	0,7729	42,69	736,83	-0,01004	
28,04	0,7740	45,52	737,76	-0,00999	
28,06	0,7750	46,57	738,73	-0,00997	
28,08	0,7759	49,02	739,47	-0,01004	
28,10	0,7769	50,90	740,47	-0,01022	
28,12	0,7781	49,70	741,76	-0,01025	
28,14	0,7790	50,91	742,59	-0,01017	
28,16	0,7798	54,97	743,03	-0,01011	
28,18	0,7808	56,07	743,77	-0,01008	
28,20	0,7819	53,92	745,10	-0,01008	
28,22	0,7828	55,03	746,22	-0,01000	
28,24	0,7836	57,29	746,83	-0,01001	
28,26	0,7844	57,00	747,51	-0,01013	
28,28	0,7854	54,93	748,53	-0,01027	
28,30	0,7864	56,46	749,37	-0,01022	
28,32	0,7872	61,12	750,06	-0,01012	
28,34	0,7882	60,33	751,26	-0,01004	
28,36	0,7892	57,48	752,50	-0,00997	
28,38	0,7899	58,81	753,15	-0,01002	
28,40	0,7906	60,78	753,69	-0,01019	
28,42	0,7916	58,27	754,68	-0,01031	
28,44	0,7927	56,34	755,71	-0,01028	
28,46	0,7933	59,83	756,37	-0,01019	
28,48	0,7941	59,80	757,36	-0,01013	
28,50	0,7951	54,89	758,69	-0,01007	
28,52	0,7959	54,45	759,52	-0,01004	
28,54	0,7967	57,01	760,10	-0,01008	
28,56	0,7976	55,36	760,92	-0,01018	
28,58	0,7985	53,23	761,80	-0,01022	
28,60	0,7993	55,07	762,57	-0,01017	
28,62	0,8001	54,39	763,53	-0,01016	
28,64	0,8010	51,27	764,51	-0,01006	
28,66	0,8018	52,50	765,10	-0,00991	
28,68	0,8026	55,19	765,88	-0,00991	
28,70	0,8037	53,16	767,37	-0,01002	
28,72	0,8046	50,04	768,64	-0,01006	
28,74	0,8054	52,14	768,96	-0,01005	
28,76	0,8060	55,27	769,16	-0,01010	
28,78	0,8070	53,31	770,33	-0,01017	
28,80	0,8081	49,30	772,11	-0,01016	
28,82	0,8089	48,90	773,16	-0,01002	
28,84	0,8094	51,53	773,37	-0,00998	
28,86	0,8103	49,94	774,14	-0,01011	
28,88	0,8115	45,60	775,64	-0,01025	
28,90	0,8124	46,34	776,58	-0,01024	
28,92	0,8131	50,17	776,72	-0,01014	
28,94	0,8139	48,73	777,20	-0,01010	
28,96	0,8148	43,16	778,69	-0,01007	
28,98	0,8157	40,26	780,30	-0,01007	
29,00	0,8163	42,01	780,85	-0,01001	
29,02	0,8168	44,62	780,96	-0,01005	
29,04	0,8176	42,97	781,97	-0,01024	
29,06	0,8187	38,93	783,68	-0,01034	
29,08	0,8195	39,09	784,65	-0,01021	
29,10	0,8199	42,77	784,74	-0,01003	
29,12	0,8206	41,72	785,36	-0,00999	
29,14	0,8217	37,07	786,96	-0,01005	
29,16	0,8227	35,66	788,30	-0,01009	
29,18	0,8231	39,54	788,54	-0,01011	
29,20	0,8235	41,03	788,74	-0,01014	
29,22	0,8244	36,99	790,04	-0,01019	
29,24	0,8254	34,00	791,84	-0,01015	
29,26	0,8260	35,86	792,67	-0,00998	
29,28	0,8264	38,38	792,77	-0,00987	
29,30	0,8269	34,79	793,65	-0,00997	
29,32	0,8277	29,06	795,30	-0,01010	
29,34	0,8284	29,29	796,24	-0,01015	
29,36	0,8289	34,43	796,22	-0,01019	
29,38	0,8293	35,37	796,64	-0,01027	
29,40	0,8300	32,32	798,26	-0,01028	
29,42	0,8308	30,35	800,05	-0,01012	
29,44	0,8314	32,59	800,68	-0,00998	
29,46	0,8317	34,98	800,92	-0,00998	
29,48	0,8324	31,33	802,12	-0,01008	
29,50	0,8331	28,69	803,47	-0,01016	
29,52	0,8336	32,70	804,03	-0,01021	
29,54	0,8340	35,29	804,43	-0,01020	
29,56	0,8347	31,22	805,41	-0,01018	
29,58	0,8353	29,32	806,39	-0,01004	
29,60	0,8356	35,35	806,84	-0,00997	
29,62	0,8361	37,91	807,84	-0,01005	
29,64	0,8368	34,28	809,53	-0,01020	
29,66	0,8375	33,72	810,51	-0,01027	
29,68	0,8379	38,98	810,54	-0,01030	
29,70	0,8383	40,85	810,99	-0,01028	
29,72	0,8389	37,08	812,64	-0,01026	
29,74	0,8396	35,19	814,32	-0,01017	
29,76	0,8400	38,69	814,74	-0,01004	
29,78	0,8403	42,21	814,78	-0,01007	
29,80	0,8408	40,45	815,94	-0,01019	
29,82	0,8415	37,89	817,71	-0,01031	
29,84	0,8420	40,82	818,47	-0,01028	
29,86	0,8421	45,61	818,39	-0,01012	
29,88	0,8426	44,50	819,09	-0,01014	
29,90	0,8433	41,06	820,94	-0,01021	
29,92	0,8439	41,09	822,39	-0,01011	
29,94	0,8440	45,15	822,54	-0,01003	
29,96	0,8443	46,39	822,75	-0,01015	
29,98	0,8449	43,18	824,21	-0,01032	
30,00	0,8456	41,31	825,84	-0,01035	
30,02	0,8460	45,30	826,24	-0,01020	
30,04	0,8461	49,26	826,16	-0,01006	
30,06	0,8465	46,96	827,18	-0,01001	
30,08	0,8472	43,67	829,16	-0,01001	
30,10	0,8476	45,02	830,35	-0,01002	
30,12	0,8477	49,31	830,35	-0,01011	
30,14	0,8481	48,64	830,79	-0,01025	
30,16	0,8487	44,89	832,44	-0,01033	
30,18	0,8493	44,39	833,86	-0,01014	
30,20	0,8494	49,63	834,00	-0,00993	
30,22	0,8495	52,15	834,01	-0,00993	
30,24	0,8499	48,36	835,30	-0,01004	
30,26	0,8506	44,18	837,37	-0,01017	
30,28	0,8510	44,25	838,44	-0,01016	
30,30	0,8512	47,47	838,50	-0,01012	
30,32	0,8515	45,55	839,31	-0,01018	
30,34	0,8521	41,88	840,80	-0,01016	
30,36	0,8525	44,76	841,63	-0,01006	
30,38	0,8527	48,20	842,02	-0,00997	
30,40	0,8531	44,92	842,76	-0,00998	
30,42	0,8537	40,89	843,71	-0,01001	
30,44	0,8540	45,09	844,14	-0,01009	
30,46	0,8543	49,62	844,85	-0,01022	
30,48	0,8549	46,82	846,62	-0,01028	
30,50	0,8555	42,92	848,20	-0,01015	
30,52	0,8558	45,75	848,42	-0,01005	
30,54	0,8560	48,88	848,48	-0,01006	
30,56	0,8565	44,77	849,77	-0,01013	
30,58	0,8571	40,98	851,17	-0,01017	
30,60	0,8574	44,37	851,31	-0,01025	
30,62	0,8577	49,03	850,55	-0,01019	
30,64	0,8579	52,54	849,89	-0,01011	
30,66	0,8585	56,11	850,06	-0,01004	
30,68	0,8589	62,04	850,17	-0,00998	
30,70	0,8591	68,46	849,82	-0,00989	
30,72	0,8595	69,14	849,83	-0,00993	
30,74	0,8599	66,76	849,96	-0,01005	
30,76	0,8601	71,45	849,70	-0,01015	
30,78	0,8605	76,31	849,76	-0,01016	
30,80	0,8609	74,76	849,97	-0,01009	
30,82	0,8610	76,89	849,76	-0,00997	
30,84	0,8613	80,81	849,78	-0,00988	
30,86	0,8617	78,99	850,02	-0,00990	
30,88	0,8619	80,13	849,82	-0,01002	
30,90	0,8621	84,93	849,72	-0,01012	
30,92	0,8625	83,07	850,00	-0,01021	
30,94	0,8627	82,48	849,90	-0,01022	
30,96	0,8628	87,16	849,71	-0,01019	
30,98	0,8631	86,43	849,97	-0,01009	
31,00	0,8634	84,92	849,97	-0,00999	
31,02	0,8635	89,60	849,69	-0,01003	
31,04	0,8639	90,37	849,89	-0,01005	
31,06	0,8642	87,37	850,03	-0,01013	
31,08	0,8642	90,71	849,75	-0,01016	
31,10	0,8645	92,48	849,79	-0,01016	
31,12	0,8649	89,27	849,99	-0,01011	
31,14	0,8650	91,79	849,77	-0,00996	
31,16	0,8653	95,57	849,72	-0,00985	
31,18	0,8656	92,88	850,00	-0,00989	
31,20	0,8658	92,99	849,86	-0,01002	
31,22	0,8659	97,43	849,70	-0,01017	
31,24	0,8662	95,61	849,99	-0,01028	
31,26	0,8665	93,08	849,97	-0,01019	
31,28	0,8666	97,35	849,69	-0,01002	
31,30	0,8668	97,90	849,87	-0,00992	
31,32	0,8670	95,18	850,00	-0,00993	
31,34	0,8672	98,94	849,70	-0,01002	
31,36	0,8674	100,90	849,75	-0,01013	
31,38	0,8677	96,85	850,03	-0,01017	
31,40	0,8679	98,12	849,85	-0,01021	
31,42	0,8681	102,13	849,69	-0,01019	
31,44	0,8683	98,70	849,93	-0,01008	
31,46	0,8684	97,50	849,85	-0,00996	
31,48	0,8686	102,24	849,65	-0,00989	
31,50	0,8689	100,77	849,96	-0,00995	
31,52	0,8692	98,32	850,08	-0,01008	
31,54	0,8693	102,41	849,76	-0,01016	
31,56	0,8695	103,42	849,78	-0,01019	
31,58	0,8698	99,47	849,92	-0,01013	
31,60	0,8700	101,86	849,68	-0,00997	
31,62	0,8701	104,63	849,76	-0,00989	
31,64	0,8704	100,99	850,06	-0,00987	
31,66	0,8706	100,84	849,87	-0,00986	
31,68	0,8708	103,96	849,74	-0,00996	
31,70	0,8710	101,14	850,03	-0,01011	
31,72	0,8711	99,65	849,97	-0,01013	
31,74	0,8713	104,12	849,71	-0,01012	
31,76	0,8716	103,08	849,91	-0,01006	
31,78	0,8719	99,89	849,94	-0,00995	
31,80	0,8720	103,41	849,67	-0,00986	
31,82	0,8723	103,84	849,92	-0,00990	
31,84	0,8725	99,62	850,13	-0,00998	
31,86	0,8726	101,90	849,83	-0,01007	
31,88	0,8728	104,63	849,78	-0,01015	
31,90	0,8730	100,89	849,98	-0,01015	
31,92	0,8731	101,07	849,78	-0,01004	
31,94	0,8734	103,60	849,70	-0,00989	
31,96	0,8737	100,04	850,01	-0,00983	
31,98	0,8737	99,03	849,92	-0,00993	
32,00	0,8739	103,53	849,71	-0,01014	
32,02	0,8743	101,56	849,94	-0,01024	
32,04	0,8743	98,83	849,93	-0,01019	
32,06	0,8744	102,73	849,67	-0,01012	
32,08	0,8748	102,42	849,89	-0,01004	
32,10	0,8750	98,68	850,00	-0,01000	
32,12	0,8750	101,30	849,71	-0,01001	
32,14	0,8753	102,65	849,85	-0,01008	
32,16	0,8756	99,02	850,03	-0,01021	
32,18	0,8756	100,14	849,77	-0,01022	
32,20	0,8758	101,64	849,78	-0,01022	
32,22	0,8762	98,21	849,99	-0,01015	
32,24	0,8762	99,22	849,78	-0,01005	
32,26	0,8763	102,57	849,70	-0,00995	
32,28	0,8767	99,86	850,03	-0,00991	
32,30	0,8769	99,13	849,97	-0,01000	
32,32	0,8769	103,07	849,73	-0,01013	
32,34	0,8774	101,10	849,90	-0,01020	
32,36	0,8776	98,65	849,91	-0,01016	
32,38	0,8776	103,12	849,67	-0,01012	
32,40	0,8779	104,34	849,80	-0,01008	
32,42	0,8782	101,85	849,83	-0,01007	
32,44	0,8782	104,30	849,65	-0,01000	
32,46	0,8784	104,36	849,94	-0,01000	
32,48	0,8788	101,12	850,09	-0,01009	
32,50	0,8788	103,13	849,77	-0,01020	
32,52	0,8790	104,92	849,79	-0,01019	
32,54	0,8793	101,95	849,97	-0,01011	
32,56	0,8794	103,35	849,74	-0,01001	
32,58	0,8796	105,09	849,75	-0,00989	
32,60	0,8798	101,03	849,99	-0,00991	
32,62	0,8800	100,80	849,81	-0,01001	
32,64	0,8802	104,19	849,64	-0,01019	
32,66	0,8804	101,36	850,01	-0,01033	
32,68	0,8806	99,06	850,09	-0,01028	
32,70	0,8807	102,74	849,76	-0,01009	
32,72	0,8810	102,21	849,88	-0,00996	
32,74	0,8812	98,40	850,06	-0,00991	
32,76	0,8813	101,45	849,78	-0,00992	
32,78	0,8815	104,75	849,71	-0,00999	
32,80	0,8818	101,01	850,01	-0,01010	
32,82	0,8819	100,91	849,89	-0,01011	
32,84	0,8821	105,91	849,66	-0,01009	
32,86	0,8824	103,95	849,96	-0,01001	
32,88	0,8824	100,82	850,05	-0,00995	
32,90	0,8823	104,71	849,75	-0,00996	
32,92	0,8827	104,70	849,88	-0,00998	
32,94	0,8830	100,96	850,01	-0,01009	
32,96	0,8829	104,09	849,72	-0,01017	
32,98	0,8832	106,04	849,81	-0,01020	
33,00	0,8836	102,05	850,09	-0,01016	
33,02	0,8836	102,55	849,87	-0,01006	
33,04	0,8836	106,55	849,70	-0,01002	
33,06	0,8839	103,88	849,95	-0,01002	
33,08	0,8842	102,73	849,88	-0,01006	
33,10	0,8843	106,26	849,73	-0,01016	
33,12	0,8845	104,26	849,99	-0,01024	
33,14	0,8847	101,92	849,94	-0,01024	
33,16	0,8848	105,90	849,68	-0,01016	
33,18	0,8851	105,69	849,92	-0,01009	
33,20	0,8853	102,37	850,02	-0,01006	
33,22	0,8854	105,07	849,74	-0,01004	
33,24	0,8857	105,04	849,86	-0,01003	
33,26	0,8858	101,30	850,01	-0,01014	
33,28	0,8858	103,10	849,73	-0,01028	
33,30	0,8862	104,99	849,81	-0,01034	
33,32	0,8864	101,02	850,10	-0,01025	
33,34	0,8864	101,72	849,88	-0,01014	
33,36	0,8865	105,41	849,75	-0,01006	
33,38	0,8869	103,04	849,97	-0,00999	
33,40	0,8870	102,52	849,82	-0,01004	
33,42	0,8870	105,87	849,71	-0,01026	
33,44	0,8873	103,49	849,99	-0,01041	
33,46	0,8876	101,59	849,91	-0,01037	
33,48	0,8876	104,98	849,67	-0,01030	
33,50	0,8878	103,44	849,94	-0,01021	
33,52	0,8881	99,98	850,06	-0,01005	
33,54	0,8882	103,48	849,77	-0,01001	
33,56	0,8884	104,56	849,80	-0,01015	
33,58	0,8885	101,78	849,85	-0,01028	
33,60	0,8886	104,66	849,63	-0,01030	
33,62	0,8890	106,11	849,79	-0,01033	
33,64	0,8891	102,45	849,98	-0,01030	
33,66	0,8891	103,49	849,74	-0,01015	
33,68	0,8894	105,43	849,78	-0,01008	
33,70	0,8897	102,88	850,00	-0,01015	
33,72	0,8897	103,82	849,79	-0,01027	
33,74	0,8897	106,46	849,68	-0,01031	
33,76	0,8902	103,29	849,93	-0,01032	
33,78	0,8903	102,33	849,85	-0,01033	
33,80	0,8903	106,36	849,65	-0,01026	
33,82	0,8905	104,49	849,94	-0,01019	
33,84	0,8908	101,87	850,01	-0,01015	
33,86	0,8909	105,74	849,71	-0,01017	
33,88	0,8911	106,81	849,82	-0,01036	
33,90	0,8914	102,98	849,99	-0,01040	
33,92	0,8915	105,19	849,74	-0,01040	
33,94	0,8917	108,04	849,74	-0,00816	
33,96	0,8918	104,35	849,98	-0,00767	
33,98	0,8919	104,32	849,79	-0,00295	
34,00	0,8921	108,11	849,67	0,00605	
34,02	0,8924	105,23	849,97	0,01096	
34,04	0,8925	103,16	849,94	0,01187	
34,06	0,8925	107,42	849,69	0,01153	
34,08	0,8929	106,61	849,84	0,01112	
34,10	0,8931	103,29	849,89	0,01056	
34,12	0,8930	106,78	849,64	0,01003	
34,14	0,8931	107,53	849,85	0,00964	
34,16	0,8935	103,77	850,07	0,00891	
34,18	0,8936	105,85	849,79	0,00844	
34,20	0,8937	108,37	849,76	0,00826	
34,22	0,8939	104,48	850,01	0,00833	
34,24	0,8941	104,40	849,82	0,00853	
34,26	0,8942	108,31	849,66	0,00923	
34,28	0,8945	105,27	850,00	0,01038	
34,30	0,8947	102,91	850,04	0,01185	
34,32	0,8948	107,79	849,73	0,01246	
34,34	0,8951	108,27	849,83	0,01263	
34,36	0,8952	104,47	849,92	0,01257	
34,38	0,8951	107,31	849,67	0,01275	
34,40	0,8955	108,63	849,84	0,01240	
34,42	0,8958	105,06	850,06	0,01138	
34,44	0,8957	106,45	849,80	0,01072	
34,46	0,8958	109,41	849,77	0,00996	
34,48	0,8962	107,00	850,01	0,00950	
34,50	0,8963	107,83	849,84	0,00888	
34,52	0,8964	111,61	849,72	0,00855	
34,54	0,8966	108,96	849,90	0,00910	
34,56	0,8968	107,51	849,76	0,01059	
34,58	0,8970	110,78	849,67	0,01183	
34,60	0,8972	109,39	850,01	0,01269	
34,62	0,8972	107,96	849,99	0,01329	
34,64	0,8974	111,92	849,71	0,01347	
34,66	0,8977	111,93	849,91	0,01342	
34,68	0,8979	108,89	850,00	0,01331	
34,70	0,8977	111,97	849,71	0,01293	
34,72	0,8978	112,60	849,84	0,01209	
34,74	0,8982	108,83	850,06	0,01139	
34,76	0,8983	110,53	849,81	0,01057	
34,78	0,8984	113,26	849,74	0,01001	
34,80	0,8987	110,15	849,93	0,00935	
34,82	0,8989	110,10	849,77	0,00878	
34,84	0,8990	114,34	849,65	0,00883	
34,86	0,8992	112,70	849,96	0,00950	
34,88	0,8993	111,23	849,94	0,01051	
34,90	0,8995	114,83	849,69	0,01180	
34,92	0,8998	113,79	849,86	0,01276	
34,94	0,8998	111,08	849,91	0,01303	
34,96	0,8997	115,03	849,65	0,01304	
34,98	0,9000	116,01	849,82	0,01300	
35,00	0,9004	112,36	850,03	0,01275	
35,02	0,9004	114,69	849,76	0,01207	
35,04	0,9004	116,87	849,72	0,01146	
35,06	0,9006	113,37	850,05	0,01095	
35,08	0,9008	113,59	849,95	0,01041	
35,10	0,9010	117,56	849,71	0,01010	
35,12	0,9012	115,01	849,94	0,00998	
35,14	0,9012	111,93	849,97	0,00989	
35,16	0,9011	115,72	849,67	0,00979	
35,18	0,9015	116,34	849,85	0,01007	
35,20	0,9018	112,51	850,08	0,01078	
35,22	0,9017	114,74	849,81	0,01172	
35,24	0,9018	117,63	849,72	0,01295	
35,26	0,9021	114,01	849,98	0,01392	
35,28	0,9023	113,21	849,85	0,01427	
35,30	0,9024	117,01	849,67	0,01389	
35,32	0,9025	114,83	849,96	0,01418	
35,34	0,9026	112,90	849,99	0,01459	
35,36	0,9027	117,81	849,69	0,01389	
35,38	0,9031	117,75	849,86	0,01298	
35,40	0,9032	113,92	849,98	0,01259	
35,42	0,9031	116,83	849,71	0,01260	
35,44	0,9032	117,59	849,85	0,01234	
35,46	0,9034	113,01	850,07	0,01204	
35,48	0,9036	113,81	849,81	0,01196	
35,50	0,9037	116,95	849,77	0,01190	
35,52	0,9039	113,91	849,98	0,01230	
35,54	0,9040	113,35	849,81	0,01321	
35,56	0,9042	115,95	849,69	0,01406	
35,58	0,9045	113,26	849,87	0,01503	
35,60	0,9045	112,54	849,74	0,01578	
35,62	0,9044	116,25	849,68	0,01591	
35,64	0,9047	114,55	850,05	0,01573	
35,66	0,9050	112,10	850,03	0,01651	
35,68	0,9050	115,53	849,71	0,01724	
35,70	0,9052	115,53	849,86	0,01702	
35,72	0,9053	113,04	849,94	0,01664	
35,74	0,9054	116,78	849,68	0,01639	
35,76	0,9057	117,74	849,85	0,01593	
35,78	0,9059	113,44	850,05	0,01558	
35,80	0,9058	115,26	849,79	0,01643	
35,82	0,9058	118,15	849,74	0,01692	
35,84	0,9063	114,67	849,90	0,01705	
35,86	0,9064	115,22	849,70	0,01721	
35,88	0,9065	117,80	849,72	0,01741	
35,90	0,9067	114,37	850,06	0,01730	
35,92	0,9069	113,97	849,93	0,01706	
35,94	0,9070	118,09	849,71	0,01706	
35,96	0,9072	115,70	849,95	0,01692	
35,98	0,9072	113,23	849,96	0,01682	
36,00	0,9071	117,53	849,67	0,01688	
36,02	0,9075	116,94	849,85	0,01714	
36,04	0,9079	113,31	850,00	0,01711	
36,06	0,9078	116,35	849,73	0,01705	
36,08	0,9078	118,26	849,75	0,01705	
36,10	0,9081	114,41	849,99	0,01690	
36,12	0,9083	115,64	849,80	0,01675	
36,14	0,9084	119,39	849,68	0,01676	
36,16	0,9086	116,16	849,99	0,01666	
36,18	0,9085	114,93	849,95	0,01653	
36,20	0,9085	119,40	849,69	0,01656	
36,22	0,9089	118,02	849,86	0,01671	
36,24	0,9092	114,61	849,92	0,01662	
36,26	0,9091	117,97	849,65	0,01650	
36,28	0,9092	118,29	849,82	0,01657	
36,30	0,9094	113,40	850,07	0,01672	
36,32	0,9096	114,99	849,81	0,01688	
36,34	0,9098	118,15	849,75	0,01697	
36,36	0,9099	114,69	850,02	0,01700	
36,38	0,9099	114,42	849,88	0,01686	
36,40	0,9100	118,28	849,70	0,01682	
36,42	0,9104	115,53	849,95	0,01684	
36,44	0,9105	113,17	849,93	0,01684	
36,46	0,9104	117,53	849,66	0,01683	
36,48	0,9106	116,97	849,88	0,01689	
36,50	0,9109	113,32	850,05	0,01697	
36,52	0,9110	116,02	849,76	0,01690	
36,54	0,9112	117,17	849,79	0,01692	
36,56	0,9113	113,13	850,03	0,01679	
36,58	0,9113	114,03	849,83	0,01663	
36,60	0,9116	116,73	849,73	0,01656	
36,62	0,9119	113,63	849,99	0,01670	
36,64	0,9119	113,15	849,86	0,01676	
36,66	0,9118	117,69	849,69	0,01678	
36,68	0,9121	115,67	849,99	0,01679	
36,70	0,9124	112,42	850,00	0,01665	
36,72	0,9124	115,46	849,72	0,01646	
36,74	0,9126	115,48	849,88	0,01640	
36,76	0,9127	112,42	849,96	0,01654	
36,78	0,9128	115,39	849,69	0,01656	
36,80	0,9131	116,75	849,81	0,01653	
36,82	0,9133	113,11	850,02	0,01656	
36,84	0,9131	115,15	849,77	0,01650	
36,86	0,9133	117,56	849,79	0,01629	
36,88	0,9138	113,99	850,06	0,01619	
36,90	0,9138	113,89	849,87	0,01618	
36,92	0,9138	116,37	849,76	0,01616	
36,94	0,9140	113,44	850,00	0,01622	
36,96	0,9142	112,40	849,87	0,01641	
36,98	0,9144	116,28	849,68	0,01642	
37,00	0,9146	114,66	849,98	0,01630	
37,02	0,9147	112,96	850,02	0,01618	
37,04	0,9148	117,50	849,73	0,01604	
37,06	0,9152	117,12	849,80	0,01597	
37,08	0,9153	113,59	849,83	0,01600	
37,10	0,9152	116,74	849,61	0,01608	
37,12	0,9153	118,01	849,87	0,01609	
37,14	0,9157	114,86	850,13	0,01607	
37,16	0,9158	116,37	849,84	0,01600	
37,18	0,9158	118,97	849,72	0,01581	
37,20	0,9160	116,39	849,95	0,01566	
37,22	0,9162	116,83	849,81	0,01566	
37,24	0,9164	120,48	849,66	0,01566	
37,26	0,9166	117,67	849,99	0,01569	
37,28	0,9166	115,65	850,00	0,01582	
37,30	0,9165	118,86	849,74	0,01586	
37,32	0,9168	118,12	849,84	0,01576	
37,34	0,9171	115,28	849,84	0,01554	
37,36	0,9171	118,24	849,61	0,01534	
37,38	0,9173	118,49	849,88	0,01530	
37,40	0,9175	115,13	850,12	0,01537	
37,42	0,9177	117,97	849,85	0,01549	
37,44	0,9178	121,51	849,75	0,01557	
37,46	0,9180	118,47	849,89	0,01555	
37,48	0,9179	119,38	849,69	0,01536	
37,50	0,9179	122,73	849,70	0,01518	
37,52	0,9183	120,19	850,05	0,01517	
37,54	0,9185	118,86	849,94	0,01521	
37,56	0,9185	121,85	849,72	0,01535	
37,58	0,9187	120,06	849,94	0,01540	
37,60	0,9189	118,21	849,90	0,01535	
37,62	0,9190	121,60	849,66	0,01538	
37,64	0,9193	120,37	849,91	0,01537	
37,66	0,9193	116,75	850,01	0,01524	
37,68	0,9192	119,84	849,75	0,01510	
37,70	0,9196	120,29	849,87	0,01510	
37,72	0,9199	116,15	849,97	0,01517	
37,74	0,9198	118,28	849,69	0,01521	
37,76	0,9199	120,87	849,74	0,01525	
37,78	0,9202	117,65	850,03	0,01524	
37,80	0,9204	118,87	849,83	0,01513	
37,82	0,9205	121,69	849,73	0,01494	
37,84	0,9207	117,72	850,02	0,01489	
37,86	0,9208	116,41	849,93	0,01495	
37,88	0,9210	120,42	849,69	0,01492	
37,90	0,9213	119,16	849,84	0,01498	
37,92	0,9213	117,23	849,79	0,01504	
37,94	0,9212	121,06	849,61	0,01504	
37,96	0,9215	120,54	849,97	0,01498	
37,98	0,9218	117,45	850,14	0,01530	
38,00	0,9218	120,75	849,80	0,01592	
38,02	0,9219	122,11	849,83	0,01627	
38,04	0,9222	117,64	850,01	0,01647	
38,06	0,9223	119,30	849,77	0,01655	
38,08	0,9225	121,87	849,81	0,01655	
38,10	0,9227	118,76	850,04	0,01652	
38,12	0,9226	118,49	849,82	0,01643	
38,14	0,9227	121,86	849,69	0,01627	
38,16	0,9232	119,00	850,06	0,01620	
38,18	0,9233	117,00	850,07	0,01626	
38,20	0,9232	121,45	849,76	0,01621	
38,22	0,9234	120,74	849,86	0,01561	
38,24	0,9237	117,25	849,90	0,01506	
38,26	0,9238	120,76	849,67	0,01478	
38,28	0,9240	121,85	849,86	0,01458	
38,30	0,9240	118,50	850,00	0,01447	
38,32	0,9241	119,82	849,72	0,01445	
38,34	0,9244	121,28	849,79	0,01441	
38,36	0,9247	117,67	850,06	0,01450	
38,38	0,9246	118,86	849,84	0,01462	
38,40	0,9246	121,83	849,74	0,01468	
38,42	0,9249	117,89	850,08	0,01466	
38,44	0,9252	116,32	850,03	0,01450	
38,46	0,9252	121,13	849,73	0,01436	
38,48	0,9254	120,59	849,84	0,01422	
38,50	0,9255	117,94	849,82	0,01422	
38,52	0,9257	121,13	849,64	0,01433	
38,54	0,9260	121,12	849,93	0,01443	
38,56	0,9261	118,22	850,04	0,01445	
38,58	0,9259	121,10	849,72	0,01440	
38,60	0,9261	123,10	849,79	0,01426	
38,62	0,9265	119,78	849,98	0,01416	
38,64	0,9265	121,42	849,74	0,01415	
38,66	0,9266	123,15	849,80	0,01418	
38,68	0,9268	119,46	850,09	0,01426	
38,70	0,9270	119,90	849,89	0,01438	
38,72	0,9271	123,74	849,70	0,01447	
38,74	0,9274	121,12	849,95	0,01437	
38,76	0,9274	119,35	849,91	0,01421	
38,78	0,9274	123,15	849,68	0,01412	
38,80	0,9278	121,72	849,86	0,01405	
38,82	0,9280	118,92	849,86	0,01409	
38,84	0,9279	122,59	849,63	0,01424	
38,86	0,9280	122,83	849,95	0,01437	
38,88	0,9283	118,91	850,23	0,01439	
38,90	0,9284	120,98	849,93	0,01430	
38,92	0,9286	124,25	849,73	0,01415	
38,94	0,9287	121,50	849,87	0,01402	
38,96	0,9288	122,43	849,71	0,01390	
38,98	0,9291	126,07	849,65	0,01392	
39,00	0,9294	122,62	850,02	0,01400	
39,02	0,9294	119,72	850,02	0,01410	
39,04	0,9292	123,91	849,71	0,01404	
39,06	0,9294	123,65	849,81	0,01391	
39,08	0,9297	120,99	849,85	0,01378	
39,10	0,9298	124,79	849,62	0,01368	
39,12	0,9300	125,54	849,87	0,01371	
39,14	0,9301	122,06	850,13	0,01384	
39,16	0,9301	123,78	849,86	0,01398	
39,18	0,9305	125,90	849,74	0,01397	
39,20	0,9307	122,68	849,85	0,01393	
39,22	0,9306	123,36	849,65	0,01381	
39,24	0,9307	125,35	849,74	0,01367	
39,26	0,9310	122,05	850,15	0,01360	
39,28	0,9312	121,25	850,06	0,01362	
39,30	0,9312	125,05	849,76	0,01371	
39,32	0,9314	123,63	849,87	0,01383	
39,34	0,9314	122,46	849,81	0,01391	
39,36	0,9313	126,37	849,65	0,01392	
39,38	0,9317	124,89	849,97	0,01381	
39,40	0,9320	121,14	850,04	0,01365	
39,42	0,9319	123,79	849,71	0,01358	
39,44	0,9320	124,65	849,81	0,01361	
39,46	0,9323	120,60	849,97	0,01369	
39,48	0,9324	122,59	849,72	0,01377	
39,50	0,9326	124,47	849,80	0,01386	
39,52	0,9328	120,13	850,07	0,01391	
39,54	0,9326	120,31	849,84	0,01381	
39,56	0,9327	123,72	849,76	0,01360	
39,58	0,9331	120,89	850,03	0,01349	
39,60	0,9333	119,92	849,90	0,01363	
39,62	0,9333	123,82	849,69	0,01375	
39,64	0,9334	121,94	849,96	0,01379	
39,66	0,9336	119,72	849,97	0,01389	
39,68	0,9337	124,11	849,69	0,01391	
39,70	0,9340	123,83	849,94	0,01379	
39,72	0,9341	119,50	850,11	0,01362	
39,74	0,9339	121,89	849,80	0,01347	
39,76	0,9342	123,60	849,84	0,01343	
39,78	0,9346	119,97	850,03	0,01351	
39,80	0,9346	121,58	849,80	0,01359	
39,82	0,9346	124,99	849,70	0,01364	
39,84	0,9348	122,30	849,88	0,01359	
39,86	0,9350	122,47	849,71	0,01342	
39,88	0,9352	125,92	849,66	0,01325	
39,90	0,9354	123,61	850,04	0,01317	
39,92	0,9354	122,03	850,00	0,01325	
39,94	0,9353	125,61	849,73	0,01337	
39,96	0,9360	124,31	849,94	0,01349	
39,98	0,9369	121,26	849,99	0,01358	
40,00	0,9372	124,82	849,72	0,01358	
40,02	0,9374	125,58	849,86	0,01343	
40,04	0,9375	122,18	849,98	0,01324	
40,06	0,9377	124,42	849,71	0,01315	
40,08	0,9381	126,44	849,79	0,01316	
40,10	0,9383	122,84	850,06	0,01325	
40,12	0,9381	123,27	849,84	0,01334	
40,14	0,9382	125,67	849,77	0,01338	
40,16	0,9385	122,98	850,02	0,01325	
40,18	0,9386	122,82	849,88	0,01303	
40,20	0,9385	127,01	849,69	0,01272	
40,22	0,9389	126,19	849,98	0,01232	
40,24	0,9393	125,82	850,00	0,01189	
40,26	0,9398	133,92	849,69	0,01139	
40,28	0,9410	141,53	849,84	0,01067	
40,30	0,9425	148,46	850,03	0,00969	
40,32	0,9440	165,37	849,76	0,00866	
40,34	0,9462	184,60	849,75	0,00752	
40,36	0,9490	200,07	850,06	0,00623	
40,38	0,9520	221,81	849,91	0,00495	
40,40	0,9553	250,32	849,70	0,00366	
40,42	0,9592	274,50	849,97	0,00219	
40,44	0,9633	301,74	849,96	0,00059	
40,46	0,9677	335,99	849,72	-0,00121	
40,48	0,9729	365,38	849,92	-0,00331	
40,50	0,9784	393,80	849,96	-0,00564	
40,52	0,9841	429,68	849,69	-0,00807	
40,54	0,9906	462,40	849,89	-0,01061	
40,56	0,9973	490,13	850,09	-0,01327	
40,58	1,004	523,20	849,80	-0,01617	
40,60	1,011	554,60	849,75	-0,01940	
40,62	1,019	578,38	849,99	-0,02296	
40,64	1,027	605,18	849,82	-0,02681	
40,66	1,036	632,70	849,71	-0,03087	
40,68	1,045	651,69	849,98	-0,03516	
40,70	1,054	670,49	849,90	-0,03960	
40,72	1,064	693,42	849,67	-0,04429	
40,74	1,075	708,30	849,96	-0,04927	
40,76	1,085	720,29	850,02	-0,05460	
40,78	1,096	738,11	849,72	-0,06036	
40,80	1,107	750,27	849,86	-0,06655	
40,82	1,119	756,03	850,05	-0,07289	
40,84	1,131	767,95	849,77	-0,07943	
40,86	1,144	779,04	849,75	-0,08621	
40,88	1,157	783,03	850,03	-0,09316	
40,90	1,170	791,31	849,86	-0,1004	
40,92	1,184	802,24	849,72	-0,1081	
40,94	1,198	805,43	850,01	-0,1160	
40,96	1,213	809,44	849,94	-0,1240	
40,98	1,228	819,34	849,70	-0,1323	
41,00	1,243	823,08	849,94	-0,1407	
41,02	1,259	824,27	849,99	-0,1490	
41,04	1,275	832,10	849,72	-0,1578	
41,06	1,292	836,52	849,90	-0,1669	
41,08	1,309	837,27	850,02	-0,1760	
41,10	1,326	845,15	849,74	-0,1854	
41,12	1,344	851,10	849,84	-0,1950	
41,14	1,362	851,23	850,03	-0,2046	
41,16	1,381	856,62	849,77	-0,2142	
41,18	1,400	862,96	849,76	-0,2239	
41,20	1,419	863,22	850,05	-0,2336	
41,22	1,439	867,25	849,90	-0,2433	
41,24	1,459	874,83	849,66	-0,2531	
41,26	1,479	875,15	849,92	-0,2627	
41,28	1,499	875,25	849,95	-0,2722	
41,30	1,519	882,26	849,65	-0,2817	
41,32	1,539	884,55	849,87	-0,2911	
41,34	1,559	882,39	850,07	-0,3003	
41,36	1,579	887,32	849,81	-0,3095	
41,38	1,599	890,98	849,80	-0,3188	
41,40	1,619	888,88	849,95	-0,3281	
41,42	1,639	892,02	849,71	-0,3373	
41,44	1,659	896,75	849,71	-0,3465	
41,46	1,679	894,92	850,05	-0,3554	
41,48	1,699	896,43	849,91	-0,3643	
41,50	1,719	901,30	849,75	-0,3732	
41,52	1,739	899,85	850,08	-0,3822	
41,54	1,759	899,71	850,08	-0,3910	
41,56	1,779	905,85	849,76	-0,3999	
41,58	1,799	906,64	849,89	-0,4088	
41,60	1,819	904,65	849,98	-0,4175	
41,62	1,839	909,31	849,72	-0,4261	
41,64	1,859	911,21	849,86	-0,4348	
41,66	1,879	908,91	850,05	-0,4434	
41,68	1,899	912,52	849,79	-0,4521	
41,70	1,919	915,65	849,77	-0,4608	
41,72	1,939	912,48	850,01	-0,4694	
41,74	1,959	914,19	849,81	-0,4779	
41,76	1,979	919,07	849,73	-0,4864	
41,78	1,999	917,16	850,01	-0,4949	
41,80	2,019	917,41	849,89	-0,5033	
41,82	2,039	922,12	849,71	-0,5118	
41,84	2,059	920,58	850,04	-0,5203	
41,86	2,079	919,37	850,09	-0,5288	
41,88	2,099	925,28	849,77	-0,5372	
41,90	2,119	926,40	849,92	-0,5456	
41,92	2,139	923,16	850,05	-0,5538	
41,94	2,159	926,76	849,75	-0,5621	
41,96	2,179	928,85	849,83	-0,5705	
41,98	2,199	925,31	850,10	-0,5789	
42,00	2,219	927,15	849,87	-0,5872	
42,02	2,239	930,95	849,78	-0,5956	
42,04	2,259	928,63	850,06	-0,6039	
42,06	2,279	929,76	849,94	-0,6119	
42,08	2,299	935,53	849,71	-0,6201	
42,10	2,319	934,03	850,06	-0,6284	
42,12	2,339	931,75	850,17	-0,6366	
42,14	2,359	936,72	849,81	-0,6449	
42,16	2,379	937,67	849,89	-0,6532	
42,18	2,399	933,78	850,13	-0,6612	
42,20	2,419	936,91	849,88	-0,6692	
42,22	2,439	940,07	849,76	-0,6774	
42,24	2,459	936,82	849,93	-0,6855	
42,26	2,479	937,29	849,76	-0,6935	
42,28	2,499	941,46	849,74	-0,7018	
42,30	2,519	939,72	850,11	-0,7099	
42,32	2,539	938,45	850,02	-0,7180	
42,34	2,559	942,86	849,75	-0,7261	
42,36	2,579	942,61	849,97	-0,7341	
42,38	2,599	941,07	849,99	-0,7421	
42,40	2,619	945,02	849,72	-0,7502	
42,42	2,639	944,88	849,85	-0,7584	
42,44	2,659	942,17	849,92	-0,7663	
42,46	2,679	945,78	849,67	-0,7744	
42,48	2,699	946,79	849,93	-0,7824	
42,50	2,719	943,25	850,24	-0,7903	
42,52	2,739	946,07	849,96	-0,7981	
42,54	2,759	950,03	849,81	-0,8061	
42,56	2,779	947,60	849,96	-0,8142	
42,58	2,799	948,40	849,78	-0,8222	
42,60	2,819	951,27	849,75	-0,8302	
42,62	2,839	948,41	850,06	-0,8381	
42,64	2,859	947,65	849,93	-0,8459	
42,66	2,879	951,80	849,74	-0,8538	
42,68	2,899	950,31	850,04	-0,8617	
42,70	2,919	948,58	850,03	-0,8695	
42,72	2,939	952,99	849,76	-0,8774	
42,74	2,959	952,58	849,94	-0,8854	
42,76	2,979	949,49	850,00	-0,8932	
42,78	2,999	953,23	849,71	-0,9010	
42,80	3,019	953,95	849,93	-0,9088	
42,82	3,039	950,02	850,18	-0,9165	
42,84	3,059	952,71	849,89	-0,9243	
42,86	3,079	955,81	849,84	-0,9322	
42,88	3,099	952,69	850,10	-0,9401	
42,90	3,119	954,09	849,91	-0,9479	
42,92	3,139	958,37	849,76	-0,9558	
42,94	3,159	955,27	850,00	-0,9636	
42,96	3,179	953,83	849,90	-0,9712	
42,98	3,199	958,16	849,72	-0,9789	
43,00	3,219	956,41	850,04	-0,9867	
43,02	3,239	953,90	850,05	-0,9945	
43,04	3,259	958,35	849,73	-1,002	
43,06	3,279	958,57	849,94	-1,010	
43,08	3,299	955,38	850,14	-1,018	
43,10	3,319	958,92	849,84	-1,025	
43,12	3,339	961,01	849,83	-1,033	
43,14	3,359	956,68	850,09	-1,041	
43,16	3,379	957,53	849,89	-1,048	
43,18	3,399	961,97	849,74	-1,056	
43,20	3,419	958,97	850,09	-1,064	
43,22	3,439	957,16	850,08	-1,072	
43,24	3,459	962,00	849,76	-1,079	
43,26	3,479	961,28	849,93	-1,087	
43,28	3,499	957,49	850,08	-1,094	
43,30	3,519	960,96	849,78	-1,102	
43,32	3,539	962,73	849,88	-1,110	
43,34	3,559	958,95	850,11	-1,117	
43,36	3,579	960,69	849,86	-1,125	
43,38	3,599	963,63	849,85	-1,133	
43,40	3,619	959,93	850,13	-1,140	
43,42	3,639	959,66	849,95	-1,148	
43,44	3,659	964,01	849,78	-1,156	
43,46	3,679	961,77	850,10	-1,163	
43,48	3,699	960,57	850,06	-1,171	
43,50	3,719	965,21	849,80	-1,178	
43,52	3,739	963,98	850,08	-1,186	
43,54	3,759	960,56	850,15	-1,193	
43,56	3,779	963,85	849,81	-1,201	
43,58	3,799	964,53	849,93	-1,209	
43,60	3,819	961,04	850,09	-1,216	
43,62	3,839	963,43	849,80	-1,224	
43,64	3,859	965,41	849,85	-1,231	
43,66	3,879	961,88	850,12	-1,239	
43,68	3,899	962,36	849,90	-1,246	
43,70	3,919	964,98	849,81	-1,253	
43,72	3,939	961,99	850,11	-1,261	
43,74	3,959	961,53	850,00	-1,268	
43,76	3,979	966,38	849,71	-1,276	
43,78	3,999	965,19	849,94	-1,283	
43,80	4,019	962,55	850,03	-1,291	
43,82	4,039	966,25	849,75	-1,298	
43,84	4,059	965,71	849,91	-1,306	
43,86	4,079	961,49	850,10	-1,313	
43,88	4,099	964,24	849,81	-1,320	
43,90	4,119	966,70	849,82	-1,328	
43,92	4,139	962,88	850,11	-1,335	
43,94	4,159	963,25	849,91	-1,343	
43,96	4,179	966,40	849,81	-1,350	
43,98	4,199	963,18	850,14	-1,357	
44,00	4,219	962,09	850,04	-1,365	
44,02	4,239	966,18	849,79	-1,372	
44,04	4,259	964,31	850,08	-1,379	
44,06	4,279	961,53	850,11	-1,387	
44,08	4,299	965,18	849,79	-1,394	
44,10	4,319	964,61	849,97	-1,401	
44,12	4,339	961,05	850,13	-1,409	
44,14	4,359	964,25	849,82	-1,416	
44,16	4,379	966,09	849,88	-1,423	
44,18	4,399	962,43	850,07	-1,431	
44,20	4,419	963,90	849,81	-1,438	
44,22	4,439	965,60	849,86	-1,445	
44,24	4,459	961,81	850,17	-1,452	
44,26	4,479	961,70	849,95	-1,460	
44,28	4,499	965,30	849,79	-1,467	
44,30	4,519	962,22	850,14	-1,474	
44,32	4,539	960,54	850,10	-1,481	
44,34	4,559	965,27	849,81	-1,489	
44,36	4,579	963,96	850,11	-1,496	
44,38	4,599	960,32	850,27	-1,503	
44,40	4,619	963,94	849,89	-1,510	
44,42	4,639	965,53	849,91	-1,517	
44,44	4,659	960,47	850,32	-1,525	
44,46	4,679	960,62	850,13	-1,532	
44,48	4,699	964,59	849,89	-1,539	
44,50	4,719	961,62	850,28	-1,546	
44,52	4,739	958,63	850,33	-1,553	
44,54	4,759	962,90	849,91	-1,560	
44,56	4,779	963,28	850,10	-1,567	
44,58	4,799	958,77	850,43	-1,574	
44,60	4,819	960,71	850,13	-1,581	
44,62	4,839	964,22	849,92	-1,589	
44,64	4,859	960,18	850,40	-1,596	
44,66	4,879	958,23	850,48	-1,603	
44,68	4,899	963,21	849,97	-1,610	
44,70	4,919	963,43	850,12	-1,617	
44,72	4,939	957,73	850,71	-1,624	
44,74	4,959	958,40	850,59	-1,631	
44,76	4,979	963,15	849,97	-1,638	
44,78	4,999	962,16	850,14	-1,645	
44,80	5,019	957,74	850,73	-1,652	
44,82	5,039	959,46	850,57	-1,659	
44,84	5,059	962,90	850,00	-1,666	
44,86	5,079	959,71	850,33	-1,673	
44,88	5,099	955,20	850,87	-1,680	
44,90	5,119	958,07	850,60	-1,687	
44,92	5,139	961,85	849,95	-1,694	
44,94	5,159	959,20	850,28	-1,701	
44,96	5,179	954,78	851,01	-1,708	
44,98	5,199	956,71	850,89	-1,715	
45,00	5,219	960,20	850,15	-1,722	
45,02	5,239	959,36	850,05	-1,729	
45,04	5,259	955,18	850,71	-1,736	
45,06	5,279	956,40	850,79	-1,742	
45,08	5,299	959,30	850,16	-1,749	
45,10	5,319	958,67	850,02	-1,756	
45,12	5,339	953,67	850,74	-1,763	
45,14	5,359	954,16	850,90	-1,770	
45,16	5,379	958,00	850,28	-1,777	
45,18	5,399	958,43	850,03	-1,784	
45,20	5,419	953,14	850,75	-1,791	
45,22	5,439	952,60	851,02	-1,797	
45,24	5,459	955,86	850,44	-1,804	
45,26	5,479	957,86	849,94	-1,811	
45,28	5,499	953,22	850,54	-1,818	
45,30	5,519	951,60	851,01	-1,825	
45,32	5,539	954,66	850,60	-1,831	
45,34	5,559	956,49	849,94	-1,838	
45,36	5,579	952,26	850,45	-1,845	
45,38	5,599	948,56	851,24	-1,852	
45,40	5,619	950,92	851,08	-1,858	
45,42	5,639	953,91	850,29	-1,865	
45,44	5,659	954,18	850,03	-1,872	
45,46	5,679	950,44	850,86	-1,879	
45,48	5,699	950,83	851,24	-1,885	
45,50	5,719	952,33	850,71	-1,892	
45,52	5,739	952,66	849,99	-1,899	
45,54	5,759	949,66	850,40	-1,905	
45,56	5,779	948,38	851,12	-1,912	
45,58	5,799	950,33	850,95	-1,919	
45,60	5,819	951,79	850,16	-1,925	
45,62	5,839	950,94	850,13	-1,932	
45,64	5,859	947,03	851,11	-1,939	
45,66	5,879	947,50	851,41	-1,945	
45,68	5,899	949,11	850,78	-1,952	
45,70	5,919	949,44	849,98	-1,958	
45,72	5,939	946,46	850,45	-1,965	
45,74	5,959	944,86	851,41	-1,971	
45,76	5,979	946,18	851,39	-1,978	
45,78	5,999	947,42	850,59	-1,984	
45,80	6,019	947,73	849,95	-1,991	
45,82	6,039	945,02	850,63	-1,998	
45,84	6,059	944,63	851,32	-2,004	
45,86	6,079	945,54	851,01	-2,010	
45,88	6,099	945,67	850,18	-2,017	
45,90	6,119	944,39	850,12	-2,023	
45,92	6,139	941,50	850,95	-2,030	
45,94	6,159	942,02	851,12	-2,036	
45,96	6,179	943,71	850,46	-2,043	
45,98	6,199	944,50	849,96	-2,049	
46,00	6,219	940,31	850,73	-2,056	
46,02	6,239	939,52	851,32	-2,062	
46,04	6,259	942,23	850,94	-2,068	
46,06	6,279	944,57	850,10	-2,075	
46,08	6,299	943,05	850,19	-2,081	
46,10	6,319	939,52	851,03	-2,088	
46,12	6,339	940,52	851,12	-2,094	
46,14	6,359	941,87	850,39	-2,100	
46,16	6,379	941,70	850,01	-2,106	
46,18	6,399	937,59	850,97	-2,113	
46,20	6,419	936,97	851,62	-2,119	
46,22	6,439	939,11	851,21	-2,125	
46,24	6,459	939,48	850,30	-2,132	
46,26	6,479	938,55	850,04	-2,138	
46,28	6,499	936,48	850,97	-2,144	
46,30	6,519	936,33	851,41	-2,150	
46,32	6,539	937,02	850,87	-2,157	
46,34	6,559	938,10	850,05	-2,163	
46,36	6,579	935,99	850,29	-2,169	
46,38	6,599	934,09	851,07	-2,175	
46,40	6,619	935,62	851,04	-2,181	
46,42	6,639	937,28	850,29	-2,188	
46,44	6,659	936,07	850,06	-2,194	
46,46	6,679	931,56	850,93	-2,200	
46,48	6,699	931,26	851,28	-2,206	
46,50	6,719	933,16	850,70	-2,212	
46,52	6,739	934,90	849,97	-2,218	
46,54	6,759	932,00	850,52	-2,225	
46,56	6,779	929,87	851,37	-2,231	
46,58	6,799	931,59	851,24	-2,237	
46,60	6,819	932,29	850,43	-2,242	
46,62	6,839	931,65	850,00	-2,249	
46,64	6,859	928,53	850,87	-2,255	
46,66	6,879	928,33	851,44	-2,261	
46,68	6,899	929,87	851,01	-2,267	
46,70	6,919	930,58	850,16	-2,273	
46,72	6,939	928,94	850,18	-2,279	
46,74	6,959	926,74	851,06	-2,285	
46,76	6,979	927,21	851,23	-2,291	
46,78	6,999	927,76	850,56	-2,296	
46,80	7,019	928,20	849,98	-2,302	
46,82	7,039	924,53	850,76	-2,308	
46,84	7,059	923,31	851,53	-2,314	
46,86	7,079	925,48	851,26	-2,320	
46,88	7,099	926,45	850,41	-2,326	
46,90	7,119	925,70	849,95	-2,332	
46,92	7,139	923,27	850,79	-2,338	
46,94	7,159	922,84	851,38	-2,344	
46,96	7,179	923,51	850,99	-2,349	
46,98	7,199	924,47	850,14	-2,355	
47,00	7,219	923,34	850,18	-2,361	
47,02	7,239	919,75	851,15	-2,367	
47,04	7,259	919,23	851,40	-2,373	
47,06	7,279	920,14	850,75	-2,378	
47,08	7,299	921,35	850,02	-2,384	
47,10	7,319	919,12	850,55	-2,390	
47,12	7,339	917,89	851,31	-2,396	
47,14	7,359	919,31	851,11	-2,401	
47,16	7,379	920,81	850,27	-2,407	
47,18	7,399	920,14	850,07	-2,413	
47,20	7,419	915,89	851,17	-2,419	
47,22	7,439	915,33	851,71	-2,424	
47,24	7,459	916,62	851,20	-2,430	
47,26	7,479	917,05	850,27	-2,435	
47,28	7,499	915,83	850,09	-2,441	
47,30	7,520	914,13	850,91	-2,447	
47,32	7,539	914,32	851,15	-2,453	
47,34	7,559	914,54	850,52	-2,458	
47,36	7,579	914,86	849,97	-2,463	
47,38	7,599	911,07	850,80	-2,469	
47,40	7,619	909,86	851,57	-2,475	
47,42	7,639	912,16	851,28	-2,480	
47,44	7,659	913,38	850,39	-2,486	
47,46	7,679	912,24	850,03	-2,491	
47,48	7,699	909,01	850,95	-2,497	
47,50	7,719	908,84	851,50	-2,502	
47,52	7,739	909,99	851,02	-2,507	
47,54	7,759	911,15	850,15	-2,513	
47,56	7,779	909,59	850,25	-2,518	
47,58	7,799	906,50	851,17	-2,524	
47,60	7,819	906,69	851,33	-2,529	
47,62	7,839	907,33	850,63	-2,534	
47,64	7,859	907,87	849,98	-2,540	
47,66	7,879	904,73	850,76	-2,545	
47,68	7,899	903,74	851,58	-2,550	
47,70	7,919	905,41	851,33	-2,556	
47,72	7,939	905,65	850,44	-2,561	
47,74	7,959	904,67	850,03	-2,566	
47,76	7,979	902,03	850,81	-2,571	
47,78	7,999	902,13	851,23	-2,577	
47,80	8,019	903,29	850,71	-2,582	
47,82	8,039	904,62	850,00	-2,587	
47,84	8,059	901,50	850,63	-2,592	
47,86	8,079	898,05	851,53	-2,597	
47,88	8,099	898,64	851,39	-2,602	
47,90	8,119	900,10	850,55	-2,607	
47,92	8,139	900,38	849,95	-2,612	
47,94	8,159	897,49	850,61	-2,618	
47,96	8,179	896,26	851,16	-2,623	
47,98	8,199	896,58	850,77	-2,627	
48,00	8,219	897,66	850,02	-2,632	
48,02	8,239	895,13	850,44	-2,638	
48,04	8,259	892,02	851,35	-2,643	
48,06	8,279	893,72	851,32	-2,648	
48,08	8,299	894,95	850,51	-2,652	
48,10	8,319	894,77	849,97	-2,657	
48,12	8,339	891,67	850,81	-2,662	
48,14	8,359	891,04	851,53	-2,667	
48,16	8,379	891,20	851,21	-2,672	
48,18	8,399	891,01	850,34	-2,677	
48,20	8,419	890,74	850,04	-2,681	
48,22	8,439	888,38	851,04	-2,686	
48,24	8,459	887,21	851,59	-2,691	
48,26	8,479	886,90	851,12	-2,696	
48,28	8,499	887,35	850,22	-2,700	
48,30	8,519	886,78	850,18	-2,705	
48,32	8,539	885,06	851,18	-2,710	
48,34	8,559	884,86	851,46	-2,715	
48,36	8,579	884,37	850,79	-2,719	
48,38	8,599	884,66	850,00	-2,724	
48,40	8,619	881,75	850,56	-2,728	
48,42	8,639	880,11	851,51	-2,733	
48,44	8,659	881,12	851,43	-2,737	
48,46	8,679	881,12	850,61	-2,742	
48,48	8,699	881,20	849,96	-2,746	
48,50	8,719	878,87	850,68	-2,751	
48,52	8,739	876,96	851,47	-2,755	
48,54	8,759	876,64	851,21	-2,759	
48,56	8,779	877,23	850,33	-2,764	
48,58	8,799	876,32	850,15	-2,768	
48,60	8,819	872,11	851,18	-2,772	
48,62	8,839	871,51	851,63	-2,777	
48,64	8,859	872,75	851,06	-2,781	
48,66	8,879	873,26	850,14	-2,785	
48,68	8,899	871,87	850,21	-2,789	
48,70	8,919	869,98	851,33	-2,793	
48,72	8,939	869,50	851,67	-2,798	
48,74	8,959	868,58	851,02	-2,802	
48,76	8,979	868,13	850,12	-2,806	
48,78	8,999	866,93	850,28	-2,810	
48,80	9,019	865,84	851,18	-2,814	
48,82	9,039	866,13	851,27	-2,818	
48,84	9,059	865,55	850,54	-2,822	
48,86	9,079	864,92	849,98	-2,826	
48,88	9,099	861,13	850,91	-2,830	
48,90	9,119	859,24	851,80	-2,834	
48,92	9,139	860,04	851,55	-2,838	
48,94	9,159	860,36	850,65	-2,842	
48,96	9,179	859,72	850,00	-2,845	
48,98	9,199	857,39	850,68	-2,849	
49,00	9,219	856,35	851,36	-2,853	
49,02	9,239	856,54	851,04	-2,857	
49,04	9,259	856,59	850,19	-2,860	
49,06	9,279	854,81	850,16	-2,864	
49,08	9,299	851,17	851,31	-2,868	
49,10	9,319	851,23	851,77	-2,872	
49,12	9,339	851,54	851,19	-2,876	
49,14	9,359	851,33	850,26	-2,879	
49,16	9,379	850,96	850,11	-2,883	
49,18	9,399	848,62	851,10	-2,886	
49,20	9,419	847,09	851,50	-2,890	
49,22	9,439	846,69	850,94	-2,893	
49,24	9,459	846,16	850,08	-2,896	
49,26	9,479	843,60	850,35	-2,900	
49,28	9,499	841,81	851,42	-2,903	
49,30	9,519	841,88	851,60	-2,906	
49,32	9,539	841,20	850,89	-2,909	
49,34	9,559	840,52	850,03	-2,913	
49,36	9,579	837,88	850,42	-2,916	
49,38	9,599	835,82	851,52	-2,919	
49,40	9,619	835,36	851,66	-2,922	
49,42	9,639	834,48	850,92	-2,925	
49,44	9,659	834,51	850,03	-2,928	
49,46	9,679	833,19	850,39	-2,931	
49,48	9,699	830,79	851,43	-2,935	
49,50	9,719	829,21	851,54	-2,938	
49,52	9,739	827,82	850,79	-2,940	
49,54	9,759	827,68	850,01	-2,943	
49,56	9,779	825,04	850,64	-2,946	
49,58	9,799	822,76	851,61	-2,949	
49,60	9,819	822,59	851,52	-2,952	
49,62	9,839	821,91	850,66	-2,954	
49,64	9,859	821,39	850,02	-2,957	
49,66	9,879	818,78	850,88	-2,960	
49,68	9,899	816,66	851,74	-2,963	
49,70	9,919	815,11	851,47	-2,965	
49,72	9,939	813,83	850,60	-2,967	
49,74	9,959	812,92	849,93	-2,970	
49,76	9,979	810,53	850,76	-2,972	
49,78	9,999	808,07	851,74	-2,975	
49,80	10,02	806,70	851,61	-2,977	
49,82	10,04	805,20	850,76	-2,979	
49,84	10,06	804,75	849,98	-2,981	
49,86	10,08	802,92	850,61	-2,984	
49,88	10,10	800,63	851,57	-2,986	
49,90	10,12	799,16	851,48	-2,988	
49,92	10,14	797,74	850,67	-2,990	
49,94	10,16	797,00	849,93	-2,992	
49,96	10,18	794,41	850,59	-2,994	
49,98	10,20	791,54	851,55	-2,997	
50,00	10,22	789,99	851,44	-2,998	
50,02	10,24	788,53	850,61	-3,000	
50,04	10,26	787,16	849,96	-3,002	
50,06	10,28	783,78	850,67	-3,004	
50,08	10,30	782,21	851,44	-3,006	
50,10	10,32	781,30	851,20	-3,008	
50,12	10,34	779,93	850,36	-3,009	
50,14	10,36	777,92	850,03	-3,010	
50,16	10,38	772,49	851,03	-3,011	
50,18	10,40	764,35	851,64	-3,011	
50,20	10,42	750,09	851,22	-3,010	
50,22	10,43	730,19	850,33	-3,010	
50,24	10,43	706,31	850,06	-3,009	
50,26	10,44	678,23	851,08	-3,009	
50,28	10,44	652,28	851,65	-3,008	
50,30	10,44	629,81	851,18	-3,008	
50,32	10,44	610,48	850,27	-3,007	
50,34	10,44	593,25	850,11	-3,007	
50,36	10,44	576,02	851,24	-3,007	
50,38	10,44	560,73	851,79	-3,007	
50,40	10,44	547,74	851,29	-3,006	
50,42	10,44	536,34	850,37	-3,006	
50,44	10,44	526,08	849,98	-3,005	
50,46	10,44	516,05	850,86	-3,005	
50,48	10,44	506,98	851,44	-3,005	
50,50	10,44	498,42	851,02	-3,005	
50,52	10,44	491,38	850,15	-3,005	
50,54	10,44	483,67	850,20	-3,005	
50,56	10,44	473,85	851,34	-3,005	
50,58	10,44	466,30	851,73	-3,004	
50,60	10,44	460,12	851,12	-3,004	
50,62	10,44	454,26	850,20	-3,004	
50,64	10,44	447,84	850,17	-3,004	
50,66	10,44	441,34	851,23	-3,004	
50,68	10,44	435,77	851,61	-3,004	
50,70	10,44	429,19	851,02	-3,004	
50,72	10,44	338,88	850,13	-3,003	
50,74	10,44	144,27	850,26	-3,003	
50,76	10,44	22,55	851,33	-3,003	
50,78	10,44	-6,705	851,61	-3,003	
50,80	10,44	-4,846	850,96	-3,003	
50,82	10,44	-1,778	850,08	-3,003	
50,84	10,44	-2,074	850,39	-3,002	
50,86	10,44	-3,258	851,49	-3,002	
50,88	10,44	-3,322	851,68	-3,002	
50,90	10,44	-2,986	850,97	-3,002	
50,92	10,44	-2,109	850,08	-3,002	
50,94	10,44	-2,340	850,36	-3,002	
50,96	10,44	-3,255	851,43	-3,002	
50,98	10,44	-3,264	851,60	-3,002	
51,00	10,44	-3,022	850,90	-3,002	
51,02	10,44	-2,232	850,03	-3,001	
51,04	10,44	-2,488	850,39	-3,001	
51,06	10,44	-3,410	851,54	-3,001	
51,08	10,44	-3,411	851,73	-3,001	
51,10	10,44	-3,113	851,03	-3,001	
51,12	10,44	-2,404	850,12	-3,001	
51,14	10,44	-2,443	850,22	-3,001	
51,16	10,44	-3,265	851,20	-3,001	
51,18	10,44	1,089	851,41	-3,001	
51,20	10,44	101,75	850,72	-3,000	
51,22	10,44	250,98	849,73	-3,000	
51,24	10,44	324,53	848,75	-3,000	
51,26	10,44	341,67	847,79	-3,000	
51,28	10,44	345,39	846,86	-3,000	
51,30	10,44	349,11	845,92	-3,000	
51,32	10,44	354,09	844,96	-2,999	
51,34	10,44	359,04	843,99	-2,999	
51,36	10,44	364,26	843,03	-2,999	
51,38	10,44	370,26	842,08	-2,999	
51,40	10,44	375,69	841,13	-2,999	
51,42	10,44	380,98	840,18	-2,999	
51,44	10,44	385,91	839,22	-2,999	
51,46	10,44	391,02	838,27	-2,998	
51,48	10,44	395,96	837,32	-2,998	
51,50	10,44	400,63	836,38	-2,998	
51,52	10,44	405,16	835,43	-2,998	
51,54	10,44	409,59	834,50	-2,998	
51,56	10,44	414,06	833,56	-2,998	
51,58	10,44	418,58	832,63	-2,997	
51,60	10,44	422,95	831,70	-2,997	
51,62	10,44	427,34	830,77	-2,997	
51,64	10,44	431,30	829,84	-2,997	
51,66	10,44	435,37	828,90	-2,997	
51,68	10,44	439,51	827,96	-2,996	
51,70	10,44	443,34	827,03	-2,996	
51,72	10,44	447,52	826,12	-2,996	
51,74	10,44	451,53	825,21	-2,996	
51,76	10,44	455,11	824,29	-2,996	
51,78	10,44	458,52	823,36	-2,995	
51,80	10,44	461,88	822,45	-2,995	
51,82	10,44	465,71	821,56	-2,995	
51,84	10,44	469,35	820,67	-2,995	
51,86	10,44	472,31	819,78	-2,995	
51,88	10,44	475,30	818,86	-2,994	
51,90	10,44	478,53	817,96	-2,994	
51,92	10,44	481,90	817,06	-2,994	
51,94	10,44	485,32	816,16	-2,994	
51,96	10,44	488,68	815,28	-2,994	
51,98	10,44	491,81	814,40	-2,993	
52,00	10,44	494,33	813,52	-2,993	
52,02	10,44	497,11	812,64	-2,993	
52,04	10,44	499,79	811,75	-2,993	
52,06	10,44	502,44	810,88	-2,993	
52,08	10,44	505,33	810,02	-2,992	
52,10	10,44	507,91	809,15	-2,992	
52,12	10,44	510,19	808,28	-2,992	
52,14	10,44	512,42	807,42	-2,992	
52,16	10,44	514,57	806,56	-2,991	
52,18	10,44	516,73	805,68	-2,991	
52,20	10,44	519,00	804,81	-2,991	
52,22	10,44	521,17	803,96	-2,991	
52,24	10,44	523,21	803,08	-2,990	
52,26	10,44	524,82	802,19	-2,990	
52,28	10,44	526,48	801,31	-2,990	
52,30	10,44	528,13	800,43	-2,990	
52,32	10,44	529,92	799,55	-2,990	
52,34	10,44	531,64	798,69	-2,989	
52,36	10,44	533,47	797,84	-2,989	
52,38	10,44	534,60	796,98	-2,989	
52,40	10,44	536,12	796,13	-2,989	
52,42	10,44	537,53	795,28	-2,988	
52,44	10,44	538,67	794,42	-2,988	
52,46	10,44	540,20	793,59	-2,988	
52,48	10,44	541,14	792,81	-2,988	
52,50	10,44	542,03	792,00	-2,987	
52,52	10,44	543,51	791,16	-2,987	
52,54	10,44	544,48	790,32	-2,987	
52,56	10,44	544,79	789,47	-2,986	
52,58	10,44	544,78	788,64	-2,986	
52,60	10,44	544,77	787,84	-2,986	
52,62	10,44	544,96	787,05	-2,986	
52,64	10,44	546,18	786,25	-2,985	
52,66	10,44	547,54	785,43	-2,985	
52,68	10,44	548,19	784,59	-2,985	
52,70	10,44	548,32	783,77	-2,984	
52,72	10,44	548,24	782,98	-2,984	
52,74	10,44	548,18	782,21	-2,984	
52,76	10,44	548,16	781,43	-2,984	
52,78	10,44	547,47	780,64	-2,984	
52,80	10,44	545,95	779,86	-2,983	
52,82	10,44	545,00	779,07	-2,983	
52,84	10,44	544,80	778,25	-2,983	
52,86	10,44	544,68	777,45	-2,983	
52,88	10,44	543,46	776,68	-2,982	
52,90	10,44	542,13	775,94	-2,982	
52,92	10,44	540,93	775,19	-2,982	
52,94	10,44	539,27	774,41	-2,981	
52,96	10,44	538,31	773,60	-2,981	
52,98	10,44	537,97	772,79	-2,981	
53,00	10,44	536,72	772,00	-2,981	
53,02	10,44	535,31	771,21	-2,980	
53,04	10,44	534,07	770,44	-2,980	
53,06	10,44	532,41	769,67	-2,980	
53,08	10,44	531,23	768,92	-2,979	
53,10	10,44	529,77	768,16	-2,979	
53,12	10,44	527,83	767,42	-2,979	
53,14	10,44	525,77	766,67	-2,979	
53,16	10,44	524,07	765,93	-2,978	
53,18	10,44	522,32	765,22	-2,978	
53,20	10,44	520,76	764,53	-2,978	
53,22	10,44	518,85	763,84	-2,978	
53,24	10,44	516,58	763,13	-2,977	
53,26	10,44	514,83	762,42	-2,977	
53,28	10,44	513,14	761,73	-2,977	
53,30	10,44	511,09	761,04	-2,977	
53,32	10,44	508,86	760,36	-2,977	
53,34	10,44	506,42	759,66	-2,976	
53,36	10,44	503,63	758,97	-2,976	
53,38	10,44	501,13	758,27	-2,976	
53,40	10,44	498,34	757,58	-2,975	
53,42	10,44	495,61	756,91	-2,975	
53,44	10,44	493,15	756,24	-2,975	
53,46	10,44	490,92	755,56	-2,975	
53,48	10,44	488,22	754,89	-2,975	
53,50	10,44	485,48	754,23	-2,974	
53,52	10,44	482,90	753,58	-2,974	
53,54	10,44	479,91	752,91	-2,974	
53,56	10,44	476,77	752,23	-2,974	
53,58	10,44	474,13	751,54	-2,973	
53,60	10,44	471,37	750,85	-2,973	
53,62	10,44	468,67	750,16	-2,973	
53,64	10,44	466,15	749,49	-2,973	
53,66	10,44	463,18	748,82	-2,973	
53,68	10,44	459,88	748,17	-2,972	
53,70	10,44	456,46	747,52	-2,972	
53,72	10,44	453,01	746,89	-2,972	
53,74	10,44	449,75	746,26	-2,972	
53,76	10,44	447,03	745,62	-2,972	
53,78	10,44	443,58	744,99	-2,971	
53,80	10,44	439,83	744,36	-2,971	
53,82	10,44	436,26	743,72	-2,971	
53,84	10,44	432,82	743,10	-2,971	
53,86	10,44	429,39	742,49	-2,971	
53,88	10,44	426,07	741,89	-2,970	
53,90	10,44	422,81	741,30	-2,970	
53,92	10,44	419,48	740,72	-2,970	
53,94	10,44	416,13	740,14	-2,970	
53,96	10,44	412,68	739,57	-2,970	
53,98	10,44	409,30	738,99	-2,970	
54,00	10,44	406,04	738,41	-2,969	
54,02	10,44	402,73	737,83	-2,969	
54,04	10,44	399,35	737,24	-2,969	
54,06	10,44	395,56	736,64	-2,969	
54,08	10,44	391,45	736,04	-2,969	
54,10	10,44	387,64	735,46	-2,969	
54,12	10,44	384,08	734,88	-2,969	
54,14	10,44	380,04	734,32	-2,968	
54,16	10,44	376,16	733,75	-2,968	
54,18	10,44	372,15	733,21	-2,968	
54,20	10,44	367,94	732,67	-2,968	
54,22	10,44	364,02	732,13	-2,968	
54,24	10,44	359,85	731,59	-2,968	
54,26	10,44	355,40	731,07	-2,968	
54,28	10,44	351,05	730,56	-2,968	
54,30	10,44	347,14	730,06	-2,968	
54,32	10,44	343,07	729,57	-2,968	
54,34	10,44	339,16	729,08	-2,968	
54,36	10,44	335,14	728,60	-2,968	
54,38	10,44	330,86	728,14	-2,968	
54,40	10,44	325,89	727,68	-2,968	
54,42	10,44	320,92	727,23	-2,968	
54,44	10,44	315,60	726,80	-2,968	
54,46	10,44	310,00	726,39	-2,969	
54,48	10,44	304,98	725,99	-2,969	
54,50	10,44	300,53	725,61	-2,969	
54,52	10,44	295,64	725,23	-2,969	
54,54	10,44	290,69	724,85	-2,969	
54,56	10,44	286,01	724,49	-2,969	
54,58	10,44	281,41	724,13	-2,969	
54,60	10,44	276,40	723,80	-2,970	
54,62	10,44	271,39	723,48	-2,970	
54,64	10,44	266,23	723,19	-2,970	
54,66	10,44	261,18	722,91	-2,970	
54,68	10,44	256,06	722,61	-2,971	
54,70	10,44	251,10	722,31	-2,971	
54,72	10,44	245,94	722,03	-2,971	
54,74	10,44	240,97	721,79	-2,971	
54,76	10,44	235,28	721,56	-2,972	
54,78	10,44	229,41	721,36	-2,972	
54,80	10,44	224,17	721,17	-2,972	
54,82	10,44	218,58	721,00	-2,973	
54,84	10,44	213,34	720,84	-2,973	
54,86	10,44	208,18	720,70	-2,973	
54,88	10,44	203,26	720,58	-2,974	
54,90	10,44	198,01	720,45	-2,974	
54,92	10,44	192,44	720,31	-2,975	
54,94	10,44	187,28	720,18	-2,975	
54,96	10,44	181,53	720,06	-2,976	
54,98	10,44	175,67	719,95	-2,976	
55,00	10,44	170,46	719,86	-2,976	
55,02	10,44	164,73	719,79	-2,976	
55,04	10,44	158,90	719,72	-2,977	
55,06	10,44	153,72	719,63	-2,977	
55,08	10,44	148,17	719,55	-2,978	
55,10	10,44	142,96	719,50	-2,978	
55,12	10,44	137,61	719,45	-2,979	
55,14	10,44	131,55	719,41	-2,979	
55,16	10,44	126,14	719,37	-2,979	
55,18	10,44	120,85	719,33	-2,980	
55,20	10,44	115,31	719,30	-2,980	
55,22	10,44	110,13	719,25	-2,981	
55,24	10,44	104,90	719,20	-2,981	
55,26	10,44	99,94	719,16	-2,981	
55,28	10,44	94,86	719,13	-2,982	
55,30	10,44	89,88	719,09	-2,982	
55,32	10,44	84,67	719,06	-2,982	
55,34	10,44	79,79	719,04	-2,983	
55,36	10,44	75,31	719,01	-2,983	
55,38	10,44	70,88	718,96	-2,984	
55,40	10,44	66,40	718,90	-2,984	
55,42	10,44	62,08	718,84	-2,984	
55,44	10,44	58,16	718,78	-2,984	
55,46	10,44	54,03	718,73	-2,985	
55,48	10,44	50,08	718,66	-2,985	
55,50	10,44	46,53	718,55	-2,985	
55,52	10,44	42,74	718,45	-2,986	
55,54	10,44	38,63	718,36	-2,986	
55,56	10,44	35,37	718,28	-2,986	
55,58	10,44	32,70	718,17	-2,986	
55,60	10,44	29,72	718,06	-2,987	
55,62	10,44	26,41	717,99	-2,987	
55,64	10,44	23,04	717,93	-2,987	
55,66	10,44	19,69	717,87	-2,987	