Zeit  1 - Standardmessrate [s]	ZwickWeg [mm]	ZwickKraft [N]	Pyrometer [°C]	Maytec [mm]
0	-0,7810	156,36	150,09	0,05070	
0,02000	-0,7810	156,35	150,08	0,05075	
0,04000	-0,7810	156,35	150,08	0,05085	
0,06000	-0,7810	156,30	150,08	0,05088	
0,08000	-0,7810	156,27	150,08	0,05090	
0,1000	-0,7810	156,26	150,08	0,05091	
0,1200	-0,7810	156,30	150,08	0,05084	
0,1400	-0,7810	156,38	150,08	0,05078	
0,1600	-0,7810	156,36	150,07	0,05083	
0,1800	-0,7810	156,31	150,07	0,05088	
0,2000	-0,7810	156,37	150,08	0,05096	
0,2200	-0,7810	156,45	150,08	0,05104	
0,2400	-0,7810	156,52	150,08	0,05104	
0,2600	-0,7810	156,51	150,08	0,05093	
0,2800	-0,7810	156,44	150,08	0,05081	
0,3000	-0,7810	156,37	150,08	0,05074	
0,3200	-0,7810	156,40	150,08	0,05076	
0,3400	-0,7810	156,51	150,08	0,05085	
0,3600	-0,7810	156,56	150,07	0,05097	
0,3800	-0,7810	156,59	150,07	0,05103	
0,4000	-0,7810	156,59	150,07	0,05096	
0,4200	-0,7810	156,54	150,08	0,05078	
0,4400	-0,7810	156,50	150,08	0,05070	
0,4600	-0,7810	156,53	150,08	0,05078	
0,4800	-0,7810	156,55	150,08	0,05087	
0,5000	-0,7810	156,58	150,08	0,05092	
0,5200	-0,7810	156,56	150,08	0,05102	
0,5400	-0,7810	156,53	150,08	0,05099	
0,5600	-0,7810	156,49	150,08	0,05086	
0,5800	-0,7810	156,51	150,07	0,05076	
0,6000	-0,7810	156,52	150,07	0,05072	
0,6200	-0,7810	156,56	150,07	0,05080	
0,6400	-0,7810	156,55	150,08	0,05093	
0,6600	-0,7810	156,51	150,08	0,05101	
0,6800	-0,7810	156,55	150,08	0,05104	
0,7000	-0,7810	156,57	150,08	0,05096	
0,7200	-0,7810	156,56	150,08	0,05083	
0,7400	-0,7810	156,52	150,08	0,05077	
0,7600	-0,7810	156,58	150,08	0,05082	
0,7800	-0,7810	156,61	150,08	0,05086	
0,8000	-0,7810	156,57	150,08	0,05089	
0,8200	-0,7810	156,51	150,07	0,05087	
0,8400	-0,7810	156,49	150,07	0,05085	
0,8600	-0,7811	156,47	150,08	0,05083	
0,8800	-0,7811	156,48	150,08	0,05081	
0,9000	-0,7811	156,45	150,08	0,05082	
0,9200	-0,7811	156,44	150,08	0,05084	
0,9400	-0,7811	156,49	150,09	0,05091	
0,9600	-0,7811	156,49	150,08	0,05098	
0,9800	-0,7811	156,46	150,08	0,05101	
1,000	-0,7811	156,48	150,08	0,05091	
1,020	-0,7811	156,51	150,08	0,05077	
1,040	-0,7811	156,52	150,07	0,05067	
1,060	-0,7811	156,50	150,07	0,05070	
1,080	-0,7811	156,53	150,07	0,05080	
1,100	-0,7811	156,61	150,08	0,05090	
1,120	-0,7810	156,66	150,08	0,05096	
1,140	-0,7810	156,62	150,08	0,05094	
1,160	-0,7811	156,57	150,08	0,05083	
1,180	-0,7811	156,56	150,08	0,05076	
1,200	-0,7810	156,55	150,08	0,05078	
1,220	-0,7810	156,57	150,08	0,05083	
1,240	-0,7811	156,61	150,08	0,05088	
1,260	-0,7810	156,62	150,08	0,05089	
1,280	-0,7810	156,65	150,08	0,05090	
1,300	-0,7810	156,62	150,07	0,05088	
1,320	-0,7811	156,56	150,07	0,05082	
1,340	-0,7811	156,54	150,08	0,05079	
1,360	-0,7811	156,52	150,08	0,05077	
1,380	-0,7811	156,49	150,08	0,05084	
1,400	-0,7811	156,46	150,08	0,05092	
1,420	-0,7811	156,43	150,08	0,05094	
1,440	-0,7810	156,45	150,08	0,05090	
1,460	-0,7810	156,50	150,08	0,05078	
1,480	-0,7810	156,47	150,08	0,05067	
1,500	-0,7810	156,42	150,08	0,05069	
1,520	-0,7810	156,44	150,08	0,05074	
1,540	-0,7810	156,43	150,08	0,05086	
1,560	-0,7810	156,33	150,07	0,05099	
1,580	-0,7810	156,30	150,07	0,05100	
1,600	-0,7810	156,42	150,08	0,05093	
1,620	-0,7811	156,53	150,08	0,05082	
1,640	-0,7811	156,52	150,08	0,05075	
1,660	-0,7811	156,47	150,08	0,05078	
1,680	-0,7811	156,42	150,08	0,05085	
1,700	-0,7811	156,42	150,08	0,05089	
1,720	-0,7811	156,44	150,08	0,05089	
1,740	-0,7811	156,42	150,08	0,05092	
1,760	-0,7811	156,46	150,08	0,05085	
1,780	-0,7811	156,46	150,07	0,05068	
1,800	-0,7811	156,44	150,07	0,05060	
1,820	-0,7810	156,40	150,07	0,05067	
1,840	-0,7810	156,38	150,08	0,05081	
1,860	-0,7810	156,42	150,08	0,05090	
1,880	-0,7811	156,48	150,08	0,05094	
1,900	-0,7811	156,49	150,09	0,05089	
1,920	-0,7811	156,46	150,08	0,05076	
1,940	-0,7811	156,52	150,09	0,05066	
1,960	-0,7811	156,58	150,08	0,05069	
1,980	-0,7811	156,56	150,09	0,05082	
2,000	-0,7811	156,52	150,09	0,05093	
2,020	-0,7811	156,48	150,08	0,05096	
2,040	-0,7811	156,43	150,08	0,05090	
2,060	-0,7811	156,37	150,08	0,05082	
2,080	-0,7811	156,36	150,08	0,05073	
2,100	-0,7810	156,36	150,07	0,05072	
2,120	-0,7811	156,39	150,08	0,05074	
2,140	-0,7811	156,44	150,08	0,05082	
2,160	-0,7811	156,49	150,08	0,05090	
2,180	-0,7811	156,49	150,08	0,05097	
2,200	-0,7811	156,44	150,08	0,05096	
2,220	-0,7811	156,42	150,08	0,05087	
2,240	-0,7811	156,46	150,08	0,05073	
2,260	-0,7810	156,53	150,09	0,05067	
2,280	-0,7810	156,48	150,08	0,05078	
2,300	-0,7810	156,40	150,08	0,05088	
2,320	-0,7811	156,39	150,08	0,05090	
2,340	-0,7811	156,46	150,07	0,05089	
2,360	-0,7811	156,59	150,07	0,05081	
2,380	-0,7810	156,67	150,08	0,05072	
2,400	-0,7810	156,62	150,08	0,05065	
2,420	-0,7810	156,57	150,08	0,05068	
2,440	-0,7810	156,52	150,08	0,05081	
2,460	-0,7810	156,46	150,08	0,05089	
2,480	-0,7810	156,50	150,09	0,05088	
2,500	-0,7810	156,48	150,09	0,05086	
2,520	-0,7810	156,42	150,09	0,05084	
2,540	-0,7810	156,45	150,08	0,05084	
2,560	-0,7810	156,52	150,08	0,05082	
2,580	-0,7811	156,46	150,09	0,05085	
2,600	-0,7811	156,46	150,08	0,05088	
2,620	-0,7810	156,49	150,08	0,05095	
2,640	-0,7810	156,49	150,07	0,05100	
2,660	-0,7811	156,52	150,07	0,05087	
2,680	-0,7811	156,50	150,07	0,05069	
2,700	-0,7811	156,47	150,08	0,05067	
2,720	-0,7810	156,51	150,08	0,05079	
2,740	-0,7810	156,57	150,09	0,05135	
2,760	-0,7810	156,61	150,09	0,05208	
2,780	-0,7810	156,55	150,08	0,05243	
2,800	-0,7810	156,51	150,08	0,05253	
2,820	-0,7810	156,51	150,08	0,05248	
2,840	-0,7811	156,54	150,09	0,05239	
2,860	-0,7811	156,55	150,08	0,05236	
2,880	-0,7810	156,50	150,08	0,05238	
2,900	-0,7810	156,53	150,08	0,05246	
2,920	-0,7810	156,49	150,07	0,05252	
2,940	-0,7810	156,41	150,07	0,05253	
2,960	-0,7810	156,49	150,08	0,05233	
2,980	-0,7810	156,58	150,08	0,05160	
3,000	-0,7810	156,58	150,08	0,05092	
3,020	-0,7810	156,57	150,08	0,05073	
3,040	-0,7810	156,54	150,08	0,05080	
3,060	-0,7810	156,52	150,08	0,05091	
3,080	-0,7810	156,53	150,09	0,05095	
3,100	-0,7810	156,54	150,09	0,05091	
3,120	-0,7810	156,53	150,09	0,05083	
3,140	-0,7810	156,52	150,09	0,05072	
3,160	-0,7810	156,55	150,09	0,05075	
3,180	-0,7810	156,53	150,08	0,05090	
3,200	-0,7810	156,47	150,08	0,05098	
3,220	-0,7810	156,48	150,08	0,05096	
3,240	-0,7810	156,56	150,07	0,05091	
3,260	-0,7810	156,57	150,07	0,05082	
3,280	-0,7810	156,50	150,08	0,05072	
3,300	-0,7810	156,47	150,08	0,05072	
3,320	-0,7810	156,52	150,08	0,05082	
3,340	-0,7810	156,56	150,09	0,05091	
3,360	-0,7810	156,52	150,08	0,05094	
3,380	-0,7810	156,48	150,08	0,05094	
3,400	-0,7810	156,46	150,08	0,05090	
3,420	-0,7810	156,48	150,08	0,05078	
3,440	-0,7810	156,50	150,08	0,05074	
3,460	-0,7810	156,45	150,08	0,05075	
3,480	-0,7810	156,49	150,08	0,05079	
3,500	-0,7810	156,56	150,07	0,05082	
3,520	-0,7810	156,55	150,07	0,05086	
3,540	-0,7810	156,53	150,08	0,05086	
3,560	-0,7810	156,56	150,08	0,05076	
3,580	-0,7810	156,55	150,08	0,05070	
3,600	-0,7811	156,49	150,09	0,05078	
3,620	-0,7810	156,48	150,09	0,05083	
3,640	-0,7810	156,49	150,09	0,05085	
3,660	-0,7810	156,48	150,08	0,05089	
3,680	-0,7810	156,45	150,08	0,05091	
3,700	-0,7810	156,43	150,08	0,05084	
3,720	-0,7810	156,44	150,08	0,05073	
3,740	-0,7810	156,50	150,08	0,05065	
3,760	-0,7810	156,51	150,08	0,05072	
3,780	-0,7810	156,46	150,07	0,05082	
3,800	-0,7810	156,52	150,07	0,05085	
3,820	-0,7810	156,55	150,08	0,05087	
3,840	-0,7810	156,55	150,08	0,05088	
3,860	-0,7810	156,54	150,08	0,05080	
3,880	-0,7810	156,49	150,09	0,05078	
3,900	-0,7810	156,47	150,09	0,05076	
3,920	-0,7810	156,49	150,09	0,05081	
3,940	-0,7810	156,50	150,09	0,05088	
3,960	-0,7810	156,54	150,09	0,05091	
3,980	-0,7810	156,59	150,09	0,05089	
4,000	-0,7811	156,62	150,08	0,05082	
4,020	-0,7811	156,61	150,08	0,05068	
4,040	-0,7811	156,56	150,08	0,05063	
4,060	-0,7810	156,58	150,08	0,05068	
4,080	-0,7810	156,65	150,07	0,05081	
4,100	-0,7810	156,68	150,08	0,05095	
4,120	-0,7810	156,60	150,08	0,05100	
4,140	-0,7810	156,55	150,08	0,05089	
4,160	-0,7810	156,52	150,08	0,05074	
4,180	-0,7810	156,50	150,09	0,05063	
4,200	-0,7810	156,48	150,09	0,05063	
4,220	-0,7810	156,48	150,09	0,05076	
4,240	-0,7810	156,51	150,08	0,05088	
4,260	-0,7810	156,50	150,08	0,05099	
4,280	-0,7810	156,46	150,08	0,05104	
4,300	-0,7810	156,44	150,08	0,05089	
4,320	-0,7810	156,43	150,08	0,05070	
4,340	-0,7810	156,43	150,07	0,05063	
4,360	-0,7810	156,46	150,08	0,05067	
4,380	-0,7810	156,53	150,08	0,05082	
4,400	-0,7810	156,52	150,08	0,05095	
4,420	-0,7810	156,42	150,08	0,05100	
4,440	-0,7810	156,35	150,08	0,05097	
4,460	-0,7810	156,35	150,09	0,05081	
4,480	-0,7810	156,39	150,09	0,05065	
4,500	-0,7810	156,46	150,08	0,05062	
4,520	-0,7810	156,53	150,08	0,05068	
4,540	-0,7810	156,56	150,08	0,05080	
4,560	-0,7810	156,55	150,08	0,05090	
4,580	-0,7810	156,54	150,08	0,05092	
4,600	-0,7810	156,50	150,07	0,05097	
4,620	-0,7810	156,43	150,07	0,05093	
4,640	-0,7810	156,43	150,07	0,05084	
4,660	-0,7810	156,49	150,08	0,05081	
4,680	-0,7810	156,48	150,08	0,05087	
4,700	-0,7810	156,47	150,08	0,05092	
4,720	-0,7810	156,53	150,08	0,05092	
4,740	-0,7810	156,60	150,09	0,05091	
4,760	-0,7810	156,62	150,09	0,05087	
4,780	-0,7810	156,61	150,09	0,05081	
4,800	-0,7810	156,58	150,09	0,05073	
4,820	-0,7810	156,50	150,08	0,05074	
4,840	-0,7810	156,47	150,08	0,05085	
4,860	-0,7810	156,47	150,08	0,05096	
4,880	-0,7810	156,47	150,08	0,05099	
4,900	-0,7810	156,51	150,08	0,05090	
4,920	-0,7810	156,56	150,07	0,05078	
4,940	-0,7810	156,60	150,07	0,05073	
4,960	-0,7810	156,59	150,08	0,05073	
4,980	-0,7810	156,53	150,08	0,05081	
5,000	-0,7810	156,51	150,09	0,05093	
5,020	-0,7810	156,49	150,08	0,05100	
5,040	-0,7810	156,48	150,08	0,05094	
5,060	-0,7810	156,48	150,08	0,05078	
5,080	-0,7810	156,46	150,09	0,05070	
5,100	-0,7810	156,48	150,09	0,05073	
5,120	-0,7810	156,51	150,08	0,05087	
5,140	-0,7810	156,50	150,08	0,05096	
5,160	-0,7810	156,56	150,08	0,05097	
5,180	-0,7810	156,66	150,08	0,05092	
5,200	-0,7810	156,57	150,07	0,05076	
5,220	-0,7810	156,47	150,07	0,05068	
5,240	-0,7810	156,45	150,08	0,05074	
5,260	-0,7810	156,47	150,08	0,05083	
5,280	-0,7810	156,52	150,08	0,05087	
5,300	-0,7810	156,49	150,09	0,05088	
5,320	-0,7810	156,47	150,09	0,05095	
5,340	-0,7810	156,47	150,09	0,05092	
5,360	-0,7810	156,51	150,08	0,05078	
5,380	-0,7810	156,54	150,08	0,05067	
5,400	-0,7810	156,52	150,08	0,05064	
5,420	-0,7810	156,52	150,08	0,05071	
5,440	-0,7810	156,58	150,08	0,05080	
5,460	-0,7810	156,61	150,07	0,05089	
5,480	-0,7810	156,62	150,07	0,05094	
5,500	-0,7810	156,60	150,08	0,05086	
5,520	-0,7810	156,60	150,08	0,05072	
5,540	-0,7810	156,59	150,08	0,05068	
5,560	-0,7810	156,51	150,08	0,05077	
5,580	-0,7810	156,45	150,08	0,05087	
5,600	-0,7810	156,50	150,09	0,05095	
5,620	-0,7810	156,56	150,09	0,05094	
5,640	-0,7810	156,54	150,09	0,05074	
5,660	-0,7810	156,57	150,09	0,05055	
5,680	-0,7810	156,56	150,08	0,05055	
5,700	-0,7810	156,53	150,08	0,05071	
5,720	-0,7810	156,55	150,08	0,05088	
5,740	-0,7810	156,57	150,08	0,05096	
5,760	-0,7810	156,54	150,07	0,05099	
5,780	-0,7810	156,57	150,08	0,05087	
5,800	-0,7810	156,59	150,08	0,05070	
5,820	-0,7810	156,58	150,08	0,05062	
5,840	-0,7810	156,55	150,08	0,05062	
5,860	-0,7810	156,51	150,09	0,05073	
5,880	-0,7810	156,56	150,09	0,05086	
5,900	-0,7810	156,62	150,09	0,05094	
5,920	-0,7810	156,60	150,09	0,05099	
5,940	-0,7810	156,63	150,09	0,05090	
5,960	-0,7811	156,68	150,09	0,05079	
5,980	-0,7811	156,64	150,09	0,05072	
6,000	-0,7810	156,63	150,08	0,05077	
6,020	-0,7810	156,58	150,08	0,05084	
6,040	-0,7811	156,50	150,08	0,05091	
6,060	-0,7811	156,49	150,07	0,05092	
6,080	-0,7811	156,44	150,07	0,05084	
6,100	-0,7810	156,39	150,08	0,05073	
6,120	-0,7810	156,42	150,08	0,05064	
6,140	-0,7810	156,43	150,08	0,05069	
6,160	-0,7810	156,45	150,09	0,05082	
6,180	-0,7810	156,41	150,09	0,05091	
6,200	-0,7810	156,39	150,09	0,05095	
6,220	-0,7810	156,45	150,09	0,05088	
6,240	-0,7810	156,48	150,09	0,05076	
6,260	-0,7810	156,44	150,09	0,05065	
6,280	-0,7810	156,38	150,09	0,05059	
6,300	-0,7810	156,34	150,09	0,05068	
6,320	-0,7810	156,41	150,09	0,05083	
6,340	-0,7810	156,51	150,09	0,05091	
6,360	-0,7810	156,60	150,09	0,05094	
6,380	-0,7810	156,62	150,09	0,05087	
6,400	-0,7810	156,64	150,09	0,05076	
6,420	-0,7810	156,64	150,09	0,05065	
6,440	-0,7810	156,58	150,09	0,05065	
6,460	-0,7810	156,55	150,08	0,05078	
6,480	-0,7810	156,54	150,08	0,05090	
6,500	-0,7810	156,52	150,08	0,05100	
6,520	-0,7810	156,55	150,07	0,05098	
6,540	-0,7810	156,59	150,07	0,05082	
6,560	-0,7810	156,61	150,08	0,05068	
6,580	-0,7810	156,59	150,08	0,05066	
6,600	-0,7810	156,58	150,08	0,05075	
6,620	-0,7810	156,57	150,08	0,05083	
6,640	-0,7810	156,62	150,08	0,05088	
6,660	-0,7810	156,67	150,08	0,05087	
6,680	-0,7810	156,64	150,08	0,05077	
6,700	-0,7810	156,64	150,08	0,05068	
6,720	-0,7810	156,67	150,08	0,05065	
6,740	-0,7810	156,67	150,08	0,05073	
6,760	-0,7810	156,64	150,07	0,05083	
6,780	-0,7810	156,67	150,07	0,05093	
6,800	-0,7810	156,65	150,07	0,05098	
6,820	-0,7810	156,61	150,08	0,05096	
6,840	-0,7810	156,62	150,08	0,05085	
6,860	-0,7810	156,64	150,08	0,05076	
6,880	-0,7810	156,60	150,08	0,05072	
6,900	-0,7810	156,58	150,09	0,05074	
6,920	-0,7810	156,59	150,08	0,05080	
6,940	-0,7810	156,58	150,08	0,05091	
6,960	-0,7810	156,60	150,08	0,05100	
6,980	-0,7810	156,60	150,08	0,05095	
7,000	-0,7810	156,58	150,08	0,05081	
7,020	-0,7810	156,62	150,08	0,05071	
7,040	-0,7810	156,66	150,07	0,05078	
7,060	-0,7810	156,62	150,08	0,05088	
7,080	-0,7810	156,57	150,08	0,05093	
7,100	-0,7810	156,56	150,08	0,05093	
7,120	-0,7810	156,50	150,08	0,05086	
7,140	-0,7810	156,46	150,08	0,05076	
7,160	-0,7810	156,49	150,08	0,05069	
7,180	-0,7810	156,54	150,08	0,05065	
7,200	-0,7810	156,58	150,08	0,05077	
7,220	-0,7810	156,59	150,08	0,05093	
7,240	-0,7810	156,51	150,08	0,05097	
7,260	-0,7810	156,51	150,08	0,05097	
7,280	-0,7810	156,58	150,08	0,05085	
7,300	-0,7810	156,60	150,08	0,05074	
7,320	-0,7810	156,63	150,08	0,05076	
7,340	-0,7810	156,61	150,08	0,05079	
7,360	-0,7810	156,49	150,08	0,05080	
7,380	-0,7810	156,46	150,08	0,05083	
7,400	-0,7810	156,56	150,09	0,05097	
7,420	-0,7810	156,55	150,09	0,05096	
7,440	-0,7810	156,55	150,08	0,05087	
7,460	-0,7810	156,53	150,08	0,05079	
7,480	-0,7810	156,48	150,08	0,05069	
7,500	-0,7810	156,51	150,08	0,05071	
7,520	-0,7810	156,48	150,08	0,05082	
7,540	-0,7810	156,41	150,08	0,05087	
7,560	-0,7810	156,45	150,08	0,05087	
7,580	-0,7810	156,46	150,08	0,05083	
7,600	-0,7810	156,39	150,07	0,05073	
7,620	-0,7810	156,36	150,07	0,05070	
7,640	-0,7810	156,45	150,08	0,05073	
7,660	-0,7810	156,50	150,08	0,05083	
7,680	-0,7810	156,51	150,08	0,05092	
7,700	-0,7810	156,52	150,09	0,05093	
7,720	-0,7810	156,49	150,09	0,05095	
7,740	-0,7810	156,49	150,09	0,05086	
7,760	-0,7810	156,50	150,09	0,05068	
7,780	-0,7810	156,50	150,09	0,05055	
7,800	-0,7810	156,45	150,09	0,05059	
7,820	-0,7810	156,47	150,09	0,05074	
7,840	-0,7810	156,46	150,09	0,05086	
7,860	-0,7810	156,49	150,09	0,05093	
7,880	-0,7810	156,50	150,09	0,05090	
7,900	-0,7810	156,49	150,09	0,05077	
7,920	-0,7810	156,52	150,08	0,05069	
7,940	-0,7810	156,55	150,08	0,05067	
7,960	-0,7810	156,52	150,08	0,05077	
7,980	-0,7810	156,52	150,08	0,05093	
8,000	-0,7810	156,64	150,08	0,05101	
8,020	-0,7811	156,70	150,08	0,05099	
8,040	-0,7811	156,68	150,08	0,05084	
8,060	-0,7811	156,63	150,08	0,05072	
8,080	-0,7810	156,60	150,09	0,05072	
8,100	-0,7810	156,59	150,09	0,05079	
8,120	-0,7810	156,57	150,09	0,05086	
8,140	-0,7810	156,56	150,09	0,05089	
8,160	-0,7810	156,57	150,09	0,05091	
8,180	-0,7811	156,55	150,09	0,05087	
8,200	-0,7811	156,47	150,09	0,05079	
8,220	-0,7810	156,47	150,09	0,05076	
8,240	-0,7810	156,51	150,09	0,05077	
8,260	-0,7810	156,51	150,09	0,05077	
8,280	-0,7810	156,56	150,09	0,05082	
8,300	-0,7810	156,65	150,09	0,05090	
8,320	-0,7810	156,64	150,09	0,05099	
8,340	-0,7810	156,61	150,08	0,05092	
8,360	-0,7810	156,62	150,08	0,05072	
8,380	-0,7810	156,61	150,08	0,05061	
8,400	-0,7810	156,58	150,08	0,05067	
8,420	-0,7810	156,59	150,08	0,05080	
8,440	-0,7810	156,64	150,08	0,05089	
8,460	-0,7810	156,69	150,08	0,05096	
8,480	-0,7810	156,69	150,08	0,05099	
8,500	-0,7810	156,67	150,09	0,05083	
8,520	-0,7810	156,63	150,09	0,05066	
8,540	-0,7810	156,69	150,09	0,05060	
8,560	-0,7810	156,79	150,09	0,05065	
8,580	-0,7810	156,78	150,09	0,05084	
8,600	-0,7810	156,72	150,09	0,05097	
8,620	-0,7810	156,64	150,09	0,05098	
8,640	-0,7810	156,63	150,09	0,05086	
8,660	-0,7810	156,58	150,09	0,05070	
8,680	-0,7810	156,51	150,09	0,05057	
8,700	-0,7810	156,47	150,09	0,05057	
8,720	-0,7810	156,50	150,09	0,05071	
8,740	-0,7810	156,54	150,08	0,05089	
8,760	-0,7810	156,53	150,08	0,05094	
8,780	-0,7810	156,53	150,08	0,05090	
8,800	-0,7810	156,51	150,08	0,05079	
8,820	-0,7810	156,46	150,08	0,05071	
8,840	-0,7810	156,47	150,08	0,05071	
8,860	-0,7810	156,53	150,08	0,05074	
8,880	-0,7810	156,57	150,08	0,05081	
8,900	-0,7810	156,52	150,09	0,05091	
8,920	-0,7810	156,48	150,09	0,05090	
8,940	-0,7810	156,43	150,09	0,05080	
8,960	-0,7810	156,46	150,09	0,05069	
8,980	-0,7810	156,58	150,09	0,05068	
9,000	-0,7810	156,62	150,09	0,05074	
9,020	-0,7810	156,63	150,09	0,05079	
9,040	-0,7810	156,55	150,09	0,05082	
9,060	-0,7810	156,49	150,09	0,05088	
9,080	-0,7810	156,48	150,09	0,05084	
9,100	-0,7810	156,50	150,09	0,05076	
9,120	-0,7810	156,53	150,09	0,05072	
9,140	-0,7810	156,55	150,09	0,05075	
9,160	-0,7810	156,48	150,09	0,05079	
9,180	-0,7810	156,49	150,08	0,05086	
9,200	-0,7810	156,53	150,08	0,05089	
9,220	-0,7810	156,52	150,08	0,05087	
9,240	-0,7810	156,48	150,08	0,05083	
9,260	-0,7810	156,45	150,08	0,05073	
9,280	-0,7810	156,47	150,08	0,05063	
9,300	-0,7810	156,53	150,08	0,05065	
9,320	-0,7810	156,49	150,08	0,05071	
9,340	-0,7810	156,45	150,09	0,05080	
9,360	-0,7810	156,47	150,09	0,05087	
9,380	-0,7810	156,48	150,09	0,05092	
9,400	-0,7810	156,47	150,09	0,05082	
9,420	-0,7810	156,48	150,09	0,05072	
9,440	-0,7810	156,49	150,08	0,05071	
9,460	-0,7810	156,47	150,08	0,05067	
9,480	-0,7810	156,44	150,08	0,05070	
9,500	-0,7810	156,41	150,08	0,05086	
9,520	-0,7810	156,45	150,08	0,05093	
9,540	-0,7810	156,48	150,08	0,05088	
9,560	-0,7810	156,45	150,07	0,05077	
9,580	-0,7810	156,42	150,07	0,05074	
9,600	-0,7810	156,43	150,08	0,05071	
9,620	-0,7810	156,46	150,08	0,05068	
9,640	-0,7810	156,43	150,09	0,05072	
9,660	-0,7810	156,45	150,09	0,05077	
9,680	-0,7810	156,50	150,09	0,05079	
9,700	-0,7810	156,52	150,08	0,05080	
9,720	-0,7810	156,52	150,08	0,05075	
9,740	-0,7810	156,53	150,08	0,05073	
9,760	-0,7810	156,47	150,08	0,05075	
9,780	-0,7810	156,40	150,07	0,05077	
9,800	-0,7810	156,40	150,07	0,05085	
9,820	-0,7810	156,46	150,07	0,05094	
9,840	-0,7810	156,51	150,08	0,05092	
9,860	-0,7810	156,50	150,08	0,05080	
9,880	-0,7810	156,44	150,09	0,05065	
9,900	-0,7810	156,41	150,09	0,05062	
9,920	-0,7810	156,45	150,08	0,05075	
9,940	-0,7810	156,47	150,08	0,05083	
9,960	-0,7810	156,44	150,08	0,05084	
9,980	-0,7810	156,43	150,09	0,05081	
10,00	-0,7810	156,45	150,09	0,05073	
10,02	-0,7810	156,46	150,08	0,05067	
10,04	-0,7810	156,46	150,08	0,05065	
10,06	-0,7810	156,45	150,07	0,05074	
10,08	-0,7810	156,42	150,07	0,05080	
10,10	-0,7810	156,41	150,08	0,05084	
10,12	-0,7810	156,42	150,08	0,05090	
10,14	-0,7810	156,39	150,08	0,05082	
10,16	-0,7810	156,38	150,09	0,05065	
10,18	-0,7810	156,45	150,09	0,05051	
10,20	-0,7810	156,55	150,09	0,05053	
10,22	-0,7810	156,65	150,09	0,05067	
10,24	-0,7810	156,72	150,08	0,05075	
10,26	-0,7810	156,65	150,08	0,05081	
10,28	-0,7810	156,55	150,08	0,05082	
10,30	-0,7810	156,45	150,08	0,05074	
10,32	-0,7810	156,39	150,08	0,05059	
10,34	-0,7810	156,37	150,07	0,05054	
10,36	-0,7810	156,36	150,07	0,05063	
10,38	-0,7810	156,45	150,08	0,05076	
10,40	-0,7810	156,50	150,08	0,05084	
10,42	-0,7810	156,53	150,08	0,05086	
10,44	-0,7810	156,59	150,08	0,05076	
10,46	-0,7810	156,62	150,08	0,05062	
10,48	-0,7810	156,58	150,08	0,05060	
10,50	-0,7810	156,47	150,08	0,05069	
10,52	-0,7810	156,44	150,09	0,05075	
10,54	-0,7810	156,44	150,09	0,05083	
10,56	-0,7810	156,43	150,09	0,05093	
10,58	-0,7810	156,40	150,09	0,05091	
10,60	-0,7810	156,39	150,08	0,05082	
10,62	-0,7810	156,47	150,08	0,05072	
10,64	-0,7810	156,51	150,07	0,05068	
10,66	-0,7810	156,54	150,07	0,05071	
10,68	-0,7810	156,56	150,08	0,05075	
10,70	-0,7810	156,54	150,08	0,05081	
10,72	-0,7810	156,52	150,08	0,05088	
10,74	-0,7810	156,48	150,08	0,05085	
10,76	-0,7810	156,44	150,08	0,05073	
10,78	-0,7810	156,47	150,09	0,05064	
10,80	-0,7810	156,51	150,09	0,05062	
10,82	-0,7810	156,60	150,08	0,05072	
10,84	-0,7810	156,60	150,08	0,05091	
10,86	-0,7810	156,53	150,08	0,05098	
10,88	-0,7810	156,47	150,07	0,05093	
10,90	-0,7810	156,42	150,07	0,05082	
10,92	-0,7810	156,47	150,08	0,05069	
10,94	-0,7810	156,56	150,08	0,05068	
10,96	-0,7810	156,58	150,08	0,05075	
10,98	-0,7810	156,58	150,08	0,05083	
11,00	-0,7810	156,60	150,08	0,05091	
11,02	-0,7810	156,58	150,08	0,05096	
11,04	-0,7810	156,48	150,08	0,05094	
11,06	-0,7810	156,44	150,08	0,05081	
11,08	-0,7810	156,43	150,08	0,05070	
11,10	-0,7810	156,42	150,08	0,05071	
11,12	-0,7810	156,40	150,08	0,05076	
11,14	-0,7810	156,42	150,08	0,05079	
11,16	-0,7810	156,45	150,08	0,05083	
11,18	-0,7810	156,43	150,08	0,05082	
11,20	-0,7810	156,38	150,08	0,05073	
11,22	-0,7810	156,33	150,08	0,05060	
11,24	-0,7810	156,35	150,09	0,05057	
11,26	-0,7810	156,40	150,09	0,05070	
11,28	-0,7810	156,50	150,09	0,05086	
11,30	-0,7810	156,51	150,09	0,05091	
11,32	-0,7810	156,49	150,09	0,05086	
11,34	-0,7810	156,49	150,09	0,05078	
11,36	-0,7810	156,49	150,09	0,05068	
11,38	-0,7810	156,42	150,09	0,05070	
11,40	-0,7810	156,38	150,09	0,05070	
11,42	-0,7810	156,37	150,09	0,05076	
11,44	-0,7810	156,39	150,08	0,05085	
11,46	-0,7810	156,44	150,08	0,05088	
11,48	-0,7810	156,45	150,08	0,05083	
11,50	-0,7810	156,48	150,08	0,05075	
11,52	-0,7810	156,50	150,08	0,05071	
11,54	-0,7810	156,53	150,08	0,05077	
11,56	-0,7810	156,51	150,08	0,05084	
11,58	-0,7810	156,53	150,08	0,05091	
11,60	-0,7810	156,56	150,09	0,05096	
11,62	-0,7810	156,54	150,09	0,05097	
11,64	-0,7810	156,49	150,09	0,05083	
11,66	-0,7810	156,49	150,09	0,05067	
11,68	-0,7810	156,51	150,09	0,05062	
11,70	-0,7810	156,46	150,09	0,05068	
11,72	-0,7810	156,43	150,09	0,05082	
11,74	-0,7810	156,44	150,09	0,05096	
11,76	-0,7810	156,48	150,09	0,05104	
11,78	-0,7810	156,52	150,09	0,05093	
11,80	-0,7810	156,55	150,09	0,05074	
11,82	-0,7810	156,61	150,09	0,05063	
11,84	-0,7810	156,57	150,09	0,05064	
11,86	-0,7811	156,45	150,08	0,05079	
11,88	-0,7810	156,40	150,08	0,05093	
11,90	-0,7810	156,48	150,08	0,05096	
11,92	-0,7810	156,52	150,07	0,05092	
11,94	-0,7810	156,50	150,07	0,05082	
11,96	-0,7811	156,49	150,08	0,05072	
11,98	-0,7810	156,53	150,08	0,05072	
12,00	-0,7811	156,61	150,08	0,05080	
12,02	-0,7810	156,67	150,09	0,05088	
12,04	-0,7810	156,64	150,09	0,05095	
12,06	-0,7810	156,57	150,09	0,05097	
12,08	-0,7810	156,58	150,09	0,05087	
12,10	-0,7810	156,53	150,09	0,05075	
12,12	-0,7810	156,44	150,09	0,05067	
12,14	-0,7810	156,43	150,09	0,05067	
12,16	-0,7810	156,50	150,09	0,05070	
12,18	-0,7810	156,54	150,08	0,05080	
12,20	-0,7810	156,50	150,08	0,05090	
12,22	-0,7810	156,45	150,08	0,05090	
12,24	-0,7810	156,46	150,07	0,05078	
12,26	-0,7810	156,55	150,07	0,05063	
12,28	-0,7810	156,58	150,08	0,05060	
12,30	-0,7811	156,54	150,08	0,05070	
12,32	-0,7811	156,49	150,08	0,05083	
12,34	-0,7810	156,41	150,09	0,05086	
12,36	-0,7810	156,42	150,09	0,05089	
12,38	-0,7810	156,51	150,09	0,05086	
12,40	-0,7810	156,55	150,09	0,05075	
12,42	-0,7810	156,53	150,09	0,05071	
12,44	-0,7810	156,50	150,09	0,05076	
12,46	-0,7810	156,52	150,09	0,05082	
12,48	-0,7810	156,54	150,09	0,05085	
12,50	-0,7810	156,53	150,09	0,05084	
12,52	-0,7810	156,50	150,09	0,05085	
12,54	-0,7810	156,54	150,09	0,05076	
12,56	-0,7810	156,53	150,08	0,05065	
12,58	-0,7810	156,52	150,08	0,05065	
12,60	-0,7810	156,58	150,08	0,05072	
12,62	-0,7810	156,60	150,08	0,05083	
12,64	-0,7810	156,58	150,08	0,05095	
12,66	-0,7810	156,54	150,07	0,05098	
12,68	-0,7810	156,46	150,08	0,05087	
12,70	-0,7810	156,45	150,08	0,05072	
12,72	-0,7811	156,50	150,08	0,05066	
12,74	-0,7810	156,48	150,09	0,05071	
12,76	-0,7810	156,44	150,08	0,05084	
12,78	-0,7810	156,42	150,08	0,05096	
12,80	-0,7810	156,50	150,08	0,05093	
12,82	-0,7810	156,54	150,08	0,05082	
12,84	-0,7811	156,52	150,08	0,05067	
12,86	-0,7811	156,51	150,08	0,05063	
12,88	-0,7810	156,55	150,08	0,05070	
12,90	-0,7810	156,55	150,07	0,05078	
12,92	-0,7810	156,58	150,07	0,05085	
12,94	-0,7810	156,53	150,07	0,05088	
12,96	-0,7810	156,48	150,08	0,05086	
12,98	-0,7810	156,49	150,08	0,05079	
13,00	-0,7810	156,50	150,08	0,05070	
13,02	-0,7811	156,52	150,08	0,05068	
13,04	-0,7810	156,55	150,08	0,05062	
13,06	-0,7810	156,53	150,08	0,05068	
13,08	-0,7810	156,55	150,08	0,05082	
13,10	-0,7810	156,55	150,09	0,05088	
13,12	-0,7810	156,54	150,08	0,05081	
13,14	-0,7810	156,54	150,08	0,05069	
13,16	-0,7810	156,56	150,08	0,05066	
13,18	-0,7810	156,61	150,07	0,05063	
13,20	-0,7810	156,67	150,07	0,05069	
13,22	-0,7810	156,60	150,08	0,05080	
13,24	-0,7810	156,53	150,08	0,05086	
13,26	-0,7810	156,52	150,08	0,05089	
13,28	-0,7810	156,48	150,08	0,05084	
13,30	-0,7810	156,47	150,08	0,05069	
13,32	-0,7810	156,51	150,08	0,05059	
13,34	-0,7811	156,57	150,08	0,05069	
13,36	-0,7810	156,60	150,09	0,05089	
13,38	-0,7810	156,57	150,09	0,05099	
13,40	-0,7810	156,57	150,09	0,05101	
13,42	-0,7810	156,56	150,09	0,05091	
13,44	-0,7810	156,56	150,08	0,05075	
13,46	-0,7810	156,53	150,08	0,05069	
13,48	-0,7810	156,52	150,08	0,05068	
13,50	-0,7810	156,51	150,07	0,05074	
13,52	-0,7810	156,52	150,07	0,05085	
13,54	-0,7810	156,57	150,08	0,05094	
13,56	-0,7810	156,56	150,08	0,05084	
13,58	-0,7810	156,49	150,08	0,05071	
13,60	-0,7810	156,47	150,09	0,05063	
13,62	-0,7810	156,47	150,09	0,05060	
13,64	-0,7810	156,49	150,09	0,05068	
13,66	-0,7810	156,48	150,09	0,05076	
13,68	-0,7810	156,51	150,09	0,05084	
13,70	-0,7810	156,58	150,09	0,05090	
13,72	-0,7810	156,64	150,08	0,05089	
13,74	-0,7810	156,62	150,08	0,05079	
13,76	-0,7810	156,51	150,08	0,05073	
13,78	-0,7810	156,44	150,08	0,05075	
13,80	-0,7810	156,50	150,08	0,05079	
13,82	-0,7810	156,58	150,07	0,05080	
13,84	-0,7810	156,60	150,08	0,05092	
13,86	-0,7810	156,53	150,08	0,05090	
13,88	-0,7810	156,52	150,08	0,05080	
13,90	-0,7810	156,58	150,08	0,05070	
13,92	-0,7810	156,65	150,09	0,05067	
13,94	-0,7810	156,62	150,09	0,05075	
13,96	-0,7810	156,56	150,09	0,05084	
13,98	-0,7810	156,54	150,09	0,05084	
14,00	-0,7810	156,51	150,08	0,05089	
14,02	-0,7810	156,54	150,08	0,05085	
14,04	-0,7810	156,61	150,08	0,05069	
14,06	-0,7810	156,62	150,08	0,05059	
14,08	-0,7810	156,55	150,07	0,05061	
14,10	-0,7810	156,50	150,07	0,05073	
14,12	-0,7810	156,51	150,08	0,05084	
14,14	-0,7810	156,52	150,08	0,05090	
14,16	-0,7810	156,46	150,08	0,05087	
14,18	-0,7810	156,46	150,08	0,05081	
14,20	-0,7810	156,54	150,09	0,05072	
14,22	-0,7810	156,56	150,09	0,05067	
14,24	-0,7810	156,54	150,09	0,05068	
14,26	-0,7810	156,51	150,09	0,05077	
14,28	-0,7810	156,48	150,09	0,05088	
14,30	-0,7810	156,51	150,08	0,05097	
14,32	-0,7810	156,54	150,08	0,05101	
14,34	-0,7810	156,56	150,08	0,05087	
14,36	-0,7810	156,45	150,08	0,05074	
14,38	-0,7810	156,45	150,07	0,05073	
14,40	-0,7810	156,51	150,08	0,05082	
14,42	-0,7810	156,51	150,08	0,05086	
14,44	-0,7810	156,49	150,08	0,05089	
14,46	-0,7810	156,46	150,08	0,05091	
14,48	-0,7810	156,45	150,09	0,05082	
14,50	-0,7810	156,44	150,09	0,05071	
14,52	-0,7810	156,46	150,09	0,05063	
14,54	-0,7810	156,45	150,09	0,05066	
14,56	-0,7810	156,40	150,09	0,05082	
14,58	-0,7810	156,38	150,09	0,05094	
14,60	-0,7810	156,41	150,09	0,05092	
14,62	-0,7810	156,42	150,09	0,05085	
14,64	-0,7810	156,43	150,08	0,05072	
14,66	-0,7810	156,42	150,08	0,05061	
14,68	-0,7810	156,46	150,08	0,05063	
14,70	-0,7810	156,54	150,08	0,05070	
14,72	-0,7810	156,53	150,07	0,05077	
14,74	-0,7810	156,50	150,07	0,05078	
14,76	-0,7810	156,47	150,08	0,05079	
14,78	-0,7810	156,46	150,08	0,05073	
14,80	-0,7810	156,56	150,08	0,05063	
14,82	-0,7810	156,60	150,08	0,05060	
14,84	-0,7810	156,54	150,08	0,05066	
14,86	-0,7810	156,51	150,09	0,05076	
14,88	-0,7810	156,45	150,09	0,05085	
14,90	-0,7810	156,41	150,09	0,05091	
14,92	-0,7810	156,44	150,09	0,05085	
14,94	-0,7810	156,41	150,09	0,05071	
14,96	-0,7810	156,41	150,08	0,05063	
14,98	-0,7810	156,49	150,08	0,05066	
15,00	-0,7810	156,56	150,07	0,05072	
15,02	-0,7810	156,55	150,07	0,05078	
15,04	-0,7810	156,52	150,08	0,05083	
15,06	-0,7810	156,53	150,08	0,05084	
15,08	-0,7810	156,47	150,08	0,05072	
15,10	-0,7810	156,41	150,08	0,05062	
15,12	-0,7810	156,42	150,08	0,05063	
15,14	-0,7810	156,45	150,08	0,05065	
15,16	-0,7810	156,48	150,09	0,05073	
15,18	-0,7810	156,51	150,09	0,05078	
15,20	-0,7810	156,51	150,09	0,05084	
15,22	-0,7810	156,54	150,08	0,05088	
15,24	-0,7810	156,55	150,08	0,05076	
15,26	-0,7811	156,49	150,08	0,05063	
15,28	-0,7810	156,45	150,08	0,05058	
15,30	-0,7810	156,48	150,08	0,05066	
15,32	-0,7810	156,49	150,07	0,05084	
15,34	-0,7810	156,48	150,08	0,05093	
15,36	-0,7810	156,52	150,08	0,05093	
15,38	-0,7811	156,55	150,08	0,05081	
15,40	-0,7810	156,51	150,08	0,05070	
15,42	-0,7811	156,45	150,08	0,05067	
15,44	-0,7811	156,40	150,09	0,05075	
15,46	-0,7811	156,39	150,09	0,05081	
15,48	-0,7811	156,41	150,09	0,05088	
15,50	-0,7810	156,41	150,09	0,05093	
15,52	-0,7811	156,45	150,08	0,05083	
15,54	-0,7811	156,49	150,08	0,05067	
15,56	-0,7811	156,46	150,08	0,05063	
15,58	-0,7810	156,44	150,07	0,05066	
15,60	-0,7810	156,40	150,07	0,05072	
15,62	-0,7810	156,39	150,08	0,05083	
15,64	-0,7810	156,39	150,08	0,05092	
15,66	-0,7810	156,37	150,08	0,05091	
15,68	-0,7810	156,35	150,09	0,05076	
15,70	-0,7810	156,38	150,09	0,05064	
15,72	-0,7810	156,42	150,09	0,05063	
15,74	-0,7810	156,41	150,09	0,05063	
15,76	-0,7810	156,40	150,09	0,05071	
15,78	-0,7810	156,42	150,09	0,05086	
15,80	-0,7810	156,44	150,09	0,05094	
15,82	-0,7810	156,45	150,08	0,05093	
15,84	-0,7810	156,44	150,08	0,05078	
15,86	-0,7810	156,40	150,08	0,05060	
15,88	-0,7810	156,37	150,08	0,05057	
15,90	-0,7810	156,40	150,07	0,05065	
15,92	-0,7811	156,46	150,08	0,05079	
15,94	-0,7810	156,41	150,08	0,05086	
15,96	-0,7810	156,32	150,08	0,05093	
15,98	-0,7810	156,32	150,09	0,05090	
16,00	-0,7810	156,40	150,09	0,05077	
16,02	-0,7810	156,43	150,09	0,05070	
16,04	-0,7810	156,36	150,09	0,05073	
16,06	-0,7810	156,28	150,09	0,05077	
16,08	-0,7810	156,32	150,09	0,05082	
16,10	-0,7810	156,39	150,09	0,05087	
16,12	-0,7810	156,39	150,09	0,05084	
16,14	-0,7811	156,42	150,09	0,05080	
16,16	-0,7811	156,39	150,09	0,05073	
16,18	-0,7811	156,34	150,09	0,05065	
16,20	-0,7811	156,35	150,08	0,05068	
16,22	-0,7811	156,38	150,08	0,05078	
16,24	-0,7811	156,45	150,08	0,05088	
16,26	-0,7811	156,47	150,08	0,05097	
16,28	-0,7811	156,41	150,08	0,05091	
16,30	-0,7810	156,35	150,08	0,05078	
16,32	-0,7810	156,32	150,08	0,05072	
16,34	-0,7810	156,30	150,08	0,05066	
16,36	-0,7811	156,36	150,09	0,05061	
16,38	-0,7811	156,38	150,09	0,05070	
16,40	-0,7811	156,38	150,09	0,05087	
16,42	-0,7810	156,37	150,09	0,05091	
16,44	-0,7810	156,34	150,09	0,05078	
16,46	-0,7810	156,33	150,09	0,05070	
16,48	-0,7810	156,34	150,09	0,05067	
16,50	-0,7810	156,35	150,09	0,05069	
16,52	-0,7810	156,36	150,09	0,05076	
16,54	-0,7810	156,37	150,08	0,05083	
16,56	-0,7810	156,31	150,08	0,05080	
16,58	-0,7810	156,32	150,08	0,05078	
16,60	-0,7810	156,37	150,08	0,05081	
16,62	-0,7810	156,40	150,08	0,05070	
16,64	-0,7810	156,40	150,08	0,05063	
16,66	-0,7810	156,33	150,08	0,05064	
16,68	-0,7810	156,25	150,08	0,05072	
16,70	-0,7810	156,26	150,08	0,05077	
16,72	-0,7810	156,43	150,08	0,05082	
16,74	-0,7810	156,54	150,09	0,05081	
16,76	-0,7810	156,47	150,09	0,05074	
16,78	-0,7810	156,38	150,09	0,05069	
16,80	-0,7810	156,34	150,09	0,05069	
16,82	-0,7810	156,30	150,08	0,05079	
16,84	-0,7810	156,29	150,09	0,05082	
16,86	-0,7810	156,31	150,09	0,05084	
16,88	-0,7810	156,36	150,09	0,05086	
16,90	-0,7810	156,36	150,08	0,05081	
16,92	-0,7810	156,32	150,08	0,05067	
16,94	-0,7810	156,31	150,08	0,05059	
16,96	-0,7810	156,30	150,08	0,05059	
16,98	-0,7810	156,29	150,08	0,05067	
17,00	-0,7810	156,26	150,08	0,05074	
17,02	-0,7810	156,28	150,08	0,05080	
17,04	-0,7810	156,35	150,08	0,05075	
17,06	-0,7810	156,35	150,09	0,05066	
17,08	-0,7810	156,31	150,09	0,05065	
17,10	-0,7810	156,26	150,09	0,05062	
17,12	-0,7810	156,26	150,09	0,05062	
17,14	-0,7810	156,25	150,08	0,05077	
17,16	-0,7810	156,27	150,09	0,05085	
17,18	-0,7810	156,33	150,09	0,05081	
17,20	-0,7810	156,39	150,08	0,05076	
17,22	-0,7810	156,44	150,08	0,05071	
17,24	-0,7810	156,40	150,08	0,05068	
17,26	-0,7810	156,32	150,08	0,05069	
17,28	-0,7810	156,28	150,08	0,05081	
17,30	-0,7810	156,27	150,08	0,05093	
17,32	-0,7810	156,30	150,08	0,05091	
17,34	-0,7810	156,27	150,08	0,05080	
17,36	-0,7810	156,23	150,08	0,05070	
17,38	-0,7810	156,28	150,08	0,05065	
17,40	-0,7810	156,33	150,08	0,05068	
17,42	-0,7810	156,34	150,09	0,05083	
17,44	-0,7810	156,34	150,09	0,05097	
17,46	-0,7810	156,37	150,09	0,05091	
17,48	-0,7810	156,39	150,09	0,05088	
17,50	-0,7810	156,40	150,09	0,05081	
17,52	-0,7811	156,41	150,09	0,05069	
17,54	-0,7810	156,43	150,08	0,05068	
17,56	-0,7810	156,44	150,08	0,05075	
17,58	-0,7810	156,46	150,08	0,05079	
17,60	-0,7811	156,51	150,07	0,05090	
17,62	-0,7811	156,50	150,07	0,05095	
17,64	-0,7811	156,46	150,07	0,05088	
17,66	-0,7810	156,44	150,08	0,05073	
17,68	-0,7810	156,44	150,08	0,05061	
17,70	-0,7810	156,38	150,08	0,05064	
17,72	-0,7810	156,30	150,08	0,05071	
17,74	-0,7810	156,28	150,08	0,05081	
17,76	-0,7810	156,28	150,08	0,05095	
17,78	-0,7810	156,29	150,08	0,05090	
17,80	-0,7810	156,36	150,08	0,05076	
17,82	-0,7810	156,39	150,08	0,05066	
17,84	-0,7810	156,35	150,08	0,05063	
17,86	-0,7810	156,34	150,07	0,05069	
17,88	-0,7810	156,38	150,07	0,05078	
17,90	-0,7810	156,36	150,08	0,05089	
17,92	-0,7810	156,38	150,08	0,05098	
17,94	-0,7810	156,41	150,08	0,05091	
17,96	-0,7810	156,44	150,08	0,05077	
17,98	-0,7810	156,40	150,08	0,05066	
18,00	-0,7810	156,36	150,09	0,05067	
18,02	-0,7810	156,35	150,09	0,05080	
18,04	-0,7810	156,33	150,09	0,05091	
18,06	-0,7810	156,36	150,09	0,05100	
18,08	-0,7810	156,47	150,09	0,05099	
18,10	-0,7816	159,10	150,20	0,05032	
18,12	-0,7809	137,13	150,06	0,04905	
18,14	-0,7806	91,82	150,01	0,04876	
18,16	-0,7809	45,44	150,04	0,04913	
18,18	-0,7807	2,544	150,07	0,04948	
18,20	-0,7790	-34,26	150,08	0,04975	
18,22	-0,7752	-45,49	150,08	0,04982	
18,24	-0,7707	-22,13	150,08	0,04975	
18,26	-0,7666	12,74	150,09	0,04961	
18,28	-0,7632	48,90	150,09	0,04953	
18,30	-0,7605	81,85	150,09	0,04953	
18,32	-0,7586	109,09	150,09	0,04962	
18,34	-0,7575	129,25	150,09	0,04976	
18,36	-0,7569	142,23	150,09	0,04978	
18,38	-0,7565	149,48	150,09	0,04985	
18,40	-0,7562	153,70	150,09	0,04975	
18,42	-0,7562	157,00	150,09	0,04963	
18,44	-0,7562	159,05	150,09	0,04954	
18,46	-0,7562	159,69	150,08	0,04958	
18,48	-0,7562	159,80	150,08	0,04970	
18,50	-0,7562	159,73	150,08	0,04976	
18,52	-0,7562	159,63	150,07	0,04984	
18,54	-0,7562	159,64	150,07	0,04976	
18,56	-0,7562	159,74	150,08	0,04967	
18,58	-0,7564	159,81	150,08	0,04962	
18,60	-0,7567	159,78	150,08	0,04964	
18,62	-0,7568	159,77	150,09	0,04980	
18,64	-0,7569	159,82	150,09	0,04988	
18,66	-0,7569	159,80	150,09	0,04987	
18,68	-0,7568	159,74	150,09	0,04981	
18,70	-0,7568	159,74	150,09	0,04974	
18,72	-0,7569	159,80	150,09	0,04963	
18,74	-0,7569	159,81	150,09	0,04963	
18,76	-0,7570	159,76	150,09	0,04972	
18,78	-0,7573	159,75	150,09	0,04978	
18,80	-0,7575	159,82	150,09	0,04985	
18,82	-0,7575	159,88	150,09	0,04985	
18,84	-0,7576	159,86	150,08	0,04978	
18,86	-0,7575	159,88	150,08	0,04973	
18,88	-0,7575	159,90	150,08	0,04969	
18,90	-0,7575	159,91	150,07	0,04970	
18,92	-0,7575	159,90	150,07	0,04972	
18,94	-0,7575	159,84	150,08	0,04981	
18,96	-0,7578	159,77	150,08	0,04987	
18,98	-0,7580	159,78	150,08	0,04988	
19,00	-0,7582	159,84	150,09	0,04984	
19,02	-0,7582	159,86	150,09	0,04966	
19,04	-0,7582	159,93	150,09	0,04959	
19,06	-0,7582	159,93	150,09	0,04959	
19,08	-0,7582	159,84	150,08	0,04976	
19,10	-0,7582	159,86	150,09	0,04988	
19,12	-0,7582	159,96	150,09	0,04984	
19,14	-0,7582	159,94	150,08	0,04974	
19,16	-0,7582	159,82	150,08	0,04962	
19,18	-0,7582	159,84	150,08	0,04958	
19,20	-0,7585	159,32	150,07	0,04963	
19,22	-0,7587	157,91	150,07	0,04978	
19,24	-0,7589	158,08	150,08	0,04985	
19,26	-0,7589	158,77	150,08	0,04985	
19,28	-0,7588	157,85	150,08	0,04983	
19,30	-0,7589	157,38	150,08	0,04968	
19,32	-0,7589	158,49	150,09	0,04953	
19,34	-0,7589	158,36	150,09	0,04956	
19,36	-0,7589	157,26	150,08	0,04965	
19,38	-0,7589	157,65	150,09	0,04969	
19,40	-0,7589	157,80	150,09	0,04977	
19,42	-0,7589	157,25	150,08	0,04991	
19,44	-0,7589	157,84	150,08	0,04988	
19,46	-0,7589	157,96	150,08	0,04971	
19,48	-0,7589	157,17	150,07	0,04958	
19,50	-0,7589	156,73	150,07	0,04964	
19,52	-0,7589	156,63	150,08	0,04977	
19,54	-0,7589	156,58	150,08	0,04979	
19,56	-0,7589	156,59	150,08	0,04982	
19,58	-0,7589	156,59	150,08	0,04979	
19,60	-0,7589	156,53	150,08	0,04973	
19,62	-0,7589	156,55	150,08	0,04961	
19,64	-0,7589	156,60	150,08	0,04958	
19,66	-0,7591	156,66	150,08	0,04964	
19,68	-0,7594	156,62	150,08	0,04969	
19,70	-0,7595	156,57	150,08	0,04978	
19,72	-0,7595	156,52	150,08	0,04982	
19,74	-0,7595	156,45	150,07	0,04980	
19,76	-0,7595	156,41	150,07	0,04967	
19,78	-0,7595	156,42	150,08	0,04961	
19,80	-0,7595	156,50	150,08	0,04961	
19,82	-0,7595	156,53	150,08	0,04961	
19,84	-0,7595	156,57	150,08	0,04969	
19,86	-0,7595	156,58	150,09	0,04978	
19,88	-0,7595	156,55	150,09	0,04988	
19,90	-0,7595	156,52	150,08	0,04982	
19,92	-0,7596	156,51	150,08	0,04967	
19,94	-0,7596	156,48	150,08	0,04957	
19,96	-0,7596	156,44	150,08	0,04969	
19,98	-0,7595	156,38	150,08	0,04985	
20,00	-0,7595	156,37	150,08	0,04982	
20,02	-0,7596	156,44	150,07	0,04981	
20,04	-0,7596	156,44	150,08	0,04979	
20,06	-0,7596	156,49	150,08	0,04969	
20,08	-0,7596	156,55	150,08	0,04957	
20,10	-0,7596	156,53	150,08	0,04957	
20,12	-0,7596	156,55	150,09	0,04962	
20,14	-0,7596	156,62	150,09	0,04970	
20,16	-0,7595	156,57	150,09	0,04971	
20,18	-0,7595	156,62	150,09	0,04963	
20,20	-0,7595	156,64	150,09	0,04954	
20,22	-0,7595	156,58	150,08	0,04944	
20,24	-0,7595	156,53	150,08	0,04941	
20,26	-0,7595	156,56	150,08	0,04955	
20,28	-0,7595	156,53	150,07	0,04970	
20,30	-0,7595	156,52	150,07	0,04984	
20,32	-0,7595	156,61	150,07	0,04985	
20,34	-0,7595	156,65	150,08	0,04974	
20,36	-0,7595	156,62	150,08	0,04963	
20,38	-0,7596	156,60	150,08	0,04960	
20,40	-0,7600	156,58	150,08	0,04965	
20,42	-0,7602	156,54	150,08	0,04974	
20,44	-0,7602	156,56	150,08	0,04983	
20,46	-0,7602	156,59	150,08	0,04985	
20,48	-0,7602	156,57	150,07	0,04975	
20,50	-0,7602	156,61	150,07	0,04955	
20,52	-0,7602	156,54	150,07	0,04945	
20,54	-0,7602	156,45	150,08	0,04957	
20,56	-0,7602	156,52	150,08	0,04974	
20,58	-0,7602	156,58	150,08	0,04982	
20,60	-0,7602	156,58	150,08	0,04980	
20,62	-0,7602	156,66	150,08	0,04976	
20,64	-0,7602	156,60	150,08	0,04970	
20,66	-0,7602	156,55	150,08	0,04966	
20,68	-0,7602	156,56	150,07	0,04963	
20,70	-0,7602	156,50	150,07	0,04961	
20,72	-0,7602	156,53	150,08	0,04969	
20,74	-0,7602	156,56	150,08	0,04976	
20,76	-0,7602	156,54	150,08	0,04977	
20,78	-0,7602	156,59	150,08	0,04975	
20,80	-0,7602	156,58	150,08	0,04971	
20,82	-0,7602	156,53	150,08	0,04962	
20,84	-0,7602	156,54	150,08	0,04962	
20,86	-0,7602	156,52	150,08	0,04971	
20,88	-0,7602	156,48	150,08	0,04977	
20,90	-0,7602	156,48	150,07	0,04978	
20,92	-0,7602	156,54	150,08	0,04977	
20,94	-0,7602	156,53	150,08	0,04962	
20,96	-0,7602	156,49	150,08	0,04946	
20,98	-0,7602	156,49	150,08	0,04939	
21,00	-0,7602	156,50	150,08	0,04947	
21,02	-0,7602	156,45	150,08	0,04959	
21,04	-0,7602	156,49	150,08	0,04969	
21,06	-0,7602	156,54	150,09	0,04976	
21,08	-0,7604	156,54	150,09	0,04969	
21,10	-0,7607	156,52	150,08	0,04958	
21,12	-0,7609	156,58	150,08	0,04955	
21,14	-0,7609	156,60	150,08	0,04960	
21,16	-0,7609	156,58	150,07	0,04974	
21,18	-0,7609	156,61	150,07	0,04976	
21,20	-0,7609	156,56	150,07	0,04979	
21,22	-0,7609	156,54	150,08	0,04981	
21,24	-0,7609	156,56	150,08	0,04972	
21,26	-0,7609	156,55	150,08	0,04966	
21,28	-0,7609	156,51	150,09	0,04964	
21,30	-0,7609	156,51	150,09	0,04967	
21,32	-0,7609	156,53	150,08	0,04975	
21,34	-0,7609	156,55	150,09	0,04984	
21,36	-0,7609	156,60	150,09	0,04983	
21,38	-0,7609	156,56	150,09	0,04974	
21,40	-0,7609	156,45	150,09	0,04963	
21,42	-0,7609	156,45	150,08	0,04959	
21,44	-0,7609	156,50	150,08	0,04962	
21,46	-0,7609	156,52	150,08	0,04968	
21,48	-0,7609	156,51	150,07	0,04974	
21,50	-0,7609	156,50	150,07	0,04976	
21,52	-0,7609	156,55	150,08	0,04971	
21,54	-0,7609	156,55	150,08	0,04965	
21,56	-0,7609	156,49	150,08	0,04962	
21,58	-0,7609	156,44	150,09	0,04965	
21,60	-0,7609	156,45	150,09	0,04968	
21,62	-0,7609	156,44	150,08	0,04971	
21,64	-0,7609	156,41	150,08	0,04974	
21,66	-0,7609	156,40	150,08	0,04978	
21,68	-0,7609	156,45	150,08	0,04970	
21,70	-0,7609	156,50	150,08	0,04963	
21,72	-0,7609	156,42	150,08	0,04965	
21,74	-0,7609	156,40	150,07	0,04972	
21,76	-0,7609	156,52	150,07	0,04976	
21,78	-0,7609	156,48	150,07	0,04978	
21,80	-0,7609	156,44	150,08	0,04979	
21,82	-0,7609	156,44	150,08	0,04971	
21,84	-0,7609	156,42	150,08	0,04959	
21,86	-0,7609	156,51	150,09	0,04957	
21,88	-0,7609	156,54	150,09	0,04964	
21,90	-0,7609	156,50	150,09	0,04973	
21,92	-0,7609	156,53	150,09	0,04979	
21,94	-0,7609	156,56	150,09	0,04980	
21,96	-0,7609	156,56	150,09	0,04973	
21,98	-0,7609	156,57	150,09	0,04961	
22,00	-0,7609	156,58	150,08	0,04948	
22,02	-0,7609	156,58	150,08	0,04949	
22,04	-0,7609	156,57	150,08	0,04967	
22,06	-0,7609	156,53	150,08	0,04986	
22,08	-0,7609	156,48	150,07	0,04993	
22,10	-0,7611	156,53	150,08	0,04984	
22,12	-0,7614	156,60	150,08	0,04965	
22,14	-0,7616	156,57	150,08	0,04950	
22,16	-0,7616	156,55	150,08	0,04949	
22,18	-0,7616	156,56	150,08	0,04961	
22,20	-0,7616	156,47	150,08	0,04976	
22,22	-0,7616	156,45	150,08	0,04983	
22,24	-0,7615	156,51	150,08	0,04979	
22,26	-0,7615	156,53	150,08	0,04974	
22,28	-0,7616	156,52	150,07	0,04965	
22,30	-0,7616	156,59	150,07	0,04961	
22,32	-0,7615	156,64	150,07	0,04963	
22,34	-0,7616	156,60	150,08	0,04967	
22,36	-0,7616	156,56	150,08	0,04972	
22,38	-0,7616	156,56	150,08	0,04977	
22,40	-0,7616	156,55	150,08	0,04975	
22,42	-0,7616	156,54	150,09	0,04965	
22,44	-0,7616	156,51	150,09	0,04953	
22,46	-0,7616	156,50	150,09	0,04943	
22,48	-0,7615	156,46	150,09	0,04954	
22,50	-0,7615	156,45	150,08	0,04973	
22,52	-0,7616	156,58	150,08	0,04982	
22,54	-0,7616	156,65	150,08	0,04978	
22,56	-0,7616	156,60	150,08	0,04972	
22,58	-0,7616	156,61	150,07	0,04967	
22,60	-0,7616	156,63	150,08	0,04965	
22,62	-0,7616	156,58	150,08	0,04968	
22,64	-0,7616	156,56	150,08	0,04974	
22,66	-0,7616	156,64	150,08	0,04977	
22,68	-0,7616	156,64	150,08	0,04980	
22,70	-0,7616	156,60	150,08	0,04974	
22,72	-0,7615	156,63	150,08	0,04962	
22,74	-0,7615	156,65	150,08	0,04953	
22,76	-0,7616	156,63	150,08	0,04953	
22,78	-0,7615	156,59	150,08	0,04963	
22,80	-0,7615	156,50	150,08	0,04975	
22,82	-0,7615	156,47	150,08	0,04981	
22,84	-0,7615	156,52	150,07	0,04975	
22,86	-0,7615	156,58	150,07	0,04960	
22,88	-0,7615	156,53	150,08	0,04951	
22,90	-0,7615	156,48	150,08	0,04952	
22,92	-0,7615	156,44	150,08	0,04969	
22,94	-0,7615	156,38	150,09	0,04984	
22,96	-0,7615	156,38	150,09	0,04985	
22,98	-0,7616	156,42	150,09	0,04976	
23,00	-0,7616	156,47	150,09	0,04973	
23,02	-0,7616	156,48	150,09	0,04965	
23,04	-0,7616	156,49	150,08	0,04957	
23,06	-0,7618	156,56	150,09	0,04962	
23,08	-0,7621	156,56	150,09	0,04979	
23,10	-0,7622	156,50	150,08	0,04993	
23,12	-0,7622	156,49	150,08	0,04991	
23,14	-0,7622	156,47	150,08	0,04977	
23,16	-0,7622	156,48	150,07	0,04969	
23,18	-0,7622	156,54	150,07	0,04969	
23,20	-0,7622	156,57	150,07	0,04970	
23,22	-0,7622	156,54	150,08	0,04975	
23,24	-0,7622	156,51	150,08	0,04982	
23,26	-0,7622	156,44	150,08	0,04991	
23,28	-0,7622	156,50	150,09	0,04984	
23,30	-0,7622	156,55	150,09	0,04972	
23,32	-0,7622	156,52	150,08	0,04963	
23,34	-0,7623	156,53	150,08	0,04958	
23,36	-0,7622	156,45	150,08	0,04957	
23,38	-0,7622	156,45	150,08	0,04969	
23,40	-0,7622	156,42	150,08	0,04983	
23,42	-0,7622	156,43	150,07	0,04991	
23,44	-0,7622	156,49	150,07	0,04977	
23,46	-0,7622	156,47	150,07	0,04965	
23,48	-0,7622	156,42	150,08	0,04965	
23,50	-0,7622	156,43	150,08	0,04966	
23,52	-0,7622	156,42	150,08	0,04973	
23,54	-0,7622	156,36	150,08	0,04987	
23,56	-0,7622	156,34	150,09	0,04993	
23,58	-0,7622	156,32	150,08	0,04987	
23,60	-0,7622	156,35	150,08	0,04974	
23,62	-0,7622	156,34	150,08	0,04966	
23,64	-0,7622	156,27	150,08	0,04959	
23,66	-0,7622	156,29	150,07	0,04958	
23,68	-0,7622	156,33	150,07	0,04967	
23,70	-0,7622	156,39	150,08	0,04980	
23,72	-0,7622	156,38	150,08	0,04983	
23,74	-0,7622	156,34	150,08	0,04974	
23,76	-0,7622	156,41	150,08	0,04958	
23,78	-0,7622	156,48	150,09	0,04951	
23,80	-0,7622	156,41	150,09	0,04963	
23,82	-0,7622	156,34	150,08	0,04978	
23,84	-0,7622	156,41	150,09	0,04984	
23,86	-0,7622	156,52	150,08	0,04985	
23,88	-0,7622	156,52	150,08	0,04978	
23,90	-0,7622	156,45	150,08	0,04973	
23,92	-0,7622	156,42	150,08	0,04970	
23,94	-0,7623	156,45	150,07	0,04967	
23,96	-0,7622	156,44	150,07	0,04970	
23,98	-0,7622	156,43	150,08	0,04971	
24,00	-0,7622	156,40	150,08	0,04983	
24,02	-0,7622	156,44	150,08	0,04994	
24,04	-0,7622	156,56	150,09	0,04986	
24,06	-0,7622	156,55	150,09	0,04972	
24,08	-0,7625	156,50	150,09	0,04959	
24,10	-0,7628	156,52	150,09	0,04956	
24,12	-0,7629	156,49	150,09	0,04966	
24,14	-0,7629	156,38	150,09	0,04980	
24,16	-0,7629	156,35	150,09	0,04989	
24,18	-0,7629	156,40	150,09	0,04993	
24,20	-0,7629	156,40	150,09	0,04992	
24,22	-0,7629	156,41	150,09	0,04985	
24,24	-0,7629	156,52	150,09	0,04970	
24,26	-0,7629	156,54	150,08	0,04960	
24,28	-0,7629	156,43	150,08	0,04969	
24,30	-0,7629	156,39	150,08	0,04985	
24,32	-0,7629	156,45	150,08	0,04990	
24,34	-0,7629	156,47	150,08	0,04994	
24,36	-0,7629	156,45	150,08	0,04984	
24,38	-0,7629	156,46	150,08	0,04964	
24,40	-0,7629	156,44	150,08	0,04952	
24,42	-0,7628	156,50	150,09	0,04960	
24,44	-0,7629	156,49	150,09	0,04977	
24,46	-0,7629	156,45	150,09	0,04989	
24,48	-0,7629	156,34	150,09	0,04990	
24,50	-0,7629	156,27	150,09	0,04983	
24,52	-0,7629	156,31	150,09	0,04980	
24,54	-0,7629	156,28	150,09	0,04974	
24,56	-0,7629	156,27	150,08	0,04972	
24,58	-0,7630	157,22	150,11	0,04972	
24,60	-0,7631	155,47	150,11	0,04967	
24,62	-0,7630	145,77	150,09	0,04963	
24,64	-0,7629	131,96	150,08	0,04961	
24,66	-0,7629	117,89	150,08	0,04960	
24,68	-0,7626	104,31	150,08	0,04953	
24,70	-0,7620	92,35	150,08	0,04940	
24,72	-0,7610	84,92	150,08	0,04932	
24,74	-0,7600	79,37	150,08	0,04935	
24,76	-0,7589	74,35	150,07	0,04947	
24,78	-0,7577	70,25	150,07	0,04958	
24,80	-0,7563	67,24	150,07	0,04959	
24,82	-0,7549	66,29	150,08	0,04955	
24,84	-0,7533	67,89	150,08	0,04948	
24,86	-0,7517	70,85	150,08	0,04941	
24,88	-0,7503	74,27	150,08	0,04942	
24,90	-0,7490	77,23	150,08	0,04951	
24,92	-0,7476	79,69	150,08	0,04964	
24,94	-0,7463	81,49	150,08	0,04965	
24,96	-0,7450	82,16	150,08	0,04964	
24,98	-0,7436	82,25	150,07	0,04952	
25,00	-0,7423	82,20	150,07	0,04940	
25,02	-0,7411	81,16	150,07	0,04945	
25,04	-0,7401	79,71	150,08	0,04950	
25,06	-0,7389	78,99	150,08	0,04946	
25,08	-0,7376	78,90	150,08	0,04947	
25,10	-0,7362	78,99	150,08	0,04952	
25,12	-0,7349	79,02	150,08	0,04954	
25,14	-0,7335	78,98	150,08	0,04945	
25,16	-0,7322	79,04	150,07	0,04936	
25,18	-0,7309	79,08	150,07	0,04937	
25,20	-0,7296	79,13	150,07	0,04948	
25,22	-0,7286	79,15	150,07	0,04959	
25,24	-0,7274	79,16	150,08	0,04970	
25,26	-0,7262	79,16	150,08	0,04966	
25,28	-0,7248	79,07	150,08	0,04952	
25,30	-0,7235	79,07	150,08	0,04939	
25,32	-0,7221	79,05	150,08	0,04931	
25,34	-0,7208	79,07	150,07	0,04941	
25,36	-0,7194	79,10	150,07	0,04956	
25,38	-0,7181	79,11	150,07	0,04964	
25,40	-0,7167	79,06	150,08	0,04966	
25,42	-0,7154	79,02	150,08	0,04962	
25,44	-0,7141	79,01	150,08	0,04951	
25,46	-0,7127	79,01	150,08	0,04941	
25,48	-0,7114	79,05	150,08	0,04945	
25,50	-0,7101	78,66	150,08	0,04954	
25,52	-0,7087	77,26	150,07	0,04963	
25,54	-0,7074	76,15	150,07	0,04969	
25,56	-0,7060	75,78	150,07	0,04967	
25,58	-0,7047	75,83	150,08	0,04958	
25,60	-0,7033	75,86	150,08	0,04950	
25,62	-0,7020	75,83	150,08	0,04951	
25,64	-0,7007	75,73	150,08	0,04949	
25,66	-0,6993	74,68	150,08	0,04950	
25,68	-0,6980	73,19	150,08	0,04955	
25,70	-0,6966	72,48	150,08	0,04962	
25,72	-0,6953	72,35	150,07	0,04965	
25,74	-0,6939	72,35	150,07	0,04955	
25,76	-0,6926	72,39	150,07	0,04946	
25,78	-0,6913	72,42	150,08	0,04943	
25,80	-0,6899	72,37	150,08	0,04945	
25,82	-0,6885	72,32	150,08	0,04959	
25,84	-0,6868	72,33	150,08	0,04970	
25,86	-0,6853	72,33	150,08	0,04967	
25,88	-0,6839	72,34	150,08	0,04958	
25,90	-0,6825	72,40	150,08	0,04948	
25,92	-0,6812	72,42	150,08	0,04945	
25,94	-0,6798	72,39	150,07	0,04938	
25,96	-0,6785	72,37	150,07	0,04941	
25,98	-0,6771	72,35	150,07	0,04954	
26,00	-0,6757	72,30	150,08	0,04969	
26,02	-0,6740	72,29	150,08	0,04968	
26,04	-0,6725	72,41	150,08	0,04953	
26,06	-0,6711	72,49	150,08	0,04940	
26,08	-0,6697	72,41	150,08	0,04937	
26,10	-0,6684	71,33	150,07	0,04946	
26,12	-0,6670	69,89	150,07	0,04951	
26,14	-0,6657	69,25	150,07	0,04958	
26,16	-0,6643	69,15	150,07	0,04966	
26,18	-0,6629	69,14	150,08	0,04964	
26,20	-0,6613	69,12	150,08	0,04951	
26,22	-0,6597	69,08	150,08	0,04943	
26,24	-0,6583	69,07	150,08	0,04944	
26,26	-0,6569	69,05	150,08	0,04953	
26,28	-0,6555	69,04	150,08	0,04966	
26,30	-0,6540	69,10	150,08	0,04975	
26,32	-0,6523	69,14	150,07	0,04968	
26,34	-0,6509	69,16	150,07	0,04953	
26,36	-0,6495	69,18	150,07	0,04942	
26,38	-0,6481	69,17	150,08	0,04943	
26,40	-0,6465	69,08	150,08	0,04953	
26,42	-0,6449	69,05	150,08	0,04964	
26,44	-0,6435	69,04	150,08	0,04966	
26,46	-0,6421	69,04	150,08	0,04963	
26,48	-0,6405	69,02	150,08	0,04959	
26,50	-0,6389	69,03	150,07	0,04951	
26,52	-0,6375	69,01	150,07	0,04946	
26,54	-0,6361	68,57	150,07	0,04947	
26,56	-0,6346	67,11	150,07	0,04954	
26,58	-0,6329	65,99	150,08	0,04967	
26,60	-0,6315	65,67	150,08	0,04973	
26,62	-0,6301	65,66	150,08	0,04971	
26,64	-0,6287	65,65	150,08	0,04957	
26,66	-0,6270	65,66	150,08	0,04942	
26,68	-0,6255	65,71	150,12	0,04937	
26,70	-0,6241	65,71	150,48	0,04943	
26,72	-0,6226	65,61	151,26	0,04952	
26,74	-0,6210	64,55	152,24	0,04962	
26,76	-0,6194	63,14	153,60	0,04967	
26,78	-0,6180	62,51	154,82	0,04966	
26,80	-0,6164	62,38	155,36	0,04954	
26,82	-0,6148	62,38	155,99	0,04942	
26,84	-0,6133	62,45	157,34	0,04942	
26,86	-0,6116	62,49	159,23	0,04953	
26,88	-0,6100	62,55	161,26	0,04969	
26,90	-0,6085	62,56	162,97	0,04975	
26,92	-0,6069	62,49	164,43	0,04975	
26,94	-0,6053	62,48	165,72	0,04967	
26,96	-0,6038	62,54	166,98	0,04954	
26,98	-0,6022	62,57	168,45	0,04945	
27,00	-0,6006	62,59	170,10	0,04947	
27,02	-0,5992	62,61	171,80	0,04950	
27,04	-0,5975	62,18	173,31	0,04955	
27,06	-0,5959	60,67	174,59	0,04963	
27,08	-0,5943	59,49	175,90	0,04968	
27,10	-0,5927	59,17	177,19	0,04956	
27,12	-0,5911	59,20	178,40	0,04941	
27,14	-0,5894	59,18	179,63	0,04941	
27,16	-0,5879	59,21	180,91	0,04946	
27,18	-0,5862	59,26	182,33	0,04961	
27,20	-0,5846	59,23	183,77	0,04972	
27,22	-0,5829	59,13	185,19	0,04972	
27,24	-0,5812	59,08	186,60	0,04963	
27,26	-0,5795	59,06	187,95	0,04952	
27,28	-0,5779	59,00	189,22	0,04949	
27,30	-0,5762	59,04	190,66	0,04957	
27,32	-0,5745	59,12	192,18	0,04968	
27,34	-0,5730	59,10	193,61	0,04975	
27,36	-0,5713	59,06	194,98	0,04967	
27,38	-0,5696	59,16	196,22	0,04954	
27,40	-0,5679	59,21	197,33	0,04949	
27,42	-0,5663	58,70	198,47	0,04945	
27,44	-0,5647	57,16	199,70	0,04942	
27,46	-0,5631	56,06	201,06	0,04946	
27,48	-0,5614	55,76	202,50	0,04958	
27,50	-0,5598	55,70	203,85	0,04959	
27,52	-0,5581	55,70	205,08	0,04960	
27,54	-0,5564	55,70	206,26	0,04960	
27,56	-0,5547	55,31	207,54	0,04949	
27,58	-0,5530	53,88	208,87	0,04941	
27,60	-0,5514	52,78	210,19	0,04944	
27,62	-0,5496	52,40	211,54	0,04955	
27,64	-0,5478	52,40	213,01	0,04966	
27,66	-0,5462	52,44	214,50	0,04970	
27,68	-0,5444	52,45	215,97	0,04964	
27,70	-0,5427	52,45	217,46	0,04949	
27,72	-0,5409	52,44	218,88	0,04935	
27,74	-0,5391	52,48	220,19	0,04942	
27,76	-0,5374	52,56	221,47	0,04957	
27,78	-0,5357	52,51	222,80	0,04966	
27,80	-0,5339	52,38	224,20	0,04973	
27,82	-0,5322	52,38	225,57	0,04973	
27,84	-0,5304	52,43	226,92	0,04961	
27,86	-0,5287	52,40	228,29	0,04948	
27,88	-0,5270	52,38	229,67	0,04939	
27,90	-0,5252	52,39	231,06	0,04949	
27,92	-0,5234	51,95	232,49	0,04962	
27,94	-0,5216	50,44	233,90	0,04967	
27,96	-0,5198	49,25	235,28	0,04968	
27,98	-0,5180	48,95	236,63	0,04961	
28,00	-0,5162	49,06	237,97	0,04950	
28,02	-0,5143	50,09	239,33	0,04947	
28,04	-0,5125	51,66	240,69	0,04946	
28,06	-0,5107	52,43	241,99	0,04951	
28,08	-0,5089	52,52	243,30	0,04957	
28,10	-0,5071	52,89	244,61	0,04961	
28,12	-0,5054	54,37	245,95	0,04967	
28,14	-0,5037	55,46	247,31	0,04963	
28,16	-0,5020	54,80	248,67	0,04951	
28,18	-0,5002	53,32	250,01	0,04946	
28,20	-0,4985	52,46	251,33	0,04950	
28,22	-0,4968	52,33	252,65	0,04961	
28,24	-0,4950	52,34	253,96	0,04975	
28,26	-0,4933	52,29	255,27	0,04982	
28,28	-0,4916	52,33	256,63	0,04974	
28,30	-0,4898	52,34	258,02	0,04956	
28,32	-0,4880	51,33	259,92	0,04945	
28,34	-0,4862	49,84	262,88	0,04946	
28,36	-0,4845	49,12	266,61	0,04953	
28,38	-0,4828	48,95	269,73	0,04957	
28,40	-0,4809	48,95	271,75	0,04959	
28,42	-0,4791	49,00	273,32	0,04961	
28,44	-0,4773	49,02	274,72	0,04958	
28,46	-0,4755	49,02	276,06	0,04949	
28,48	-0,4737	49,02	277,37	0,04943	
28,50	-0,4718	48,92	278,82	0,04949	
28,52	-0,4699	47,90	280,28	0,04958	
28,54	-0,4681	46,43	281,66	0,04962	
28,56	-0,4663	45,73	283,12	0,04961	
28,58	-0,4645	45,62	284,57	0,04951	
28,60	-0,4627	46,70	285,96	0,04944	
28,62	-0,4609	48,27	287,33	0,04943	
28,64	-0,4591	49,01	288,68	0,04943	
28,66	-0,4572	48,99	290,11	0,04949	
28,68	-0,4553	48,31	291,58	0,04963	
28,70	-0,4534	49,20	292,63	0,04981	
28,72	-0,4516	57,01	293,02	0,04979	
28,74	-0,4498	69,81	293,02	0,04964	
28,76	-0,4480	83,25	292,99	0,04956	
28,78	-0,4464	95,34	293,20	0,04960	
28,80	-0,4451	103,86	293,69	0,04961	
28,82	-0,4442	105,55	294,42	0,04961	
28,84	-0,4434	104,34	295,17	0,04967	
28,86	-0,4427	105,51	295,85	0,04975	
28,88	-0,4418	108,07	296,51	0,04971	
28,90	-0,4408	111,22	297,21	0,04965	
28,92	-0,4398	114,31	297,87	0,04961	
28,94	-0,4391	116,57	298,54	0,04956	
28,96	-0,4386	115,97	299,21	0,04962	
28,98	-0,4380	113,75	299,87	0,04971	
29,00	-0,4373	111,16	300,63	0,04980	
29,02	-0,4366	108,65	301,48	0,04971	
29,04	-0,4358	106,84	302,24	0,04956	
29,06	-0,4351	107,43	302,80	0,04947	
29,08	-0,4344	108,44	303,31	0,04950	
29,10	-0,4335	107,90	304,03	0,04958	
29,12	-0,4326	108,43	304,74	0,04970	
29,14	-0,4319	109,00	305,35	0,04975	
29,16	-0,4312	107,71	306,10	0,04972	
29,18	-0,4304	104,65	306,93	0,04970	
29,20	-0,4296	104,47	307,61	0,04962	
29,22	-0,4289	106,39	308,11	0,04955	
29,24	-0,4281	106,54	308,67	0,04951	
29,26	-0,4274	104,49	309,47	0,04962	
29,28	-0,4266	102,06	310,40	0,04978	
29,30	-0,4260	101,33	311,06	0,04981	
29,32	-0,4254	102,73	311,48	0,04978	
29,34	-0,4246	102,33	312,12	0,04967	
29,36	-0,4237	99,90	313,00	0,04953	
29,38	-0,4229	98,16	313,82	0,04954	
29,40	-0,4225	98,17	314,34	0,04965	
29,42	-0,4220	96,54	314,89	0,04971	
29,44	-0,4211	91,96	315,78	0,04979	
29,46	-0,4203	90,72	316,61	0,04981	
29,48	-0,4197	93,51	317,07	0,04971	
29,50	-0,4191	94,62	317,50	0,04961	
29,52	-0,4183	90,80	318,36	0,04956	
29,54	-0,4175	85,87	319,42	0,04957	
29,56	-0,4170	84,62	320,12	0,04965	
29,58	-0,4166	85,98	320,45	0,04970	
29,60	-0,4159	84,50	320,99	0,04976	
29,62	-0,4150	79,63	322,03	0,04976	
29,64	-0,4143	77,15	322,98	0,04962	
29,66	-0,4139	77,37	323,43	0,04956	
29,68	-0,4134	76,04	323,82	0,04958	
29,70	-0,4126	71,72	324,52	0,04968	
29,72	-0,4119	69,51	325,33	0,04983	
29,74	-0,4113	70,29	325,98	0,04988	
29,76	-0,4109	69,63	326,56	0,04987	
29,78	-0,4102	65,20	327,27	0,04979	
29,80	-0,4094	62,57	328,04	0,04969	
29,82	-0,4088	64,51	328,68	0,04962	
29,84	-0,4082	65,54	329,28	0,04960	
29,86	-0,4075	63,92	330,03	0,04966	
29,88	-0,4068	61,87	330,82	0,04976	
29,90	-0,4062	63,29	331,42	0,04979	
29,92	-0,4056	64,88	332,00	0,04967	
29,94	-0,4049	63,12	332,77	0,04959	
29,96	-0,4041	61,12	333,56	0,04953	
29,98	-0,4035	62,38	334,12	0,04960	
30,00	-0,4029	63,92	334,67	0,04972	
30,02	-0,4022	61,79	335,49	0,04976	
30,04	-0,4014	58,60	336,36	0,04980	
30,06	-0,4008	58,76	336,96	0,04984	
30,08	-0,4003	60,36	337,46	0,04974	
30,10	-0,3997	59,17	338,19	0,04958	
30,12	-0,3988	57,49	339,03	0,04952	
30,14	-0,3981	59,01	339,72	0,04965	
30,16	-0,3977	60,55	340,28	0,04979	
30,18	-0,3970	59,78	340,89	0,04978	
30,20	-0,3962	58,26	341,68	0,04975	
30,22	-0,3954	58,51	342,48	0,04973	
30,24	-0,3948	59,65	343,08	0,04970	
30,26	-0,3942	59,45	343,64	0,04964	
30,28	-0,3935	57,68	344,41	0,04961	
30,30	-0,3927	56,96	345,23	0,04966	
30,32	-0,3921	59,12	345,86	0,04981	
30,34	-0,3915	60,63	346,43	0,04988	
30,36	-0,3908	59,73	347,15	0,04979	
30,38	-0,3900	59,67	347,88	0,04966	
30,40	-0,3895	62,44	348,47	0,04955	
30,42	-0,3888	63,33	349,13	0,04958	
30,44	-0,3880	61,83	349,95	0,04969	
30,46	-0,3872	61,73	350,66	0,04971	
30,48	-0,3867	63,85	351,20	0,04977	
30,50	-0,3861	63,96	351,87	0,04982	
30,52	-0,3853	62,06	352,75	0,04976	
30,54	-0,3847	62,20	353,50	0,04966	
30,56	-0,3841	63,94	354,04	0,04961	
30,58	-0,3834	64,48	354,63	0,04961	
30,60	-0,3826	63,15	355,38	0,04968	
30,62	-0,3818	63,57	356,10	0,04976	
30,64	-0,3813	65,43	356,72	0,04982	
30,66	-0,3807	64,95	357,41	0,04974	
30,68	-0,3800	64,03	358,13	0,04962	
30,70	-0,3794	65,93	358,76	0,04956	
30,72	-0,3788	67,84	359,40	0,04967	
30,74	-0,3783	66,95	360,15	0,04981	
30,76	-0,3776	66,22	360,86	0,04993	
30,78	-0,3771	67,34	361,46	0,04996	
30,80	-0,3766	66,72	362,22	0,04982	
30,82	-0,3759	65,36	363,03	0,04964	
30,84	-0,3753	66,84	363,64	0,04952	
30,86	-0,3747	69,13	364,22	0,04951	
30,88	-0,3741	68,02	364,93	0,04964	
30,90	-0,3735	66,98	365,65	0,04979	
30,92	-0,3729	68,67	366,36	0,04990	
30,94	-0,3723	69,51	367,04	0,04986	
30,96	-0,3718	69,76	367,68	0,04976	
30,98	-0,3713	71,62	368,31	0,04969	
31,00	-0,3706	72,48	369,07	0,04962	
31,02	-0,3700	71,81	369,82	0,04969	
31,04	-0,3696	72,43	370,45	0,04983	
31,06	-0,3690	73,23	371,06	0,04987	
31,08	-0,3685	73,58	371,75	0,04980	
31,10	-0,3679	74,42	372,48	0,04978	
31,12	-0,3674	76,22	373,16	0,04975	
31,14	-0,3669	77,72	373,81	0,04974	
31,16	-0,3663	78,10	374,51	0,04971	
31,18	-0,3658	77,95	375,26	0,04974	
31,20	-0,3653	78,88	375,96	0,04992	
31,22	-0,3649	80,68	376,60	0,05003	
31,24	-0,3643	81,45	377,26	0,04994	
31,26	-0,3638	81,42	377,98	0,04983	
31,28	-0,3633	82,06	378,64	0,04976	
31,30	-0,3629	82,05	379,31	0,04975	
31,32	-0,3624	80,92	380,04	0,04980	
31,34	-0,3619	81,30	380,74	0,04990	
31,36	-0,3614	83,19	381,37	0,04992	
31,38	-0,3609	84,35	382,07	0,04992	
31,40	-0,3604	84,48	382,79	0,04985	
31,42	-0,3600	85,57	383,46	0,04976	
31,44	-0,3596	86,57	384,13	0,04967	
31,46	-0,3591	86,64	384,83	0,04966	
31,48	-0,3587	86,96	385,51	0,04976	
31,50	-0,3582	87,61	386,20	0,04988	
31,52	-0,3578	87,94	386,89	0,04993	
31,54	-0,3573	88,43	387,56	0,04994	
31,56	-0,3569	89,10	388,24	0,04986	
31,58	-0,3565	89,83	388,94	0,04977	
31,60	-0,3562	90,37	389,63	0,04973	
31,62	-0,3557	90,94	390,31	0,04979	
31,64	-0,3553	91,39	390,97	0,04987	
31,66	-0,3549	92,20	391,64	0,04992	
31,68	-0,3544	93,13	392,33	0,04992	
31,70	-0,3540	93,17	393,05	0,04984	
31,72	-0,3537	92,84	393,74	0,04970	
31,74	-0,3533	93,27	394,41	0,04960	
31,76	-0,3529	93,65	395,06	0,04967	
31,78	-0,3525	93,87	395,74	0,04980	
31,80	-0,3522	94,78	396,44	0,04989	
31,82	-0,3517	96,19	397,14	0,04997	
31,84	-0,3513	96,59	397,85	0,04988	
31,86	-0,3510	96,18	398,55	0,04976	
31,88	-0,3506	96,90	399,18	0,04969	
31,90	-0,3502	97,80	399,85	0,04971	
31,92	-0,3498	97,38	400,62	0,04985	
31,94	-0,3495	97,45	401,32	0,04996	
31,96	-0,3492	98,68	401,95	0,05000	
31,98	-0,3488	98,91	402,63	0,05001	
32,00	-0,3484	98,72	403,32	0,04994	
32,02	-0,3480	98,88	404,01	0,04978	
32,04	-0,3476	98,20	404,69	0,04970	
32,06	-0,3473	97,36	405,35	0,04972	
32,08	-0,3470	97,90	406,02	0,04977	
32,10	-0,3466	99,52	406,70	0,04983	
32,12	-0,3461	100,17	407,43	0,04988	
32,14	-0,3458	100,28	408,13	0,04982	
32,16	-0,3455	100,48	408,77	0,04974	
32,18	-0,3451	100,48	409,45	0,04975	
32,20	-0,3448	100,78	410,15	0,04976	
32,22	-0,3443	101,95	410,84	0,04976	
32,24	-0,3440	102,32	411,53	0,04982	
32,26	-0,3436	101,75	412,22	0,04991	
32,28	-0,3433	102,20	412,88	0,04993	
32,30	-0,3430	103,43	413,53	0,04989	
32,32	-0,3426	103,48	414,23	0,04978	
32,34	-0,3422	102,30	414,95	0,04971	
32,36	-0,3419	101,58	415,65	0,04979	
32,38	-0,3417	101,88	416,29	0,04991	
32,40	-0,3414	102,43	416,97	0,04993	
32,42	-0,3409	101,84	417,70	0,04992	
32,44	-0,3406	102,34	418,40	0,04991	
32,46	-0,3402	103,26	419,05	0,04983	
32,48	-0,3399	103,40	419,72	0,04974	
32,50	-0,3396	103,01	420,41	0,04969	
32,52	-0,3392	103,25	421,11	0,04974	
32,54	-0,3389	103,30	421,81	0,04984	
32,56	-0,3386	103,04	422,50	0,04999	
32,58	-0,3382	103,35	423,16	0,05002	
32,60	-0,3379	103,66	423,85	0,04990	
32,62	-0,3376	104,41	424,54	0,04981	
32,64	-0,3372	104,83	425,22	0,04978	
32,66	-0,3369	104,95	425,90	0,04982	
32,68	-0,3365	104,89	426,58	0,04989	
32,70	-0,3362	104,19	427,28	0,04994	
32,72	-0,3359	104,26	427,95	0,04999	
32,74	-0,3357	104,48	428,62	0,05006	
32,76	-0,3354	103,41	429,31	0,04997	
32,78	-0,3351	102,97	430,00	0,04974	
32,80	-0,3347	103,52	430,68	0,04960	
32,82	-0,3344	103,74	431,40	0,04964	
32,84	-0,3340	103,83	432,08	0,04987	
32,86	-0,3337	104,00	432,72	0,05003	
32,88	-0,3333	103,40	433,43	0,05000	
32,90	-0,3330	102,24	434,11	0,04989	
32,92	-0,3327	102,70	434,74	0,04976	
32,94	-0,3324	103,05	435,41	0,04973	
32,96	-0,3320	102,23	436,10	0,04974	
32,98	-0,3317	102,26	436,80	0,04979	
33,00	-0,3313	102,23	437,50	0,04988	
33,02	-0,3310	100,89	438,20	0,05001	
33,04	-0,3307	100,08	438,89	0,05002	
33,06	-0,3302	100,81	439,56	0,04984	
33,08	-0,3299	100,83	440,25	0,04970	
33,10	-0,3295	100,61	440,94	0,04969	
33,12	-0,3292	100,52	441,62	0,04970	
33,14	-0,3289	100,91	442,29	0,04983	
33,16	-0,3285	100,46	442,95	0,04999	
33,18	-0,3280	98,80	443,64	0,05003	
33,20	-0,3277	97,38	444,36	0,04989	
33,22	-0,3273	96,86	445,04	0,04974	
33,24	-0,3270	96,97	445,69	0,04970	
33,26	-0,3266	97,03	446,36	0,04973	
33,28	-0,3262	96,95	447,04	0,04980	
33,30	-0,3258	96,64	447,74	0,04989	
33,32	-0,3255	95,79	448,45	0,04996	
33,34	-0,3251	95,06	449,14	0,04993	
33,36	-0,3246	95,42	449,81	0,04983	
33,38	-0,3242	95,50	450,50	0,04974	
33,40	-0,3238	94,98	451,20	0,04964	
33,42	-0,3234	94,71	451,88	0,04966	
33,44	-0,3230	94,88	452,55	0,04974	
33,46	-0,3226	94,77	453,23	0,04983	
33,48	-0,3221	94,74	453,91	0,04990	
33,50	-0,3217	95,02	454,56	0,04993	
33,52	-0,3213	94,86	455,27	0,04986	
33,54	-0,3209	93,79	456,00	0,04973	
33,56	-0,3206	93,06	456,68	0,04971	
33,58	-0,3201	93,29	457,34	0,04979	
33,60	-0,3197	92,62	458,02	0,04988	
33,62	-0,3192	91,25	458,70	0,04997	
33,64	-0,3189	91,15	459,38	0,04999	
33,66	-0,3186	91,08	460,05	0,04991	
33,68	-0,3181	90,69	460,73	0,04979	
33,70	-0,3177	90,33	461,42	0,04966	
33,72	-0,3172	89,58	462,13	0,04966	
33,74	-0,3168	89,37	462,80	0,04975	
33,76	-0,3164	89,00	463,48	0,04984	
33,78	-0,3159	88,38	464,17	0,04996	
33,80	-0,3155	88,83	464,83	0,04994	
33,82	-0,3150	88,92	465,51	0,04980	
33,84	-0,3146	88,44	466,20	0,04973	
33,86	-0,3141	88,30	466,89	0,04970	
33,88	-0,3137	87,98	467,58	0,04975	
33,90	-0,3132	86,43	468,29	0,04979	
33,92	-0,3128	85,59	468,95	0,04988	
33,94	-0,3123	86,04	469,62	0,04993	
33,96	-0,3118	85,09	470,36	0,04984	
33,98	-0,3114	84,13	471,01	0,04971	
34,00	-0,3110	83,91	471,64	0,04963	
34,02	-0,3104	82,63	472,38	0,04963	
34,04	-0,3099	81,49	473,07	0,04974	
34,06	-0,3094	82,13	473,70	0,04989	
34,08	-0,3089	81,16	474,46	0,04996	
34,10	-0,3085	79,60	475,16	0,04991	
34,12	-0,3081	80,81	475,77	0,04978	
34,14	-0,3075	80,83	476,46	0,04970	
34,16	-0,3070	79,22	477,16	0,04962	
34,18	-0,3065	79,18	477,81	0,04966	
34,20	-0,3061	79,27	478,48	0,04980	
34,22	-0,3055	76,89	479,22	0,04989	
34,24	-0,3049	75,36	479,92	0,04992	
34,26	-0,3044	76,19	480,56	0,04986	
34,28	-0,3039	75,81	481,26	0,04973	
34,30	-0,3033	74,33	481,95	0,04973	
34,32	-0,3028	74,77	482,60	0,04981	
34,34	-0,3023	74,66	483,32	0,04988	
34,36	-0,3017	72,73	484,04	0,04991	
34,38	-0,3012	72,74	484,68	0,04995	
34,40	-0,3007	72,97	485,37	0,04990	
34,42	-0,3001	71,79	486,06	0,04980	
34,44	-0,2996	70,88	486,70	0,04972	
34,46	-0,2991	69,92	487,40	0,04970	
34,48	-0,2985	67,92	488,14	0,04973	
34,50	-0,2980	67,98	488,78	0,04987	
34,52	-0,2974	68,18	489,43	0,04995	
34,54	-0,2967	66,20	490,20	0,04997	
34,56	-0,2962	64,84	490,87	0,04990	
34,58	-0,2957	65,48	491,44	0,04975	
34,60	-0,2950	64,00	492,20	0,04969	
34,62	-0,2944	60,70	492,97	0,04970	
34,64	-0,2940	61,01	493,56	0,04974	
34,66	-0,2934	61,14	494,27	0,04985	
34,68	-0,2927	58,96	494,97	0,04990	
34,70	-0,2921	58,56	495,57	0,04978	
34,72	-0,2915	57,88	496,32	0,04966	
34,74	-0,2909	54,89	497,07	0,04967	
34,76	-0,2904	54,42	497,67	0,04974	
34,78	-0,2897	54,26	498,38	0,04977	
34,80	-0,2890	51,79	499,09	0,04982	
34,82	-0,2884	51,67	499,71	0,04989	
34,84	-0,2877	51,39	500,40	0,04995	
34,86	-0,2870	49,30	501,09	0,04992	
34,88	-0,2864	49,07	501,73	0,04975	
34,90	-0,2857	48,93	502,45	0,04966	
34,92	-0,2850	46,63	503,19	0,04964	
34,94	-0,2844	45,58	503,84	0,04972	
34,96	-0,2837	44,79	504,51	0,04985	
34,98	-0,2830	42,74	505,23	0,04992	
35,00	-0,2823	42,35	505,85	0,04998	
35,02	-0,2817	43,00	506,48	0,04988	
35,04	-0,2810	40,48	507,32	0,04975	
35,06	-0,2801	38,44	508,04	0,04971	
35,08	-0,2794	40,05	508,56	0,04974	
35,10	-0,2787	39,18	509,35	0,04985	
35,12	-0,2779	35,91	510,22	0,04991	
35,14	-0,2773	36,42	510,80	0,04995	
35,16	-0,2765	37,10	511,37	0,04992	
35,18	-0,2756	33,13	512,05	0,04980	
35,20	-0,2750	31,46	512,70	0,04968	
35,22	-0,2743	33,06	513,38	0,04962	
35,24	-0,2735	31,70	514,09	0,04968	
35,26	-0,2727	30,08	514,75	0,04979	
35,28	-0,2719	30,15	515,43	0,04986	
35,30	-0,2711	29,65	516,13	0,04984	
35,32	-0,2703	29,21	516,82	0,04979	
35,34	-0,2694	28,98	517,50	0,04973	
35,36	-0,2687	28,30	518,09	0,04971	
35,38	-0,2679	27,75	518,79	0,04976	
35,40	-0,2669	25,90	519,65	0,04986	
35,42	-0,2662	24,52	520,31	0,04993	
35,44	-0,2655	24,64	520,91	0,04995	
35,46	-0,2645	21,41	521,74	0,04985	
35,48	-0,2638	19,20	522,44	0,04969	
35,50	-0,2630	20,61	523,00	0,04969	
35,52	-0,2621	19,54	523,69	0,04972	
35,54	-0,2612	16,88	524,38	0,04976	
35,56	-0,2603	16,37	525,03	0,04985	
35,58	-0,2595	15,69	525,70	0,04996	
35,60	-0,2586	13,65	526,35	0,04993	
35,62	-0,2577	12,93	527,05	0,04976	
35,64	-0,2568	12,19	527,78	0,04965	
35,66	-0,2560	12,01	528,42	0,04964	
35,68	-0,2550	11,95	529,10	0,04962	
35,70	-0,2540	10,77	529,80	0,04974	
35,72	-0,2531	10,75	530,39	0,04984	
35,74	-0,2522	10,66	531,15	0,04981	
35,76	-0,2512	8,049	532,02	0,04981	
35,78	-0,2504	6,429	532,65	0,04973	
35,80	-0,2496	6,474	533,26	0,04963	
35,82	-0,2485	4,759	534,02	0,04966	
35,84	-0,2476	3,978	534,65	0,04972	
35,86	-0,2466	4,652	535,24	0,04983	
35,88	-0,2456	3,149	536,01	0,04991	
35,90	-0,2446	1,168	536,71	0,04989	
35,92	-0,2437	2,322	537,24	0,04977	
35,94	-0,2427	2,157	537,97	0,04964	
35,96	-0,2416	-1,956	538,91	0,04959	
35,98	-0,2407	-2,084	539,56	0,04963	
36,00	-0,2398	0,03333	540,12	0,04972	
36,02	-0,2386	-1,872	540,85	0,04983	
36,04	-0,2377	-3,258	541,48	0,04983	
36,06	-0,2367	-1,879	542,12	0,04982	
36,08	-0,2356	-3,606	542,93	0,04975	
36,10	-0,2346	-5,920	543,59	0,04969	
36,12	-0,2337	-4,134	544,06	0,04966	
36,14	-0,2326	-3,620	544,78	0,04966	
36,16	-0,2314	-7,092	545,75	0,04972	
36,18	-0,2305	-6,816	546,42	0,04981	
36,20	-0,2297	-4,223	546,94	0,04983	
36,22	-0,2286	-6,668	547,71	0,04975	
36,24	-0,2275	-9,392	548,43	0,04965	
36,26	-0,2265	-8,151	548,99	0,04965	
36,28	-0,2256	-8,990	549,69	0,04972	
36,30	-0,2245	-12,23	550,41	0,04980	
36,32	-0,2235	-11,78	550,99	0,04983	
36,34	-0,2224	-10,16	551,64	0,04981	
36,36	-0,2212	-11,76	552,46	0,04977	
36,38	-0,2202	-11,78	553,05	0,04971	
36,40	-0,2193	-8,523	553,53	0,04961	
36,42	-0,2182	-9,293	554,46	0,04960	
36,44	-0,2170	-12,49	555,50	0,04970	
36,46	-0,2160	-11,80	556,03	0,04985	
36,48	-0,2151	-9,299	556,33	0,04990	
36,50	-0,2141	-11,48	557,11	0,04997	
36,52	-0,2129	-15,30	558,25	0,05053	
36,54	-0,2119	-13,73	558,95	0,05112	
36,56	-0,2111	-10,79	559,15	0,05130	
36,58	-0,2099	-10,04	559,63	0,05125	
36,60	-0,2086	-12,74	560,79	0,05126	
36,62	-0,2075	-13,30	561,90	0,05136	
36,64	-0,2066	-10,20	562,31	0,05148	
36,66	-0,2058	-7,340	562,54	0,05140	
36,68	-0,2047	-8,922	563,40	0,05126	
36,70	-0,2035	-11,00	564,48	0,05124	
36,72	-0,2026	-8,041	565,04	0,05132	
36,74	-0,2017	-4,907	565,23	0,05101	
36,76	-0,2008	-6,964	565,88	0,05036	
36,78	-0,1996	-9,707	567,10	0,04995	
36,80	-0,1986	-7,945	568,04	0,04974	
36,82	-0,1979	-3,936	568,34	0,04964	
36,84	-0,1970	-2,167	568,72	0,04958	
36,86	-0,1957	-4,233	569,66	0,04959	
36,88	-0,1947	-3,319	570,55	0,04970	
36,90	-0,1938	1,405	571,01	0,04983	
36,92	-0,1931	2,858	571,43	0,04991	
36,94	-0,1922	-0,7399	572,28	0,04990	
36,96	-0,1911	-1,274	573,21	0,04983	
36,98	-0,1902	4,528	573,79	0,04978	
37,00	-0,1894	7,925	574,32	0,04969	
37,02	-0,1883	7,490	575,04	0,04971	
37,04	-0,1873	9,323	575,72	0,04981	
37,06	-0,1865	14,21	576,27	0,04984	
37,08	-0,1857	15,84	576,99	0,04987	
37,10	-0,1848	14,78	577,81	0,04986	
37,12	-0,1840	18,55	578,46	0,04978	
37,14	-0,1831	22,80	579,15	0,04970	
37,16	-0,1823	23,00	579,85	0,04969	
37,18	-0,1815	24,55	580,45	0,04971	
37,20	-0,1807	27,46	581,18	0,04977	
37,22	-0,1798	28,33	581,87	0,04992	
37,24	-0,1791	30,03	582,43	0,04994	
37,26	-0,1783	31,94	583,22	0,04988	
37,28	-0,1775	31,54	584,03	0,04972	
37,30	-0,1768	33,97	584,64	0,04959	
37,32	-0,1760	36,72	585,29	0,04958	
37,34	-0,1752	37,12	585,96	0,04966	
37,36	-0,1746	38,73	586,58	0,04979	
37,38	-0,1739	40,86	587,34	0,04992	
37,40	-0,1731	41,40	588,00	0,04989	
37,42	-0,1724	43,01	588,59	0,04973	
37,44	-0,1716	43,09	589,41	0,04959	
37,46	-0,1709	43,04	590,14	0,04961	
37,48	-0,1703	46,07	590,74	0,04970	
37,50	-0,1695	46,54	591,48	0,04974	
37,52	-0,1689	45,12	592,11	0,04987	
37,54	-0,1683	46,61	592,73	0,05001	
37,56	-0,1675	46,48	593,54	0,04998	
37,58	-0,1668	44,46	594,21	0,04981	
37,60	-0,1663	45,43	594,80	0,04964	
37,62	-0,1655	44,75	595,59	0,04956	
37,64	-0,1648	42,41	596,30	0,04964	
37,66	-0,1642	42,78	596,91	0,04978	
37,68	-0,1635	42,24	597,63	0,04990	
37,70	-0,1629	39,86	598,25	0,04996	
37,72	-0,1622	39,02	598,89	0,04990	
37,74	-0,1615	37,44	599,67	0,04973	
37,76	-0,1607	36,31	600,29	0,04961	
37,78	-0,1599	36,93	600,94	0,04963	
37,80	-0,1591	34,71	601,75	0,04978	
37,82	-0,1585	32,10	602,42	0,04993	
37,84	-0,1578	31,82	603,06	0,04994	
37,86	-0,1570	29,91	603,74	0,04986	
37,88	-0,1563	27,80	604,35	0,04972	
37,90	-0,1555	26,80	605,04	0,04960	
37,92	-0,1547	24,61	605,77	0,04959	
37,94	-0,1540	23,33	606,34	0,04967	
37,96	-0,1532	23,00	607,08	0,04980	
37,98	-0,1523	19,36	607,99	0,04993	
38,00	-0,1517	16,86	608,63	0,05003	
38,02	-0,1509	16,72	609,15	0,04995	
38,04	-0,1501	13,88	609,89	0,04973	
38,06	-0,1492	10,37	610,63	0,04960	
38,08	-0,1485	10,78	611,16	0,04965	
38,10	-0,1477	10,43	611,79	0,04975	
38,12	-0,1466	5,267	612,76	0,04978	
38,14	-0,1457	2,856	613,55	0,04982	
38,16	-0,1450	3,931	614,04	0,04983	
38,18	-0,1441	2,693	614,65	0,04967	
38,20	-0,1431	-1,093	615,42	0,04957	
38,22	-0,1422	-2,214	616,00	0,04961	
38,24	-0,1413	-0,7460	616,52	0,04970	
38,26	-0,1403	-3,606	617,40	0,04973	
38,28	-0,1393	-7,639	618,36	0,04974	
38,30	-0,1385	-6,682	618,88	0,04976	
38,32	-0,1376	-4,731	619,24	0,04975	
38,34	-0,1365	-6,916	620,06	0,04966	
38,36	-0,1353	-10,55	621,23	0,04962	
38,38	-0,1344	-9,793	621,93	0,04966	
38,40	-0,1337	-8,363	622,13	0,04973	
38,42	-0,1327	-9,260	622,57	0,04982	
38,44	-0,1316	-12,79	623,68	0,04982	
38,46	-0,1306	-14,57	624,78	0,04982	
38,48	-0,1297	-12,97	625,18	0,04979	
38,50	-0,1289	-10,74	625,35	0,04968	
38,52	-0,1278	-12,14	626,14	0,04957	
38,54	-0,1265	-15,29	627,38	0,04960	
38,56	-0,1255	-14,87	628,13	0,04976	
38,58	-0,1248	-12,11	628,34	0,04990	
38,60	-0,1239	-13,41	628,89	0,04988	
38,62	-0,1225	-17,24	629,97	0,04978	
38,64	-0,1215	-15,39	630,81	0,04968	
38,66	-0,1207	-9,840	631,10	0,04969	
38,68	-0,1198	-8,665	631,47	0,04968	
38,70	-0,1185	-12,77	632,51	0,04968	
38,72	-0,1172	-14,29	633,70	0,04982	
38,74	-0,1163	-9,914	634,23	0,04995	
38,76	-0,1156	-4,906	634,42	0,04989	
38,78	-0,1145	-5,269	635,13	0,04970	
38,80	-0,1133	-7,465	636,23	0,04962	
38,82	-0,1123	-4,974	636,93	0,04965	
38,84	-0,1115	-1,506	637,19	0,04974	
38,86	-0,1107	-2,368	637,75	0,04977	
38,88	-0,1096	-5,470	638,85	0,04976	
38,90	-0,1085	-2,867	639,76	0,04979	
38,92	-0,1077	1,945	640,13	0,04981	
38,94	-0,1069	5,226	640,48	0,04973	
38,96	-0,1057	4,504	641,40	0,04962	
38,98	-0,1045	4,883	642,46	0,04965	
39,00	-0,1037	8,860	643,02	0,04979	
39,02	-0,1030	12,73	643,30	0,04994	
39,04	-0,1021	11,84	644,02	0,04994	
39,06	-0,1011	9,981	645,09	0,04988	
39,08	-0,1002	13,03	645,82	0,04973	
39,10	-0,09949	16,67	646,16	0,04962	
39,12	-0,09874	17,14	646,68	0,04966	
39,14	-0,09763	14,99	647,63	0,04970	
39,16	-0,09667	17,00	648,48	0,04978	
39,18	-0,09599	21,24	648,97	0,04992	
39,20	-0,09539	22,28	649,47	0,04995	
39,22	-0,09459	19,86	650,29	0,04984	
39,24	-0,09380	21,04	651,03	0,04963	
39,26	-0,09327	25,68	651,63	0,04956	
39,28	-0,09258	25,66	652,37	0,04964	
39,30	-0,09177	24,51	653,00	0,04982	
39,32	-0,09108	27,38	653,58	0,04993	
39,34	-0,09028	28,28	654,41	0,04991	
39,36	-0,08959	26,73	655,16	0,04981	
39,38	-0,08899	28,76	655,77	0,04967	
39,40	-0,08829	29,58	656,45	0,04966	
39,42	-0,08762	27,65	657,09	0,04974	
39,44	-0,08697	28,23	657,75	0,04981	
39,46	-0,08624	28,74	658,51	0,04988	
39,48	-0,08561	28,10	659,15	0,04994	
39,50	-0,08495	29,19	659,81	0,04996	
39,52	-0,08420	29,42	660,60	0,04982	
39,54	-0,08359	29,90	661,23	0,04968	
39,56	-0,08294	31,23	661,89	0,04964	
39,58	-0,08218	30,81	662,67	0,04971	
39,60	-0,08160	31,51	663,27	0,04982	
39,62	-0,08096	33,27	663,91	0,04989	
39,64	-0,08018	32,31	664,68	0,04992	
39,66	-0,07959	32,15	665,29	0,04992	
39,68	-0,07892	33,55	665,99	0,04982	
39,70	-0,07817	32,73	666,75	0,04969	
39,72	-0,07760	33,00	667,32	0,04963	
39,74	-0,07690	34,07	668,04	0,04964	
39,76	-0,07613	31,93	668,85	0,04973	
39,78	-0,07545	31,38	669,45	0,04985	
39,80	-0,07474	33,14	670,10	0,04986	
39,82	-0,07396	32,16	670,83	0,04982	
39,84	-0,07327	32,08	671,44	0,04972	
39,86	-0,07264	32,93	672,14	0,04961	
39,88	-0,07207	31,00	672,87	0,04964	
39,90	-0,07143	30,12	673,48	0,04973	
39,92	-0,07058	30,31	674,21	0,04978	
39,94	-0,06979	28,86	674,92	0,04982	
39,96	-0,06919	29,95	675,50	0,04980	
39,98	-0,06847	30,76	676,26	0,04973	
40,00	-0,06776	29,13	677,00	0,04966	
40,02	-0,06718	29,66	677,58	0,04964	
40,04	-0,06648	29,65	678,31	0,04966	
40,06	-0,06578	26,90	679,06	0,04978	
40,08	-0,06517	26,35	679,68	0,04993	
40,10	-0,06443	26,01	680,38	0,04998	
40,12	-0,06372	23,77	681,03	0,04989	
40,14	-0,06312	24,28	681,63	0,04968	
40,16	-0,06240	24,05	682,44	0,04965	
40,18	-0,06167	21,82	683,20	0,04974	
40,20	-0,06092	22,53	683,77	0,04982	
40,22	-0,06014	22,41	684,45	0,04987	
40,24	-0,05937	18,59	685,23	0,04991	
40,26	-0,05872	17,87	685,83	0,04980	
40,28	-0,05810	19,96	686,41	0,04969	
40,30	-0,05723	17,78	687,20	0,04963	
40,32	-0,05640	15,38	687,88	0,04962	
40,34	-0,05581	17,83	688,38	0,04970	
40,36	-0,05503	17,91	689,21	0,04976	
40,38	-0,05406	13,94	690,22	0,04983	
40,40	-0,05333	13,22	690,85	0,04989	
40,42	-0,05275	14,93	691,20	0,04986	
40,44	-0,05195	12,38	691,86	0,04973	
40,46	-0,05098	7,477	692,89	0,04967	
40,48	-0,05029	8,414	693,63	0,04972	
40,50	-0,04967	10,23	694,04	0,04978	
40,52	-0,04885	8,533	694,60	0,04983	
40,54	-0,04783	5,216	695,47	0,04984	
40,56	-0,04700	5,569	696,20	0,04980	
40,58	-0,04630	7,750	696,78	0,04968	
40,60	-0,04539	5,555	697,49	0,04965	
40,62	-0,04450	3,395	698,17	0,04970	
40,64	-0,04369	5,048	698,79	0,04974	
40,66	-0,04287	5,502	699,43	0,04979	
40,68	-0,04200	4,206	699,84	0,04986	
40,70	-0,04126	7,820	699,89	0,04994	
40,72	-0,04053	15,62	699,71	0,04989	
40,74	-0,03971	23,49	699,56	0,04977	
40,76	-0,03875	29,80	699,57	0,04968	
40,78	-0,03791	34,84	699,62	0,04971	
40,80	-0,03730	39,57	699,60	0,04979	
40,82	-0,03683	43,37	699,56	0,04980	
40,84	-0,03625	46,13	699,58	0,04983	
40,86	-0,03557	50,53	699,65	0,04978	
40,88	-0,03490	57,77	699,65	0,04973	
40,90	-0,03441	64,78	699,58	0,04977	
40,92	-0,03397	70,69	699,52	0,04981	
40,94	-0,03345	74,43	699,61	0,04987	
40,96	-0,03293	77,72	699,73	0,04994	
40,98	-0,03252	83,14	699,69	0,05001	
41,00	-0,03228	88,67	699,55	0,04993	
41,02	-0,03192	91,87	699,52	0,04977	
41,04	-0,03138	93,12	699,67	0,04976	
41,06	-0,03094	95,47	699,77	0,04983	
41,08	-0,03080	99,84	699,68	0,04992	
41,10	-0,03058	104,00	699,54	0,05001	
41,12	-0,03026	106,18	699,54	0,04997	
41,14	-0,02982	107,80	699,66	0,04991	
41,16	-0,02952	110,22	699,71	0,04983	
41,18	-0,02950	112,32	699,61	0,04974	
41,20	-0,02941	113,50	699,50	0,04968	
41,22	-0,02905	114,58	699,58	0,04972	
41,24	-0,02876	115,41	699,78	0,04984	
41,26	-0,02867	117,52	699,82	0,04995	
41,28	-0,02851	120,82	699,67	0,04998	
41,30	-0,02832	122,87	699,54	0,04988	
41,32	-0,02818	123,36	699,56	0,04973	
41,34	-0,02805	124,34	699,66	0,04968	
41,36	-0,02779	125,47	699,67	0,04974	
41,38	-0,02762	126,35	699,57	0,04987	
41,40	-0,02756	126,93	699,50	0,04999	
41,42	-0,02747	127,86	699,61	0,04999	
41,44	-0,02737	128,83	699,76	0,04987	
41,46	-0,02726	130,79	699,74	0,04978	
41,48	-0,02708	132,79	699,58	0,04974	
41,50	-0,02693	133,44	699,51	0,04973	
41,52	-0,02678	133,14	699,64	0,04975	
41,54	-0,02672	134,01	699,75	0,04989	
41,56	-0,02681	135,71	699,68	0,05009	
41,58	-0,02686	136,55	699,53	0,05010	
41,60	-0,02658	135,97	699,53	0,04995	
41,62	-0,02620	135,48	699,69	0,04982	
41,64	-0,02606	136,46	699,77	0,04978	
41,66	-0,02615	138,69	699,67	0,04983	
41,68	-0,02622	139,42	699,54	0,04987	
41,70	-0,02618	139,25	699,55	0,04991	
41,72	-0,02607	139,14	699,68	0,04996	
41,74	-0,02605	139,31	699,71	0,04999	
41,76	-0,02612	139,95	699,59	0,04995	
41,78	-0,02590	140,25	699,50	0,04984	
41,80	-0,02556	139,76	699,60	0,04976	
41,82	-0,02536	140,01	699,75	0,04983	
41,84	-0,02539	141,79	699,73	0,04999	
41,86	-0,02552	143,08	699,57	0,05007	
41,88	-0,02554	142,49	699,51	0,05000	
41,90	-0,02543	140,91	699,66	0,04982	
41,92	-0,02536	140,97	699,78	0,04977	
41,94	-0,02543	142,46	699,70	0,04987	
41,96	-0,02550	143,51	699,55	0,04991	
41,98	-0,02534	143,50	699,53	0,04991	
42,00	-0,02494	142,82	699,67	0,04993	
42,02	-0,02473	142,54	699,73	0,04996	
42,04	-0,02479	143,07	699,62	0,04987	
42,06	-0,02487	143,55	699,50	0,04977	
42,08	-0,02480	143,19	699,58	0,04973	
42,10	-0,02469	142,76	699,75	0,04977	
42,12	-0,02471	144,22	699,75	0,04985	
42,14	-0,02482	146,27	699,60	0,04993	
42,16	-0,02485	146,18	699,51	0,04999	
42,18	-0,02475	144,12	699,62	0,04995	
42,20	-0,02466	143,59	699,75	0,04984	
42,22	-0,02473	145,30	699,69	0,04979	
42,24	-0,02480	145,97	699,55	0,04980	
42,26	-0,02453	144,58	699,54	0,04989	
42,28	-0,02416	143,19	699,70	0,04990	
42,30	-0,02404	144,11	699,75	0,04996	
42,32	-0,02414	146,17	699,63	0,05002	
42,34	-0,02420	146,38	699,51	0,04991	
42,36	-0,02413	144,45	699,58	0,04977	
42,38	-0,02402	143,04	699,76	0,04977	
42,40	-0,02405	144,31	699,76	0,04987	
42,42	-0,02416	146,10	699,61	0,04995	
42,44	-0,02419	145,39	699,53	0,05000	
42,46	-0,02413	144,51	699,60	0,05000	
42,48	-0,02404	145,08	699,69	0,04993	
42,50	-0,02408	146,11	699,63	0,04987	
42,52	-0,02418	146,09	699,51	0,04975	
42,54	-0,02399	144,49	699,54	0,04973	
42,56	-0,02355	143,09	699,74	0,04976	
42,58	-0,02337	144,10	699,81	0,04985	
42,60	-0,02344	146,04	699,67	0,04999	
42,62	-0,02351	146,97	699,52	0,04999	
42,64	-0,02345	145,85	699,58	0,04991	
42,66	-0,02335	144,47	699,73	0,04982	
42,68	-0,02339	145,28	699,71	0,04979	
42,70	-0,02352	146,37	699,56	0,04986	
42,72	-0,02352	145,11	699,51	0,04994	
42,74	-0,02338	142,59	699,67	0,04992	
42,76	-0,02332	142,86	699,78	0,04992	
42,78	-0,02343	145,32	699,68	0,04984	
42,80	-0,02353	146,07	699,53	0,04971	
42,82	-0,02332	144,41	699,57	0,04965	
42,84	-0,02289	143,02	699,73	0,04974	
42,86	-0,02272	144,16	699,74	0,04988	
42,88	-0,02281	145,97	699,59	0,04998	
42,90	-0,02285	145,31	699,51	0,05001	
42,92	-0,02275	143,57	699,63	0,05002	
42,94	-0,02266	143,40	699,74	0,04988	
42,96	-0,02272	145,25	699,66	0,04970	
42,98	-0,02281	145,88	699,51	0,04968	
43,00	-0,02278	144,45	699,54	0,04972	
43,02	-0,02266	142,83	699,74	0,04985	
43,04	-0,02265	143,22	699,82	0,04996	
43,06	-0,02278	144,66	699,68	0,04993	
43,08	-0,02286	144,45	699,53	0,04981	
43,10	-0,02267	143,54	699,55	0,04970	
43,12	-0,02226	142,67	699,70	0,04968	
43,14	-0,02207	142,59	699,71	0,04980	
43,16	-0,02215	143,35	699,56	0,04992	
43,18	-0,02219	143,64	699,50	0,04994	
43,20	-0,02207	142,39	699,68	0,04992	
43,22	-0,02200	142,60	699,83	0,04987	
43,24	-0,02208	144,97	699,74	0,04969	
43,26	-0,02217	145,75	699,56	0,04950	
43,28	-0,02216	143,75	699,54	0,04944	
43,30	-0,02208	142,44	699,66	0,04942	
43,32	-0,02206	142,46	699,69	0,04954	
43,34	-0,02215	143,28	699,56	0,04974	
43,36	-0,02215	142,86	699,50	0,04980	
43,38	-0,02176	140,64	699,67	0,04968	
43,40	-0,02144	140,36	699,80	0,04953	
43,42	-0,02143	143,48	699,70	0,04949	
43,44	-0,02153	145,31	699,54	0,04954	
43,46	-0,02149	143,20	699,56	0,04960	
43,48	-0,02138	141,67	699,69	0,04966	
43,50	-0,02139	142,31	699,68	0,04957	
43,52	-0,02149	143,25	699,54	0,04935	
43,54	-0,02150	142,08	699,51	0,04898	
43,56	-0,02137	139,94	699,71	0,04849	
43,58	-0,02133	139,88	699,83	0,04791	
43,60	-0,02143	141,98	699,72	0,04731	
43,62	-0,02148	143,29	699,54	0,04686	
43,64	-0,02117	141,96	699,55	0,04652	
43,66	-0,02077	140,09	699,73	0,04620	
43,68	-0,02066	140,93	699,75	0,04592	
43,70	-0,02076	142,81	699,59	0,04567	
43,72	-0,02081	142,29	699,50	0,04541	
43,74	-0,02071	140,38	699,63	0,04519	
43,76	-0,02062	140,08	699,78	0,04501	
43,78	-0,02068	141,95	699,71	0,04483	
43,80	-0,02075	142,49	699,54	0,04460	
43,82	-0,02071	140,92	699,54	0,04454	
43,84	-0,02059	139,29	699,70	0,04451	
43,86	-0,02057	139,68	699,73	0,04435	
43,88	-0,02054	141,66	699,58	0,04421	
43,90	-0,02029	140,74	699,50	0,04409	
43,92	-0,02004	137,73	699,64	0,04386	
43,94	-0,01995	137,08	699,78	0,04360	
43,96	-0,02004	139,39	699,69	0,04360	
43,98	-0,02015	140,54	699,52	0,04330	
44,00	-0,02010	138,91	699,54	0,04208	
44,02	-0,01998	137,44	699,73	0,04123	
44,04	-0,01996	138,81	699,78	0,04089	
44,06	-0,02009	140,56	699,61	0,03973	
44,08	-0,01999	139,87	699,52	0,03751	
44,10	-0,01956	137,34	699,67	0,03605	
44,12	-0,01932	136,93	699,81	0,03537	
44,14	-0,01937	139,24	699,72	0,03501	
44,16	-0,01947	140,26	699,54	0,03498	
44,18	-0,01945	139,41	699,52	0,03506	
44,20	-0,01934	138,84	699,68	0,03513	
44,22	-0,01931	139,06	699,74	0,03520	
44,24	-0,01941	139,84	699,61	0,03525	
44,26	-0,01942	139,49	699,50	0,03518	
44,28	-0,01905	137,46	699,63	0,03502	
44,30	-0,01871	136,99	699,78	0,03497	
44,32	-0,01871	139,85	699,71	0,03505	
44,34	-0,01882	141,24	699,53	0,03516	
44,36	-0,01880	139,14	699,56	0,03517	
44,38	-0,01869	136,76	699,75	0,03507	
44,40	-0,01868	137,47	699,78	0,03502	
44,42	-0,01879	139,28	699,62	0,03490	
44,44	-0,01883	138,70	699,50	0,03481	
44,46	-0,01858	136,85	699,62	0,03483	
44,48	-0,01818	136,54	699,76	0,03488	
44,50	-0,01807	138,42	699,70	0,03502	
44,52	-0,01812	139,25	699,53	0,03508	
44,54	-0,01809	137,84	699,55	0,03498	
44,56	-0,01796	136,34	699,74	0,03487	
44,58	-0,01794	137,32	699,80	0,03478	
44,60	-0,01806	139,42	699,64	0,03473	
44,62	-0,01813	139,58	699,51	0,03472	
44,64	-0,01805	137,65	699,60	0,03474	
44,66	-0,01780	136,85	699,76	0,03475	
44,68	-0,01756	138,38	699,73	0,03487	
44,70	-0,01752	139,82	699,54	0,03484	
44,72	-0,01747	138,74	699,53	0,03464	
44,74	-0,01734	136,76	699,72	0,03452	
44,76	-0,01731	137,35	699,79	0,03466	
44,78	-0,01743	139,24	699,63	0,03477	
44,80	-0,01748	138,14	699,51	0,03475	
44,82	-0,01738	134,66	699,64	0,03477	
44,84	-0,01729	133,64	699,76	0,03474	
44,86	-0,01734	136,56	699,67	0,03462	
44,88	-0,01720	137,96	699,51	0,03451	
44,90	-0,01687	135,65	699,58	0,03448	
44,92	-0,01665	134,02	699,77	0,03449	
44,94	-0,01667	136,36	699,77	0,03456	
44,96	-0,01680	139,19	699,60	0,03474	
44,98	-0,01680	138,64	699,54	0,03481	
45,00	-0,01667	136,91	699,65	0,03457	
45,02	-0,01650	137,44	699,67	0,03444	
45,04	-0,01631	139,11	699,54	0,03455	
45,06	-0,01617	137,96	699,48	0,03454	
45,08	-0,01599	134,37	699,71	0,03453	
45,10	-0,01591	133,44	699,91	0,03478	
45,12	-0,01598	136,42	699,83	0,03493	
45,14	-0,01612	139,51	699,61	0,03478	
45,16	-0,01613	139,55	699,52	0,03462	
45,18	-0,01600	138,10	699,64	0,03461	
45,20	-0,01594	138,23	699,69	0,03456	
45,22	-0,01590	138,21	699,56	0,03461	
45,24	-0,01567	136,53	699,49	0,03479	
45,26	-0,01538	133,28	699,67	0,03487	
45,28	-0,01526	132,99	699,83	0,03477	
45,30	-0,01534	136,48	699,74	0,03473	
45,32	-0,01545	138,66	699,55	0,03465	
45,34	-0,01542	136,63	699,54	0,03448	
45,36	-0,01530	134,96	699,70	0,03443	
45,38	-0,01514	135,92	699,74	0,03462	
45,40	-0,01497	137,29	699,59	0,03480	
45,42	-0,01483	136,54	699,50	0,03474	
45,44	-0,01467	134,25	699,65	0,03462	
45,46	-0,01458	134,35	699,79	0,03455	
45,48	-0,01467	137,31	699,70	0,03454	
45,50	-0,01479	138,86	699,53	0,03458	
45,52	-0,01473	136,60	699,54	0,03452	
45,54	-0,01434	134,93	699,71	0,03455	
45,56	-0,01405	136,13	699,75	0,03469	
45,58	-0,01408	138,70	699,58	0,03472	
45,60	-0,01414	138,50	699,49	0,03455	
45,62	-0,01399	135,23	699,72	0,03442	
45,64	-0,01391	133,89	699,93	0,03443	
45,66	-0,01396	135,80	699,83	0,03453	
45,68	-0,01410	137,31	699,59	0,03469	
45,70	-0,01405	136,39	699,54	0,03476	
45,72	-0,01367	134,66	699,67	0,03411	
45,74	-0,01339	135,18	699,68	0,02683	
45,76	-0,01343	136,46	699,52	0,02303	
45,78	-0,01342	134,40	699,53	0,01985	
45,80	-0,01329	130,28	699,75	0,02017	
45,82	-0,01328	130,86	699,83	0,02562	
45,84	-0,01340	134,64	699,66	0,02897	
45,86	-0,01343	136,07	699,50	0,02947	
45,88	-0,01306	134,23	699,60	0,02954	
45,90	-0,01267	132,77	699,78	0,03001	
45,92	-0,01262	134,17	699,74	0,03109	
45,94	-0,01274	135,42	699,55	0,03230	
45,96	-0,01274	133,09	699,54	0,03329	
45,98	-0,01262	131,03	699,72	0,03399	
46,00	-0,01259	132,91	699,76	0,03439	
46,02	-0,01272	135,84	699,61	0,03454	
46,04	-0,01264	136,23	699,51	0,03503	
46,06	-0,01222	134,08	699,63	0,03555	
46,08	-0,01195	133,33	699,74	0,03485	
46,10	-0,01201	135,28	699,62	0,03443	
46,12	-0,01212	135,85	699,49	0,03355	
46,14	-0,01201	132,61	699,65	0,03171	
46,16	-0,01192	130,72	699,85	0,03017	
46,18	-0,01199	133,16	699,78	0,02951	
46,20	-0,01196	135,76	699,58	0,03024	
46,22	-0,01166	134,65	699,54	0,03136	
46,24	-0,01134	132,94	699,70	0,03197	
46,26	-0,01126	133,79	699,76	0,03205	
46,28	-0,01139	135,92	699,62	0,03297	
46,30	-0,01146	136,15	699,50	0,03415	
46,32	-0,01136	134,32	699,60	0,03471	
46,34	-0,01110	134,28	699,74	0,03482	
46,36	-0,01087	137,15	699,67	0,03469	
46,38	-0,01079	138,79	699,52	0,03460	
46,40	-0,01072	137,08	699,55	0,03489	
46,42	-0,01062	135,91	699,72	0,03568	
46,44	-0,01064	137,48	699,72	0,03643	
46,46	-0,01075	139,59	699,54	0,03531	
46,48	-0,01077	138,76	699,50	0,03407	
46,50	-0,01061	135,43	699,74	0,03398	
46,52	-0,01055	135,18	699,90	0,03348	
46,54	-0,01062	137,85	699,77	0,03264	
46,56	-0,01046	138,64	699,56	0,03159	
46,58	-0,01016	137,43	699,54	0,03107	
46,60	-0,00991	136,85	699,70	0,03071	
46,62	-0,00989	138,29	699,73	0,03029	
46,64	-0,01002	139,66	699,59	0,03018	
46,66	-0,01006	138,19	699,51	0,03063	
46,68	-0,00994	135,98	699,63	0,03146	
46,70	-0,00972	136,13	699,75	0,03228	
46,72	-0,00951	138,45	699,66	0,03311	
46,74	-0,00944	139,45	699,50	0,03357	
46,76	-0,00934	137,80	699,55	0,03387	
46,78	-0,00921	136,21	699,76	0,03418	
46,80	-0,00924	137,40	699,77	0,03436	
46,82	-0,00938	139,36	699,60	0,03441	
46,84	-0,00941	138,60	699,52	0,03455	
46,86	-0,00924	136,13	699,65	0,03481	
46,88	-0,00891	136,08	699,75	0,03472	
46,90	-0,00876	138,58	699,64	0,03426	
46,92	-0,00874	138,97	699,51	0,03353	
46,94	-0,00864	136,49	699,61	0,03269	
46,96	-0,00854	135,27	699,77	0,03186	
46,98	-0,00860	137,33	699,72	0,03127	
47,00	-0,00871	138,93	699,56	0,03087	
47,02	-0,00870	137,98	699,54	0,03058	
47,04	-0,00844	136,61	699,70	0,03081	
47,06	-0,00812	137,47	699,75	0,03141	
47,08	-0,00806	139,52	699,60	0,03143	
47,10	-0,00807	139,68	699,51	0,03155	
47,12	-0,00796	137,53	699,66	0,03231	
47,14	-0,00788	136,93	699,80	0,03324	
47,16	-0,00797	139,28	699,71	0,03385	
47,18	-0,00809	140,57	699,52	0,03398	
47,20	-0,00806	138,93	699,54	0,03410	
47,22	-0,00790	136,81	699,73	0,03396	
47,24	-0,00788	137,50	699,77	0,03393	
47,26	-0,00788	139,42	699,61	0,03457	
47,28	-0,00763	139,02	699,50	0,03596	
47,30	-0,00733	137,08	699,63	0,03582	
47,32	-0,00718	136,66	699,79	0,03458	
47,34	-0,00726	138,55	699,72	0,03412	
47,36	-0,00739	139,56	699,53	0,03319	
47,38	-0,00737	137,90	699,54	0,03223	
47,40	-0,00724	135,68	699,73	0,03134	
47,42	-0,00724	136,86	699,77	0,03070	
47,44	-0,00725	139,27	699,60	0,03079	
47,46	-0,00698	138,22	699,52	0,03206	
47,48	-0,00668	135,01	699,64	0,03293	
47,50	-0,00657	135,16	699,73	0,03318	
47,52	-0,00666	138,13	699,60	0,03406	
47,54	-0,00676	138,17	699,48	0,03482	
47,56	-0,00664	134,92	699,65	0,03554	
47,58	-0,00652	133,69	699,89	0,03609	
47,60	-0,00651	136,27	699,85	0,03650	
47,62	-0,00639	138,13	699,62	0,03658	
47,64	-0,00618	137,75	699,50	0,03614	
47,66	-0,00596	136,43	699,64	0,03574	
47,68	-0,00587	135,76	699,78	0,03560	
47,70	-0,00596	136,31	699,70	0,03606	
47,72	-0,00607	136,18	699,54	0,03684	
47,74	-0,00598	133,67	699,58	0,03643	
47,76	-0,00562	133,08	699,72	0,03563	
47,78	-0,00538	136,36	699,67	0,03549	
47,80	-0,00540	138,68	699,50	0,03481	
47,82	-0,00535	135,77	699,55	0,03400	
47,84	-0,00521	131,99	699,82	0,03308	
47,86	-0,00519	133,00	699,91	0,03254	
47,88	-0,00529	135,63	699,74	0,03248	
47,90	-0,00534	136,71	699,56	0,03285	
47,92	-0,00506	136,17	699,53	0,03316	
47,94	-0,00468	136,38	699,64	0,03312	
47,96	-0,00455	136,55	699,67	0,03332	
47,98	-0,00463	136,72	699,57	0,03365	
48,00	-0,00470	135,59	699,51	0,03398	
48,02	-0,00459	133,62	699,67	0,03439	
48,04	-0,00453	133,53	699,79	0,03475	
48,06	-0,00462	136,81	699,68	0,03495	
48,08	-0,00468	139,01	699,52	0,03496	
48,10	-0,00438	137,91	699,57	0,03476	
48,12	-0,00400	136,35	699,75	0,03468	
48,14	-0,00389	137,14	699,76	0,03481	
48,16	-0,00400	138,10	699,58	0,03500	
48,18	-0,00405	136,91	699,51	0,03520	
48,20	-0,00392	134,29	699,69	0,03531	
48,22	-0,00385	134,84	699,81	0,03534	
48,24	-0,00396	137,42	699,69	0,03533	
48,26	-0,00402	137,18	699,53	0,03532	
48,28	-0,00370	134,82	699,57	0,03531	
48,30	-0,00331	134,45	699,71	0,03539	
48,32	-0,00324	136,30	699,67	0,03553	
48,34	-0,00336	137,23	699,50	0,03561	
48,36	-0,00336	135,60	699,54	0,03545	
48,38	-0,00323	133,37	699,82	0,03526	
48,40	-0,00321	134,61	699,94	0,03526	
48,42	-0,00331	137,33	699,76	0,03542	
48,44	-0,00327	137,76	699,55	0,03544	
48,46	-0,00292	136,22	699,55	0,03539	
48,48	-0,00261	135,45	699,68	0,03547	
48,50	-0,00257	135,89	699,67	0,03553	
48,52	-0,00268	136,03	699,53	0,03554	
48,54	-0,00269	134,08	699,52	0,03536	
48,56	-0,00256	132,09	699,72	0,03518	
48,58	-0,00252	132,85	699,82	0,03522	
48,60	-0,00260	136,47	699,68	0,03539	
48,62	-0,00244	137,98	699,52	0,03551	
48,64	-0,00208	135,81	699,60	0,03548	
48,66	-0,00185	134,58	699,76	0,03535	
48,68	-0,00189	135,55	699,72	0,03531	
48,70	-0,00202	136,61	699,55	0,03520	
48,72	-0,00202	135,51	699,51	0,03512	
48,74	-0,00190	133,56	699,68	0,03514	
48,76	-0,00186	134,60	699,77	0,03533	
48,78	-0,00184	137,42	699,64	0,03544	
48,80	-0,00162	137,27	699,50	0,03537	
48,82	-0,00133	134,50	699,61	0,03524	
48,84	-0,00118	133,52	699,78	0,03510	
48,86	-0,00124	136,41	699,72	0,03512	
48,88	-0,00137	138,64	699,54	0,03524	
48,90	-0,00136	136,66	699,51	0,03529	
48,92	-0,00119	134,28	699,69	0,03535	
48,94	-0,00090	135,39	699,77	0,03543	
48,96	-0,00075	137,85	699,64	0,03535	
48,98	-0,00071	137,32	699,51	0,03515	
49,00	-0,00062	134,69	699,60	0,03498	
49,02	-0,00051	134,25	699,77	0,03501	
49,04	-0,00057	136,75	699,74	0,03519	
49,06	-0,00069	137,97	699,57	0,03523	
49,08	-0,00065	136,59	699,51	0,03522	
49,10	-0,00026	134,40	699,67	0,03521	
49,12	0,000	134,29	699,78	0,03516	
49,14	0,000	135,93	699,67	0,03513	
49,16	0,000	136,45	699,52	0,03510	
49,18	0,000	135,21	699,57	0,03506	
49,20	0,00016	134,20	699,74	0,03510	
49,22	0,00014	136,20	699,74	0,03524	
49,24	0,000	137,65	699,58	0,03527	
49,26	0,000	136,56	699,51	0,03511	
49,28	0,00052	135,05	699,64	0,03489	
49,30	0,00081	135,79	699,76	0,03488	
49,32	0,00078	138,28	699,66	0,03502	
49,34	0,00069	138,19	699,52	0,03511	
49,36	0,00073	135,87	699,56	0,03516	
49,38	0,00085	134,16	699,74	0,03518	
49,40	0,00086	134,97	699,76	0,03513	
49,42	0,00072	136,55	699,59	0,03502	
49,44	0,00078	136,88	699,50	0,03489	
49,46	0,00123	135,05	699,65	0,03485	
49,48	0,00150	134,60	699,80	0,03495	
49,50	0,00145	136,48	699,71	0,03512	
49,52	0,00133	137,27	699,54	0,03515	
49,54	0,00139	135,55	699,56	0,03505	
49,56	0,00149	134,83	699,69	0,03497	
49,58	0,00147	137,03	699,66	0,03493	
49,60	0,00140	138,79	699,50	0,03486	
49,62	0,00168	135,89	699,54	0,03481	
49,64	0,00203	132,05	699,79	0,03490	
49,66	0,00218	133,60	699,87	0,03509	
49,68	0,00214	137,70	699,69	0,03513	
49,70	0,00201	138,29	699,52	0,03505	
49,72	0,00207	136,59	699,58	0,03489	
49,74	0,00225	135,76	699,74	0,03480	
49,76	0,00224	136,26	699,72	0,03491	
49,78	0,00206	136,82	699,55	0,03498	
49,80	0,00227	135,53	699,51	0,03498	
49,82	0,00268	133,62	699,67	0,03496	
49,84	0,00283	134,65	699,76	0,03493	
49,86	0,00275	137,53	699,63	0,03488	
49,88	0,00272	137,36	699,52	0,03480	
49,90	0,00285	134,56	699,65	0,03475	
49,92	0,00290	133,61	699,78	0,03484	
49,94	0,00282	136,41	699,68	0,03501	
49,96	0,00293	138,07	699,50	0,03505	
49,98	0,00318	136,05	699,54	0,03494	
50,00	0,00346	133,50	699,79	0,03485	
50,02	0,00356	134,01	699,87	0,03477	
50,04	0,00341	136,04	699,70	0,03471	
50,06	0,00325	136,36	699,53	0,03474	
50,08	0,00343	135,18	699,55	0,03480	
50,10	0,00391	134,98	699,69	0,03489	
50,12	0,00413	135,74	699,70	0,03496	
50,14	0,00407	136,65	699,54	0,03494	
50,16	0,00403	135,56	699,51	0,03483	
50,18	0,00417	133,46	699,73	0,03458	
50,20	0,00422	134,03	699,84	0,03457	
50,22	0,00410	137,14	699,71	0,03475	
50,24	0,00405	138,24	699,53	0,03486	
50,26	0,00435	136,63	699,54	0,03482	
50,28	0,00476	135,54	699,72	0,03475	
50,30	0,00489	135,75	699,77	0,03465	
50,32	0,00478	136,62	699,62	0,03461	
50,34	0,00470	136,99	699,50	0,03462	
50,36	0,00478	136,50	699,59	0,03467	
50,38	0,00488	136,09	699,75	0,03482	
50,40	0,00482	137,63	699,70	0,03495	
50,42	0,00472	138,92	699,53	0,03491	
50,44	0,00499	137,09	699,52	0,03474	
50,46	0,00540	135,07	699,72	0,03460	
50,48	0,00553	136,51	699,78	0,03456	
50,50	0,00540	139,29	699,62	0,03469	
50,52	0,00535	139,34	699,50	0,03477	
50,54	0,00546	137,06	699,61	0,03473	
50,56	0,00555	136,49	699,72	0,03472	
50,58	0,00546	138,47	699,61	0,03463	
50,60	0,00549	138,08	699,49	0,03447	
50,62	0,00588	134,28	699,62	0,03433	
50,64	0,00619	133,03	699,82	0,03440	
50,66	0,00622	136,04	699,78	0,03457	
50,68	0,00607	139,22	699,58	0,03469	
50,70	0,00603	138,77	699,52	0,03468	
50,72	0,00615	136,18	699,67	0,03459	
50,74	0,00622	136,10	699,73	0,03447	
50,76	0,00613	138,05	699,59	0,03442	
50,78	0,00632	137,47	699,49	0,03442	
50,80	0,00671	134,58	699,64	0,03445	
50,82	0,00688	133,57	699,78	0,03454	
50,84	0,00679	136,39	699,69	0,03466	
50,86	0,00668	138,01	699,52	0,03464	
50,88	0,00680	135,86	699,58	0,03446	
50,90	0,00719	134,09	699,74	0,03438	
50,92	0,00743	136,36	699,71	0,03448	
50,94	0,00743	138,52	699,55	0,03454	
50,96	0,00742	136,74	699,50	0,03451	
50,98	0,00754	134,38	699,67	0,03447	
51,00	0,00761	135,32	699,79	0,03452	
51,02	0,00751	138,35	699,68	0,03452	
51,04	0,00742	139,55	699,52	0,03438	
51,06	0,00769	137,93	699,57	0,03421	
51,08	0,00809	136,85	699,74	0,03419	
51,10	0,00818	138,24	699,73	0,03437	
51,12	0,00807	139,83	699,56	0,03448	
51,14	0,00805	139,05	699,51	0,03441	
51,16	0,00818	137,14	699,66	0,03437	
51,18	0,00825	137,42	699,75	0,03439	
51,20	0,00813	139,33	699,63	0,03437	
51,22	0,00817	139,78	699,49	0,03428	
51,24	0,00856	137,79	699,60	0,03419	
51,26	0,00887	136,29	699,78	0,03425	
51,28	0,00889	137,53	699,75	0,03446	
51,30	0,00875	139,50	699,57	0,03448	
51,32	0,00873	138,93	699,52	0,03434	
51,34	0,00885	137,04	699,69	0,03419	
51,36	0,00890	137,33	699,78	0,03416	
51,38	0,00882	139,32	699,66	0,03428	
51,40	0,00899	139,86	699,51	0,03443	
51,42	0,00936	137,90	699,59	0,03445	
51,44	0,00959	136,97	699,75	0,03444	
51,46	0,00956	139,65	699,71	0,03442	
51,48	0,00908	141,36	699,54	0,03434	
51,50	0,00612	139,54	699,52	0,03419	
51,52	0,00294	137,04	699,70	0,03409	
51,54	0,00162	137,82	699,77	0,03412	
51,56	0,00133	140,14	699,63	0,03430	
51,58	0,00134	140,14	699,51	0,03437	
51,60	0,00175	137,93	699,63	0,03431	
51,62	0,00217	137,68	699,77	0,03424	
51,64	0,00215	140,43	699,70	0,03419	
51,66	0,00201	142,28	699,54	0,03413	
51,68	0,00207	140,64	699,53	0,03406	
51,70	0,00219	139,17	699,69	0,03409	
51,72	0,00213	140,49	699,73	0,03417	
51,74	0,00208	144,14	699,59	0,03405	
51,76	0,00249	148,84	699,47	0,03353	
51,78	0,00360	156,08	699,64	0,03277	
51,80	0,00526	170,95	699,89	0,03196	
51,82	0,00750	196,69	699,87	0,03109	
51,84	0,01049	231,11	699,65	0,03014	
51,86	0,01436	271,49	699,52	0,02902	
51,88	0,01915	319,67	699,61	0,02747	
51,90	0,02459	375,86	699,71	0,02565	
51,92	0,03063	438,80	699,62	0,02350	
51,94	0,03747	507,21	699,48	0,02082	
51,96	0,04537	578,90	699,59	0,01753	
51,98	0,05424	654,36	699,83	0,01356	
52,00	0,06375	734,17	699,85	0,00874	
52,02	0,07384	813,17	699,67	0,00268	
52,04	0,08486	884,49	699,52	-0,00471	
52,06	0,09689	946,34	699,60	-0,01327	
52,08	0,1096	1000,2	699,79	-0,02272	
52,10	0,1230	1046,1	699,80	-0,03311	
52,12	0,1372	1083,9	699,59	-0,04438	
52,14	0,1522	1113,7	699,46	-0,05645	
52,16	0,1682	1136,7	699,56	-0,06909	
52,18	0,1848	1156,0	699,58	-0,08234	
52,20	0,2021	1172,4	699,40	-0,09640	
52,22	0,2203	1181,8	699,46	-0,1112	
52,24	0,2395	1186,5	699,77	-0,1265	
52,26	0,2593	1195,9	699,64	-0,1424	
52,28	0,2799	1208,7	699,11	-0,1590	
52,30	0,3015	1215,1	698,87	-0,1763	
52,32	0,3237	1217,3	699,12	-0,1941	
52,34	0,3467	1220,0	699,68	-0,2125	
52,36	0,3707	1219,9	700,35	-0,2317	
52,38	0,3954	1215,9	700,75	-0,2516	
52,40	0,4208	1217,9	700,51	-0,2724	
52,42	0,4470	1226,5	699,89	-0,2940	
52,44	0,4741	1233,7	699,54	-0,3165	
52,46	0,5021	1234,9	699,78	-0,3393	
52,48	0,5308	1236,1	700,01	-0,3628	
52,50	0,5601	1239,4	699,87	-0,3872	
52,52	0,5902	1241,7	699,59	-0,4124	
52,54	0,6213	1242,7	699,54	-0,4383	
52,56	0,6534	1245,3	699,70	-0,4644	
52,58	0,6860	1250,3	699,76	-0,4912	
52,60	0,7192	1255,3	699,63	-0,5187	
52,62	0,7534	1258,9	699,50	-0,5471	
52,64	0,7886	1262,1	699,57	-0,5762	
52,66	0,8246	1265,7	699,75	-0,6058	
52,68	0,8612	1271,1	699,78	-0,6359	
52,70	0,8985	1277,0	699,64	-0,6665	
52,72	0,9367	1282,0	699,54	-0,6975	
52,74	0,9757	1285,7	699,58	-0,7285	
52,76	1,015	1289,3	699,68	-0,7596	
52,78	1,055	1292,9	699,66	-0,7908	
52,80	1,095	1295,0	699,55	-0,8221	
52,82	1,135	1296,0	699,52	-0,8537	
52,84	1,175	1297,1	699,66	-0,8852	
52,86	1,215	1299,6	699,78	-0,9165	
52,88	1,255	1303,1	699,71	-0,9479	
52,90	1,295	1305,6	699,58	-0,9795	
52,92	1,335	1306,8	699,54	-1,011	
52,94	1,375	1307,5	699,62	-1,043	
52,96	1,415	1307,9	699,67	-1,075	
52,98	1,455	1308,3	699,62	-1,107	
53,00	1,495	1308,9	699,54	-1,139	
53,02	1,535	1309,9	699,57	-1,170	
53,04	1,575	1311,4	699,70	-1,202	
53,06	1,615	1314,1	699,73	-1,234	
53,08	1,655	1317,2	699,63	-1,266	
53,10	1,695	1318,7	699,54	-1,299	
53,12	1,735	1318,9	699,55	-1,331	
53,14	1,775	1318,3	699,67	-1,363	
53,16	1,815	1318,1	699,72	-1,395	
53,18	1,855	1319,1	699,65	-1,428	
53,20	1,895	1320,9	699,56	-1,460	
53,22	1,935	1321,9	699,55	-1,493	
53,24	1,975	1322,4	699,63	-1,525	
53,26	2,015	1322,5	699,68	-1,558	
53,28	2,055	1322,5	699,60	-1,590	
53,30	2,095	1322,3	699,54	-1,623	
53,32	2,135	1322,0	699,61	-1,656	
53,34	2,175	1322,9	699,70	-1,688	
53,36	2,215	1325,8	699,67	-1,721	
53,38	2,255	1327,7	699,58	-1,754	
53,40	2,295	1326,8	699,56	-1,787	
53,42	2,335	1325,7	699,61	-1,820	
53,44	2,375	1325,9	699,63	-1,853	
53,46	2,415	1325,8	699,62	-1,886	
53,48	2,455	1325,6	699,57	-1,919	
53,50	2,495	1325,4	699,57	-1,953	
53,52	2,535	1325,1	699,65	-1,986	
53,54	2,575	1325,1	699,70	-2,019	
53,56	2,615	1326,6	699,63	-2,053	
53,58	2,655	1328,2	699,54	-2,087	
53,60	2,695	1327,4	699,58	-2,120	
53,62	2,735	1325,8	699,69	-2,154	
53,64	2,775	1326,3	699,70	-2,187	
53,66	2,815	1327,5	699,61	-2,221	
53,68	2,855	1326,9	699,55	-2,255	
53,70	2,895	1325,7	699,59	-2,289	
53,72	2,935	1325,2	699,64	-2,323	
53,74	2,975	1324,6	699,63	-2,357	
53,76	3,015	1323,2	699,58	-2,391	
53,78	3,055	1321,6	699,55	-2,425	
53,80	3,095	1321,4	699,59	-2,459	
53,82	3,135	1320,9	699,74	-2,493	
53,84	3,175	1320,2	699,79	-2,527	
53,86	3,215	1321,2	699,68	-2,562	
53,88	3,255	1321,6	699,59	-2,596	
53,90	3,295	1320,9	699,59	-2,631	
53,92	3,335	1320,3	699,61	-2,665	
53,94	3,375	1318,8	699,59	-2,700	
53,96	3,415	1316,3	699,56	-2,734	
53,98	3,455	1313,5	699,59	-2,769	
54,00	3,495	1311,9	699,68	-2,804	
54,02	3,535	1312,3	699,66	-2,839	
54,04	3,575	1314,0	699,57	-2,874	
54,06	3,615	1313,7	699,57	-2,909	
54,08	3,655	1311,2	699,67	-2,944	
54,10	3,695	1310,5	699,68	-2,979	
54,12	3,735	1311,4	699,58	-3,014	
54,14	3,775	1309,6	699,56	-3,049	
54,16	3,815	1306,5	699,63	-3,085	
54,18	3,855	1305,5	699,64	-3,120	
54,20	3,895	1305,9	699,56	-3,155	
54,22	3,935	1303,9	699,54	-3,191	
54,24	3,975	1300,3	699,69	-3,227	
54,26	4,015	1299,0	699,74	-3,262	
54,28	4,055	1300,1	699,63	-3,298	
54,30	4,095	1299,3	699,55	-3,334	
54,32	4,135	1296,2	699,62	-3,369	
54,34	4,175	1294,3	699,68	-3,405	
54,36	4,215	1294,1	699,61	-3,441	
54,38	4,255	1292,6	699,53	-3,477	
54,40	4,295	1288,6	699,62	-3,513	
54,42	4,335	1285,7	699,74	-3,550	
54,44	4,375	1286,1	699,68	-3,586	
54,46	4,415	1285,9	699,58	-3,622	
54,48	4,455	1282,2	699,62	-3,658	
54,50	4,495	1279,5	699,67	-3,695	
54,52	4,535	1280,3	699,60	-3,731	
54,54	4,575	1279,1	699,53	-3,768	
54,56	4,615	1273,4	699,65	-3,805	
54,58	4,655	1269,6	699,77	-3,841	
54,60	4,695	1270,0	699,70	-3,878	
54,62	4,735	1270,0	699,57	-3,915	
54,64	4,775	1266,4	699,56	-3,952	
54,66	4,815	1262,8	699,61	-3,988	
54,68	4,855	1260,9	699,61	-4,025	
54,70	4,895	1258,9	699,54	-4,063	
54,72	4,935	1254,7	699,55	-4,100	
54,74	4,975	1250,1	699,64	-4,137	
54,76	5,015	1249,5	699,65	-4,174	
54,78	5,055	1248,7	699,66	-4,211	
54,80	5,095	1246,6	699,61	-4,248	
54,82	5,135	1244,9	699,52	-4,286	
54,84	5,175	1242,1	699,58	-4,323	
54,86	5,215	1237,4	699,74	-4,361	
54,88	5,255	1234,5	699,73	-4,398	
54,90	5,295	1233,9	699,59	-4,436	
54,92	5,335	1230,8	699,61	-4,473	
54,94	5,375	1226,6	699,69	-4,511	
54,96	5,415	1224,8	699,62	-4,548	
54,98	5,455	1222,7	699,54	-4,586	
55,00	5,495	1216,5	699,65	-4,624	
55,02	5,535	1210,8	699,77	-4,662	
55,04	5,575	1210,0	699,67	-4,700	
55,06	5,615	1208,6	699,58	-4,738	
55,08	5,655	1202,9	699,65	-4,776	
55,10	5,695	1199,3	699,67	-4,814	
55,12	5,735	1199,3	699,57	-4,852	
55,14	5,775	1195,8	699,56	-4,890	
55,16	5,815	1189,0	699,71	-4,928	
55,18	5,855	1185,0	699,75	-4,966	
55,20	5,895	1183,9	699,61	-5,004	
55,22	5,935	1180,0	699,60	-5,043	
55,24	5,975	1174,0	699,71	-5,081	
55,26	6,015	1171,1	699,66	-5,119	
55,28	6,055	1168,9	699,57	-5,158	
55,30	6,095	1162,8	699,64	-5,196	
55,32	6,135	1156,8	699,67	-5,234	
55,34	6,175	1155,0	699,58	-5,273	
55,36	6,215	1150,8	699,57	-5,311	
55,38	6,255	1143,1	699,67	-5,350	
55,40	6,295	1138,9	699,64	-5,388	
55,42	6,335	1137,6	699,54	-5,427	
55,44	6,375	1131,9	699,64	-5,466	
55,46	6,415	1125,0	699,75	-5,505	
55,48	6,455	1122,6	699,66	-5,543	
55,50	6,495	1119,2	699,58	-5,582	
55,52	6,535	1111,9	699,65	-5,621	
55,54	6,575	1105,8	699,67	-5,659	
55,56	6,615	1103,3	699,55	-5,698	
55,58	6,655	1097,8	699,59	-5,737	
55,60	6,695	1088,7	699,77	-5,775	
55,62	6,735	1083,8	699,77	-5,814	
55,64	6,775	1081,6	699,62	-5,854	
55,66	6,815	1075,0	699,67	-5,893	
55,68	6,855	1067,2	699,77	-5,932	
55,70	6,895	1063,4	699,67	-5,971	
55,72	6,935	1058,4	699,63	-6,010	
55,74	6,975	1049,3	699,72	-6,048	
55,76	7,015	1042,7	699,67	-6,087	
55,78	7,055	1039,2	699,57	-6,127	
55,80	7,095	1031,9	699,65	-6,166	
55,82	7,135	1023,1	699,71	-6,205	
55,84	7,175	1019,1	699,61	-6,244	
55,86	7,215	1013,6	699,61	-6,283	
55,88	7,255	1004,2	699,73	-6,322	
55,90	7,295	998,03	699,69	-6,361	
55,92	7,335	993,94	699,60	-6,400	
55,94	7,375	984,76	699,72	-6,440	
55,96	7,415	975,50	699,76	-6,479	
55,98	7,455	970,93	699,62	-6,518	
56,00	7,495	964,22	699,66	-6,558	
56,02	7,535	953,23	699,81	-6,597	
56,04	7,575	945,96	699,74	-6,636	
56,06	7,615	941,03	699,61	-6,676	
56,08	7,655	930,57	699,80	-6,715	
56,10	7,695	919,51	699,94	-6,754	
56,12	7,735	913,44	699,79	-6,794	
56,14	7,775	907,39	699,64	-6,833	
56,16	7,815	895,50	699,81	-6,873	
56,18	7,855	884,96	699,89	-6,912	
56,20	7,895	878,33	699,71	-6,952	
56,22	7,935	869,37	699,66	-6,991	
56,24	7,975	856,49	699,83	-7,031	
56,26	8,015	846,69	699,82	-7,070	
56,28	8,055	839,96	699,65	-7,109	
56,30	8,095	828,80	699,73	-7,149	
56,32	8,135	814,95	699,84	-7,189	
56,34	8,175	805,86	699,71	-7,228	
56,36	8,215	797,09	699,63	-7,268	
56,38	8,255	783,87	699,75	-7,308	
56,40	8,295	771,46	699,74	-7,347	
56,42	8,335	762,33	699,61	-7,387	
56,44	8,375	749,19	699,73	-7,427	
56,46	8,415	733,11	699,89	-7,467	
56,48	8,455	721,03	699,77	-7,506	
56,50	8,495	709,07	699,66	-7,546	
56,52	8,535	692,07	699,80	-7,586	
56,54	8,575	675,33	699,83	-7,626	
56,56	8,615	661,19	699,65	-7,667	
56,58	8,655	643,51	699,63	-7,707	
56,60	8,695	621,77	699,74	-7,747	
56,62	8,735	603,20	699,69	-7,788	
56,64	8,775	584,37	699,62	-7,829	
56,66	8,815	559,21	699,70	-7,870	
56,68	8,855	531,97	699,70	-7,912	
56,70	8,895	505,59	699,59	-7,954	
56,72	8,935	472,44	699,64	-7,997	
56,74	8,975	430,76	699,70	-8,041	
56,76	9,015	386,25	699,61	-8,083	
56,78	9,055	337,82	699,59	-8,125	
56,80	9,095	284,60	699,74	-8,167	
56,82	9,135	235,67	699,73	-8,208	
56,84	9,175	196,69	699,65	-8,249	
56,86	9,215	161,03	699,80	-8,290	
56,88	9,255	128,16	699,85	-8,325	
56,90	9,295	103,46	699,71	-8,350	
56,92	9,334	81,75	699,99	-8,363	
56,94	9,368	58,07	700,38	-8,368	
56,96	9,393	39,48	700,30	-8,370	
56,98	9,408	28,67	699,88	-8,371	
57,00	9,415	20,30	699,73	-8,373	
57,02	9,418	13,29	699,58	-8,374	
57,04	9,419	10,78	699,21	-8,374	
57,06	9,420	9,243	698,84	-8,375	
57,08	9,420	6,475	698,48	-8,375	
57,10	9,421	3,655	698,07	-8,375	
57,12	9,421	2,326	697,65	-8,376	
57,14	9,421	1,942	697,25	-8,376	
57,16	9,421	0,7906	696,86	-8,376	
57,18	9,421	-0,6518	696,47	-8,377	
57,20	9,421	-1,300	696,07	-8,377	
57,22	9,421	-1,438	695,67	-8,377	
57,24	9,421	-1,420	695,28	-8,378	
57,26	9,421	-1,345	694,90	-8,378	
57,28	9,421	-1,288	694,52	-8,378	
57,30	9,421	-1,242	694,15	-8,379	
57,32	9,421	-1,286	693,78	-8,379	
57,34	9,421	-1,260	693,40	-8,379	
57,36	9,421	-1,154	693,03	-8,380	
57,38	9,421	-1,128	692,65	-8,380	
57,40	9,421	-1,170	692,26	-8,380	
57,42	9,421	-1,172	691,89	-8,381	
57,44	9,421	-1,159	691,54	-8,381	
57,46	9,421	-1,171	691,17	-8,381	
57,48	9,421	-1,123	690,81	-8,381	
57,50	9,421	-1,071	690,44	-8,382	
57,52	9,421	-1,079	690,06	-8,382	
57,54	9,421	-1,091	689,71	-8,383	
57,56	9,421	-1,121	689,37	-8,383	
57,58	9,421	-1,179	689,03	-8,383	
57,60	9,421	-1,149	688,67	-8,383	
57,62	9,421	-1,119	688,31	-8,384	
57,64	9,421	-1,230	687,95	-8,384	
57,66	9,421	-1,320	687,60	-8,384	
57,68	9,421	-1,198	687,24	-8,385	
57,70	9,421	-1,155	686,87	-8,385	
57,72	9,421	-1,257	686,51	-8,385	
57,74	9,421	-1,360	686,15	-8,385	
57,76	9,421	-1,360	685,79	-8,386	
57,78	9,421	-1,332	685,44	-8,386	
57,80	9,421	-1,336	685,09	-8,386	
57,82	9,421	-1,338	684,75	-8,387	
57,84	9,421	-1,439	684,40	-8,387	
57,86	9,421	-2,586	684,05	-8,387	
57,88	9,421	-3,986	683,69	-8,387	
57,90	9,421	-4,569	683,33	-8,388	
57,92	9,421	-4,650	682,97	-8,388	
57,94	9,421	-4,668	682,60	-8,388	
57,96	9,421	-4,712	682,21	-8,388	
57,98	9,421	-4,747	681,82	-8,389	
58,00	9,421	-4,728	681,46	-8,389	
58,02	9,421	-4,657	681,10	-8,389	
58,04	9,421	-4,624	680,73	-8,389	
58,06	9,421	-4,639	680,35	-8,390	
58,08	9,421	-4,666	679,99	-8,390	
58,10	9,421	-4,673	679,61	-8,390	
58,12	9,421	-4,721	679,23	-8,391	
58,14	9,421	-4,778	678,86	-8,391	
58,16	9,421	-4,805	678,49	-8,391	
58,18	9,421	-4,809	678,12	-8,391	
58,20	9,421	-4,787	677,74	-8,392	
58,22	9,421	-4,777	677,36	-8,392	
58,24	9,421	-4,748	676,98	-8,392	
58,26	9,421	-4,695	676,60	-8,392	
58,28	9,421	-4,739	676,20	-8,393	
58,30	9,421	-4,765	675,80	-8,393	
58,32	9,421	-4,766	675,40	-8,393	
58,34	9,421	-4,750	675,01	-8,393	
58,36	9,421	-4,679	674,63	-8,394	
58,38	9,421	-4,587	674,23	-8,394	
58,40	9,421	-4,571	673,83	-8,394	
58,42	9,421	-4,648	673,43	-8,394	
58,44	9,421	-4,692	673,03	-8,395	
58,46	9,421	-4,722	672,63	-8,395	
58,48	9,421	-4,782	672,22	-8,395	
58,50	9,421	-4,753	671,83	-8,395	
58,52	9,421	-4,737	671,42	-8,396	
58,54	9,421	-4,789	671,01	-8,396	
58,56	9,421	-4,773	670,60	-8,396	
58,58	9,421	-4,813	670,20	-8,396	
58,60	9,421	-4,839	669,79	-8,397	
58,62	9,421	-4,778	669,38	-8,397	
58,64	9,421	-4,799	668,97	-8,397	
58,66	9,421	-4,845	668,56	-8,397	
58,68	9,421	-4,829	668,14	-8,397	
58,70	9,421	-4,775	667,72	-8,398	
58,72	9,421	-4,752	667,31	-8,398	
58,74	9,421	-4,744	666,90	-8,398	
58,76	9,421	-4,769	666,48	-8,398	
58,78	9,421	-4,791	666,06	-8,399	
58,80	9,421	-4,757	665,66	-8,399	
58,82	9,421	-4,717	665,25	-8,399	
58,84	9,421	-4,665	664,83	-8,399	
58,86	9,421	-4,648	664,40	-8,400	
58,88	9,421	-4,641	663,97	-8,400	
58,90	9,421	-4,655	663,54	-8,400	
58,92	9,421	-4,694	663,12	-8,400	
58,94	9,421	-4,742	662,69	-8,401	
58,96	9,421	-4,691	662,27	-8,401	
58,98	9,421	-4,581	661,85	-8,401	
59,00	9,421	-4,608	661,43	-8,401	
59,02	9,421	-4,680	661,02	-8,402	
59,04	9,421	-4,729	660,60	-8,402	
59,06	9,421	-4,732	660,18	-8,402	
59,08	9,421	-4,756	659,76	-8,402	
59,10	9,421	-4,774	659,34	-8,403	
59,12	9,421	-4,792	658,91	-8,403	
59,14	9,421	-4,833	658,49	-8,403	
59,16	9,421	-4,766	658,06	-8,403	
59,18	9,421	-4,703	657,62	-8,403	
59,20	9,421	-4,738	657,18	-8,404	
59,22	9,421	-4,767	656,75	-8,404	
59,24	9,421	-4,782	656,32	-8,404	
59,26	9,421	-4,819	655,89	-8,404	
59,28	9,421	-4,805	655,46	-8,405	
59,30	9,421	-4,782	655,04	-8,405	
59,32	9,421	-4,781	654,62	-8,405	
59,34	9,421	-4,768	654,19	-8,405	
59,36	9,421	-4,783	653,75	-8,406	
59,38	9,421	-4,784	653,33	-8,406	
59,40	9,421	-4,754	652,92	-8,406	
59,42	9,421	-4,746	652,49	-8,406	
59,44	9,421	-4,797	652,04	-8,406	
59,46	9,421	-4,844	651,59	-8,407	
59,48	9,421	-4,846	651,15	-8,407	
59,50	9,421	-4,847	650,71	-8,407	
59,52	9,421	-4,852	650,27	-8,407	
59,54	9,421	-4,862	649,84	-8,407	
59,56	9,421	-4,809	649,40	-8,408	
59,58	9,421	-4,776	648,96	-8,408	
59,60	9,421	-4,785	648,52	-8,408	
59,62	9,421	-4,805	648,08	-8,408	
59,64	9,421	-4,831	647,65	-8,409	
59,66	9,421	-4,765	647,23	-8,409	
59,68	9,421	-4,736	646,80	-8,409	
59,70	9,421	-4,788	646,37	-8,409	
59,72	9,421	-4,818	645,93	-8,410	
59,74	9,421	-4,768	645,50	-8,410	
59,76	9,421	-4,703	645,06	-8,410	
59,78	9,421	-4,714	644,62	-8,410	
59,80	9,421	-4,688	644,18	-8,411	
59,82	9,421	-4,653	643,74	-8,411	
59,84	9,421	-4,716	643,31	-8,411	
59,86	9,421	-4,860	642,87	-8,411	
59,88	9,421	-4,851	642,46	-8,411	
59,90	9,421	-4,786	642,04	-8,412	
59,92	9,421	-4,757	641,61	-8,412	
59,94	9,421	-4,756	641,16	-8,412	
59,96	9,421	-4,727	640,72	-8,412	
59,98	9,421	-4,626	640,30	-8,412	
60,00	9,421	-4,561	639,86	-8,413	
60,02	9,421	-4,625	639,43	-8,413	
60,04	9,421	-4,643	638,99	-8,413	
60,06	9,421	-4,668	638,57	-8,413	
60,08	9,421	-4,834	638,13	-8,414	
60,10	9,421	-4,874	637,67	-8,414	
60,12	9,421	-4,810	637,22	-8,414	
60,14	9,421	-4,828	636,78	-8,414	
60,16	9,421	-4,841	636,33	-8,415	
60,18	9,421	-4,813	635,89	-8,415	
60,20	9,421	-4,790	635,45	-8,415	
60,22	9,421	-4,791	635,01	-8,415	
60,24	9,421	-4,825	634,57	-8,415	
60,26	9,421	-4,835	634,13	-8,416	
60,28	9,421	-4,822	633,69	-8,416	
60,30	9,421	-4,733	633,26	-8,416	
60,32	9,421	-4,658	632,83	-8,416	
60,34	9,421	-4,709	632,39	-8,417	
60,36	9,421	-4,754	631,95	-8,417	
60,38	9,421	-4,747	631,51	-8,417	
60,40	9,421	-4,728	631,09	-8,417	
60,42	9,421	-4,695	630,67	-8,417	
60,44	9,421	-4,693	630,23	-8,418	
60,46	9,421	-4,743	629,80	-8,418	
60,48	9,421	-4,734	629,37	-8,418	
60,50	9,421	-4,763	628,94	-8,418	
60,52	9,421	-4,813	628,50	-8,418	
60,54	9,421	-4,776	628,07	-8,419	
60,56	9,421	-4,787	627,64	-8,419	
60,58	9,421	-4,763	627,20	-8,419	
60,60	9,421	-4,668	626,77	-8,419	
60,62	9,421	-4,670	626,34	-8,419	
60,64	9,421	-4,782	625,91	-8,420	
60,66	9,421	-4,809	625,49	-8,420	
60,68	9,421	-4,776	625,07	-8,420	
60,70	9,421	-4,768	624,65	-8,420	
60,72	9,421	-4,843	624,22	-8,421	
60,74	9,421	-4,974	623,80	-8,421	
60,76	9,421	-5,039	623,38	-8,421	
60,78	9,421	-4,968	622,96	-8,421	
60,80	9,421	-4,821	622,52	-8,421	
60,82	9,421	-4,705	622,08	-8,422	
60,84	9,421	-4,651	621,65	-8,422	
60,86	9,421	-4,715	621,23	-8,422	
60,88	9,421	-4,783	620,81	-8,422	
60,90	9,421	-4,774	620,38	-8,422	
60,92	9,421	-4,704	619,95	-8,423	
60,94	9,421	-4,648	619,53	-8,423	
60,96	9,421	-4,685	619,10	-8,423	
60,98	9,421	-4,760	618,68	-8,423	
61,00	9,421	-4,810	618,26	-8,423	
61,02	9,421	-4,832	617,84	-8,424	
61,04	9,421	-4,833	617,41	-8,424	
61,06	9,421	-4,860	616,97	-8,424	
61,08	9,421	-4,839	616,55	-8,425	
61,10	9,421	-4,738	616,13	-8,425	
61,12	9,421	-4,654	615,71	-8,425	
61,14	9,421	-4,657	615,30	-8,425	
61,16	9,421	-4,736	614,90	-8,425	
61,18	9,421	-4,792	614,48	-8,425	
61,20	9,421	-4,747	614,05	-8,426	
61,22	9,421	-4,714	613,63	-8,426	
61,24	9,421	-4,718	613,22	-8,426	
61,26	9,421	-4,729	612,80	-8,426	
61,28	9,421	-4,762	612,39	-8,426	
61,30	9,421	-4,760	611,97	-8,427	
61,32	9,421	-4,731	611,56	-8,427	
61,34	9,421	-4,734	611,16	-8,427	
61,36	9,421	-4,779	610,74	-8,427	
61,38	9,421	-4,773	610,33	-8,428	
61,40	9,421	-4,737	609,93	-8,428	
61,42	9,421	-4,684	609,51	-8,428	
61,44	9,421	-4,707	609,09	-8,428	
61,46	9,421	-4,779	608,68	-8,428	
61,48	9,421	-4,800	608,26	-8,429	
61,50	9,421	-4,762	607,84	-8,429	
61,52	9,421	-4,775	607,41	-8,429	
61,54	9,421	-4,789	607,00	-8,429	
61,56	9,421	-4,800	606,59	-8,429	
61,58	9,421	-4,795	606,18	-8,430	
61,60	9,421	-4,790	605,79	-8,430	
61,62	9,421	-4,793	605,37	-8,430	
61,64	9,421	-4,840	604,94	-8,430	
61,66	9,421	-4,806	604,53	-8,431	
61,68	9,421	-4,733	604,11	-8,431	
61,70	9,421	-4,760	603,69	-8,431	
61,72	9,421	-4,823	603,28	-8,431	
61,74	9,421	-4,751	602,88	-8,431	
61,76	9,421	-4,772	602,46	-8,432	
61,78	9,421	-4,800	602,06	-8,432	
61,80	9,421	-4,752	601,65	-8,432	
61,82	9,421	-4,752	601,24	-8,432	
61,84	9,421	-4,742	600,82	-8,432	
61,86	9,421	-4,733	600,41	-8,433	
61,88	9,421	-4,760	600,00	-8,433	
61,90	9,421	-4,765	599,58	-8,433	
61,92	9,421	-4,768	599,18	-8,433	
61,94	9,421	-4,790	598,79	-8,433	
61,96	9,421	-4,776	598,39	-8,434	
61,98	9,421	-4,762	597,98	-8,434	
62,00	9,421	-4,765	597,58	-8,434	
62,02	9,421	-4,750	597,18	-8,434	
62,04	9,421	-4,697	596,78	-8,435	
62,06	9,421	-4,683	596,38	-8,435	
62,08	9,421	-4,680	595,99	-8,435	
62,10	9,421	-4,636	595,58	-8,435	
62,12	9,421	-4,623	595,16	-8,435	
62,14	9,421	-4,625	594,74	-8,436	
62,16	9,421	-4,598	594,33	-8,436	
62,18	9,421	-4,625	593,93	-8,436	
62,20	9,421	-4,639	593,53	-8,436	
62,22	9,421	-4,611	593,13	-8,436	
62,24	9,421	-4,681	592,72	-8,437	
62,26	9,421	-4,771	592,31	-8,437	
62,28	9,421	-4,720	591,90	-8,437	
62,30	9,421	-4,647	591,49	-8,437	
62,32	9,421	-4,638	591,07	-8,438	
62,34	9,421	-4,638	590,66	-8,438	
62,36	9,421	-4,633	590,24	-8,438	
62,38	9,421	-4,650	589,82	-8,438	
62,40	9,421	-4,652	589,40	-8,438	
62,42	9,421	-4,690	588,97	-8,439	
62,44	9,421	-4,677	588,55	-8,439	
62,46	9,421	-4,625	588,14	-8,439	
62,48	9,421	-4,638	587,74	-8,439	
62,50	9,421	-4,661	587,32	-8,439	
62,52	9,421	-4,640	586,90	-8,440	
62,54	9,421	-4,645	586,48	-8,440	
62,56	9,421	-4,694	586,07	-8,440	
62,58	9,421	-4,724	585,66	-8,440	
62,60	9,421	-4,771	585,25	-8,441	
62,62	9,421	-4,774	584,84	-8,441	
62,64	9,421	-4,708	584,41	-8,441	
62,66	9,421	-4,713	583,98	-8,441	
62,68	9,421	-4,728	583,56	-8,441	
62,70	9,421	-4,694	583,16	-8,442	
62,72	9,421	-4,688	582,75	-8,442	
62,74	9,421	-4,717	582,33	-8,442	
62,76	9,421	-4,774	581,91	-8,442	
62,78	9,421	-4,767	581,49	-8,443	
62,80	9,421	-4,733	581,07	-8,443	
62,82	9,421	-4,714	580,67	-8,443	
62,84	9,421	-4,736	580,27	-8,443	
62,86	9,421	-4,732	579,87	-8,443	
62,88	9,421	-4,682	579,46	-8,444	
62,90	9,421	-4,706	579,05	-8,444	
62,92	9,421	-4,723	578,64	-8,444	
62,94	9,421	-4,720	578,22	-8,444	
62,96	9,421	-4,737	577,79	-8,444	
62,98	9,421	-4,753	577,39	-8,445	
63,00	9,421	-4,701	577,00	-8,445	
63,02	9,421	-4,666	576,59	-8,445	
63,04	9,421	-4,661	576,18	-8,445	
63,06	9,421	-4,636	575,77	-8,446	
63,08	9,421	-4,644	575,36	-8,446	
63,10	9,421	-4,677	574,96	-8,446	
63,12	9,421	-4,683	574,58	-8,446	
63,14	9,421	-4,670	574,19	-8,446	
63,16	9,421	-4,680	573,80	-8,446	
63,18	9,421	-4,714	573,40	-8,447	
63,20	9,421	-4,713	572,98	-8,447	
63,22	9,421	-4,715	572,57	-8,447	
63,24	9,421	-4,696	572,19	-8,447	
63,26	9,421	-4,646	571,81	-8,448	
63,28	9,421	-4,647	571,43	-8,448	
63,30	9,421	-4,686	571,03	-8,448	
63,32	9,421	-4,675	570,62	-8,448	
63,34	9,421	-4,675	570,21	-8,449	
63,36	9,421	-4,672	569,81	-8,449	
63,38	9,421	-4,678	569,42	-8,449	
63,40	9,421	-4,638	569,01	-8,449	
63,42	9,421	-4,511	568,61	-8,449	
63,44	9,421	-4,504	568,23	-8,450	
63,46	9,421	-4,566	567,84	-8,450	
63,48	9,421	-4,623	567,45	-8,450	
63,50	9,421	-4,644	567,05	-8,450	
63,52	9,421	-4,640	566,67	-8,450	
63,54	9,421	-4,654	566,28	-8,451	
63,56	9,421	-4,648	565,89	-8,451	
63,58	9,421	-4,658	565,50	-8,451	
63,60	9,421	-4,648	565,07	-8,451	
63,62	9,421	-4,678	564,63	-8,452	
63,64	9,421	-4,659	564,25	-8,452	
63,66	9,421	-4,648	563,90	-8,452	
63,68	9,421	-4,683	563,52	-8,452	
63,70	9,421	-4,745	563,13	-8,452	
63,72	9,421	-4,813	562,74	-8,453	
63,74	9,421	-4,806	562,35	-8,453	
63,76	9,421	-4,751	561,96	-8,453	
63,78	9,421	-4,715	561,56	-8,453	
63,80	9,421	-4,708	561,16	-8,453	
63,82	9,421	-4,652	560,75	-8,454	
63,84	9,421	-4,614	560,36	-8,454	
63,86	9,421	-4,659	559,98	-8,454	
63,88	9,421	-4,699	559,60	-8,455	
63,90	9,421	-4,740	559,19	-8,455	
63,92	9,421	-4,720	558,80	-8,455	
63,94	9,421	-4,628	558,42	-8,455	
63,96	9,421	-4,572	558,03	-8,455	
63,98	9,421	-4,692	557,64	-8,456	
64,00	9,421	-4,816	557,27	-8,456	
64,02	9,421	-4,820	556,90	-8,456	
64,04	9,421	-4,802	556,52	-8,456	
64,06	9,421	-4,699	556,13	-8,456	
64,08	9,421	-4,664	555,78	-8,457	
64,10	9,421	-4,705	555,43	-8,457	
64,12	9,421	-4,724	555,08	-8,457	
64,14	9,421	-4,632	554,72	-8,457	
64,16	9,421	-4,573	554,34	-8,458	
64,18	9,421	-4,572	553,96	-8,458	
64,20	9,421	-4,623	553,59	-8,458	
64,22	9,421	-4,736	553,21	-8,458	
64,24	9,421	-4,746	552,84	-8,458	
64,26	9,421	-4,787	552,47	-8,459	
64,28	9,421	-4,836	552,10	-8,459	
64,30	9,421	-4,806	551,74	-8,459	
64,32	9,421	-4,783	551,38	-8,459	
64,34	9,421	-4,822	551,01	-8,460	
64,36	9,421	-4,796	550,63	-8,460	
64,38	9,421	-4,690	550,24	-8,460	
64,40	9,421	-4,678	549,87	-8,460	
64,42	9,421	-4,742	549,51	-8,461	
64,44	9,421	-4,780	549,13	-8,461	
64,46	9,421	-4,808	548,75	-8,461	
64,48	9,421	-4,769	548,38	-8,461	
64,50	9,421	-4,643	548,03	-8,461	
64,52	9,421	-4,605	547,68	-8,462	
64,54	9,421	-4,692	547,32	-8,462	
64,56	9,421	-4,789	546,94	-8,462	
64,58	9,421	-4,821	546,56	-8,462	
64,60	9,421	-4,777	546,19	-8,462	
64,62	9,421	-4,766	545,84	-8,463	
64,64	9,421	-4,779	545,48	-8,463	
64,66	9,421	-4,722	545,12	-8,460	
64,68	9,421	-4,686	544,77	-8,455	
64,70	9,421	-4,707	544,41	-8,453	
64,72	9,421	-4,689	544,05	-8,453	
64,74	9,421	-4,695	543,69	-8,453	
64,76	9,421	-4,703	543,32	-8,453	
64,78	9,421	-4,698	542,95	-8,453	
64,80	9,421	-4,720	542,59	-8,454	
64,82	9,421	-4,762	542,24	-8,454	
64,84	9,421	-4,786	541,88	-8,454	
64,86	9,421	-4,771	541,51	-8,454	
64,88	9,421	-4,833	541,15	-8,456	
64,90	9,421	-4,859	540,79	-8,461	
64,92	9,421	-4,818	540,43	-8,465	
64,94	9,421	-4,827	540,07	-8,466	
64,96	9,421	-4,766	539,72	-8,467	
64,98	9,421	-4,725	539,37	-8,467	
65,00	9,421	-4,747	539,01	-8,467	
65,02	9,421	-4,773	538,65	-8,467	
65,04	9,421	-4,729	538,29	-8,467	
65,06	9,421	-4,696	537,93	-8,468	
65,08	9,421	-4,714	537,57	-8,468	
65,10	9,421	-4,717	537,22	-8,468	
65,12	9,421	-4,734	536,86	-8,468	
65,14	9,421	-4,765	536,51	-8,468	
65,16	9,421	-4,754	536,17	-8,469	
65,18	9,421	-4,828	535,81	-8,469	
65,20	9,421	-4,875	535,45	-8,469	
65,22	9,421	-4,866	535,08	-8,469	
65,24	9,421	-4,818	534,72	-8,469	
65,26	9,421	-4,782	534,38	-8,470	
65,28	9,421	-4,809	534,03	-8,470	
65,30	9,421	-4,830	533,67	-8,470	
65,32	9,421	-4,784	533,32	-8,470	
65,34	9,421	-4,808	532,98	-8,471	
65,36	9,421	-4,833	532,63	-8,471	
65,38	9,421	-4,832	532,27	-8,471	
65,40	9,421	-4,824	531,92	-8,471	
65,42	9,421	-4,802	531,58	-8,471	
65,44	9,421	-4,812	531,24	-8,472	
65,46	9,421	-4,812	530,89	-8,472	
65,48	9,421	-4,830	530,54	-8,472	
65,50	9,421	-4,775	530,19	-8,472	
65,52	9,421	-4,757	529,84	-8,472	
65,54	9,421	-4,857	529,49	-8,473	
65,56	9,421	-4,838	529,15	-8,473	
65,58	9,421	-4,772	528,81	-8,473	
65,60	9,421	-4,826	528,47	-8,473	
65,62	9,421	-4,793	528,13	-8,473	
65,64	9,421	-4,726	527,79	-8,474	
65,66	9,421	-4,737	527,45	-8,474	
65,68	9,421	-4,775	527,10	-8,474	
65,70	9,421	-4,765	526,77	-8,474	
65,72	9,421	-4,808	526,43	-8,475	
65,74	9,421	-4,830	526,10	-8,475	
65,76	9,421	-4,804	525,77	-8,475	
65,78	9,421	-4,801	525,43	-8,475	
65,80	9,421	-4,839	525,09	-8,475	
65,82	9,421	-4,849	524,74	-8,476	
65,84	9,421	-4,905	524,38	-8,476	
65,86	9,421	-4,905	524,03	-8,476	
65,88	9,421	-4,815	523,69	-8,476	
65,90	9,421	-4,773	523,35	-8,476	
65,92	9,421	-4,759	523,01	-8,476	
65,94	9,421	-4,726	522,67	-8,477	
65,96	9,421	-4,742	522,32	-8,477	
65,98	9,421	-4,727	521,98	-8,477	
66,00	9,421	-4,737	521,65	-8,477	
66,02	9,421	-4,788	521,30	-8,477	
66,04	9,421	-4,818	520,96	-8,478	
66,06	9,421	-4,760	520,63	-8,478	
66,08	9,421	-4,772	520,30	-8,478	
66,10	9,421	-4,759	519,97	-8,478	
66,12	9,421	-4,779	519,64	-8,478	
66,14	9,421	-4,724	519,30	-8,479	
66,16	9,421	-4,641	518,98	-8,479	
66,18	9,421	-4,611	518,66	-8,479	
66,20	9,421	-4,661	518,34	-8,479	
66,22	9,421	-4,702	518,01	-8,479	
66,24	9,421	-4,740	517,68	-8,479	
66,26	9,421	-4,774	517,34	-8,480	
66,28	9,421	-4,730	516,99	-8,480	
66,30	9,421	-4,699	516,64	-8,480	
66,32	9,421	-4,717	516,29	-8,480	
66,34	9,421	-4,704	515,94	-8,481	
66,36	9,421	-4,739	515,59	-8,481	
66,38	9,421	-4,746	515,26	-8,481	
66,40	9,421	-4,757	514,92	-8,481	
66,42	9,421	-4,733	514,58	-8,481	
66,44	9,421	-4,732	514,24	-8,481	
66,46	9,421	-4,736	513,91	-8,482	
66,48	9,421	-4,722	513,57	-8,482	
66,50	9,421	-4,727	513,22	-8,482	