Zeit  1 - Standardmessrate [s]	ZwickWeg [mm]	ZwickKraft [N]	Pyrometer [°C]	Maytec [mm]
0	-0,4378	168,22	150,06	0,03247	
0,02000	-0,4378	168,26	150,06	0,03159	
0,04000	-0,4378	168,25	150,05	0,03103	
0,06000	-0,4378	168,25	150,05	0,03091	
0,08000	-0,4378	168,26	150,06	0,03101	
0,1000	-0,4378	168,26	150,06	0,03117	
0,1200	-0,4378	168,33	150,05	0,03122	
0,1400	-0,4378	168,99	150,05	0,03120	
0,1600	-0,4378	168,97	150,05	0,03108	
0,1800	-0,4378	168,51	150,05	0,03097	
0,2000	-0,4378	168,28	150,05	0,03096	
0,2200	-0,4378	168,20	150,06	0,03102	
0,2400	-0,4378	168,13	150,05	0,03112	
0,2600	-0,4378	168,11	150,05	0,03118	
0,2800	-0,4378	168,09	150,05	0,03113	
0,3000	-0,4378	168,13	150,05	0,03104	
0,3200	-0,4378	168,68	150,05	0,03094	
0,3400	-0,4378	170,10	150,05	0,03093	
0,3600	-0,4378	170,16	150,05	0,03105	
0,3800	-0,4378	169,60	150,05	0,03120	
0,4000	-0,4377	168,87	150,05	0,03136	
0,4200	-0,4377	168,32	150,06	0,03127	
0,4400	-0,4378	168,17	150,06	0,03106	
0,4600	-0,4378	168,20	150,05	0,03093	
0,4800	-0,4378	169,21	150,05	0,03094	
0,5000	-0,4378	170,66	150,06	0,03102	
0,5200	-0,4378	171,35	150,06	0,03112	
0,5400	-0,4378	171,47	150,05	0,03125	
0,5600	-0,4378	171,46	150,05	0,03128	
0,5800	-0,4378	171,43	150,05	0,03118	
0,6000	-0,4377	170,37	150,05	0,03107	
0,6200	-0,4377	168,85	150,05	0,03096	
0,6400	-0,4377	168,14	150,05	0,03093	
0,6600	-0,4377	168,03	150,05	0,03094	
0,6800	-0,4377	168,05	150,05	0,03102	
0,7000	-0,4377	168,03	150,05	0,03117	
0,7200	-0,4378	168,07	150,05	0,03121	
0,7400	-0,4378	168,09	150,05	0,03107	
0,7600	-0,4378	168,08	150,05	0,03100	
0,7800	-0,4378	168,06	150,05	0,03104	
0,8000	-0,4378	168,06	150,05	0,03110	
0,8200	-0,4378	168,13	150,05	0,03116	
0,8400	-0,4378	168,21	150,05	0,03126	
0,8600	-0,4378	168,17	150,05	0,03124	
0,8800	-0,4378	168,09	150,05	0,03106	
0,9000	-0,4378	168,05	150,05	0,03096	
0,9200	-0,4378	168,05	150,06	0,03093	
0,9400	-0,4378	168,10	150,05	0,03102	
0,9600	-0,4378	168,16	150,06	0,03114	
0,9800	-0,4378	168,16	150,06	0,03124	
1,000	-0,4378	168,08	150,06	0,03116	
1,020	-0,4378	168,03	150,05	0,03104	
1,040	-0,4378	168,00	150,05	0,03100	
1,060	-0,4378	168,04	150,06	0,03099	
1,080	-0,4378	168,10	150,05	0,03104	
1,100	-0,4378	168,15	150,05	0,03119	
1,120	-0,4378	168,19	150,05	0,03125	
1,140	-0,4378	168,80	150,05	0,03119	
1,160	-0,4377	168,81	150,05	0,03104	
1,180	-0,4377	168,36	150,05	0,03093	
1,200	-0,4377	168,13	150,06	0,03093	
1,220	-0,4377	168,09	150,05	0,03107	
1,240	-0,4377	168,07	150,05	0,03122	
1,260	-0,4377	168,14	150,06	0,03127	
1,280	-0,4378	168,16	150,06	0,03123	
1,300	-0,4378	168,12	150,05	0,03108	
1,320	-0,4378	168,08	150,05	0,03097	
1,340	-0,4378	168,07	150,06	0,03094	
1,360	-0,4378	168,04	150,05	0,03098	
1,380	-0,4378	168,09	150,05	0,03107	
1,400	-0,4378	168,17	150,05	0,03113	
1,420	-0,4378	168,63	150,05	0,03111	
1,440	-0,4378	169,64	150,05	0,03105	
1,460	-0,4378	169,29	150,06	0,03096	
1,480	-0,4378	168,49	150,06	0,03094	
1,500	-0,4378	168,14	150,05	0,03101	
1,520	-0,4378	168,09	150,05	0,03111	
1,540	-0,4378	168,16	150,06	0,03119	
1,560	-0,4378	169,20	150,06	0,03115	
1,580	-0,4378	170,69	150,05	0,03105	
1,600	-0,4378	171,40	150,05	0,03097	
1,620	-0,4378	171,50	150,05	0,03092	
1,640	-0,4378	171,41	150,05	0,03097	
1,660	-0,4378	171,44	150,05	0,03105	
1,680	-0,4378	171,13	150,05	0,03113	
1,700	-0,4378	169,71	150,05	0,03118	
1,720	-0,4378	168,50	150,05	0,03116	
1,740	-0,4378	168,09	150,06	0,03107	
1,760	-0,4378	168,07	150,05	0,03094	
1,780	-0,4378	168,10	150,05	0,03090	
1,800	-0,4378	168,14	150,05	0,03096	
1,820	-0,4378	168,15	150,05	0,03107	
1,840	-0,4378	168,15	150,05	0,03114	
1,860	-0,4378	168,19	150,05	0,03105	
1,880	-0,4378	168,16	150,05	0,03097	
1,900	-0,4378	168,12	150,05	0,03099	
1,920	-0,4378	168,11	150,05	0,03107	
1,940	-0,4378	168,13	150,05	0,03115	
1,960	-0,4378	168,50	150,05	0,03120	
1,980	-0,4378	168,95	150,05	0,03125	
2,000	-0,4378	168,61	150,05	0,03122	
2,020	-0,4378	168,26	150,05	0,03108	
2,040	-0,4378	168,13	150,05	0,03098	
2,060	-0,4378	168,08	150,05	0,03095	
2,080	-0,4378	168,07	150,05	0,03100	
2,100	-0,4378	168,07	150,05	0,03116	
2,120	-0,4378	168,14	150,05	0,03126	
2,140	-0,4378	168,15	150,06	0,03116	
2,160	-0,4378	168,10	150,06	0,03100	
2,180	-0,4378	168,06	150,05	0,03093	
2,200	-0,4378	168,15	150,05	0,03092	
2,220	-0,4378	169,19	150,06	0,03095	
2,240	-0,4378	170,69	150,06	0,03109	
2,260	-0,4378	171,41	150,05	0,03115	
2,280	-0,4378	171,50	150,05	0,03116	
2,300	-0,4378	171,36	150,05	0,03110	
2,320	-0,4378	171,35	150,05	0,03101	
2,340	-0,4378	171,41	150,05	0,03102	
2,360	-0,4378	171,42	150,06	0,03109	
2,380	-0,4378	171,43	150,05	0,03119	
2,400	-0,4378	171,49	150,05	0,03125	
2,420	-0,4378	171,52	150,05	0,03123	
2,440	-0,4378	171,47	150,05	0,03109	
2,460	-0,4378	171,39	150,05	0,03098	
2,480	-0,4378	171,38	150,05	0,03095	
2,500	-0,4377	171,41	150,05	0,03102	
2,520	-0,4377	171,47	150,05	0,03118	
2,540	-0,4378	171,53	150,05	0,03130	
2,560	-0,4378	171,52	150,06	0,03133	
2,580	-0,4378	171,48	150,05	0,03123	
2,600	-0,4378	171,45	150,05	0,03108	
2,620	-0,4378	171,45	150,06	0,03100	
2,640	-0,4378	171,44	150,05	0,03109	
2,660	-0,4377	171,35	150,05	0,03118	
2,680	-0,4377	170,46	150,05	0,03118	
2,700	-0,4377	169,79	150,06	0,03119	
2,720	-0,4377	170,11	150,05	0,03117	
2,740	-0,4377	169,93	150,05	0,03104	
2,760	-0,4377	168,87	150,05	0,03100	
2,780	-0,4377	168,21	150,05	0,03108	
2,800	-0,4377	168,14	150,05	0,03121	
2,820	-0,4377	168,19	150,05	0,03124	
2,840	-0,4377	168,13	150,06	0,03125	
2,860	-0,4377	168,11	150,05	0,03117	
2,880	-0,4377	168,10	150,05	0,03101	
2,900	-0,4377	168,05	150,06	0,03092	
2,920	-0,4377	168,01	150,05	0,03097	
2,940	-0,4377	168,04	150,05	0,03112	
2,960	-0,4378	168,04	150,05	0,03123	
2,980	-0,4378	168,07	150,05	0,03126	
3,000	-0,4378	168,69	150,05	0,03114	
3,020	-0,4377	168,74	150,05	0,03092	
3,040	-0,4377	168,40	150,05	0,03090	
3,060	-0,4377	168,80	150,05	0,03102	
3,080	-0,4377	168,86	150,05	0,03116	
3,100	-0,4377	169,44	150,05	0,03121	
3,120	-0,4377	170,68	150,05	0,03120	
3,140	-0,4377	171,37	150,05	0,03115	
3,160	-0,4377	171,54	150,05	0,03104	
3,180	-0,4377	171,55	150,05	0,03099	
3,200	-0,4378	171,54	150,05	0,03102	
3,220	-0,4378	171,14	150,05	0,03110	
3,240	-0,4378	170,08	150,05	0,03120	
3,260	-0,4377	170,30	150,05	0,03125	
3,280	-0,4377	171,07	150,05	0,03115	
3,300	-0,4377	171,47	150,05	0,03105	
3,320	-0,4377	171,61	150,05	0,03099	
3,340	-0,4377	171,57	150,05	0,03101	
3,360	-0,4377	171,49	150,05	0,03115	
3,380	-0,4378	171,44	150,05	0,03123	
3,400	-0,4378	170,42	150,05	0,03121	
3,420	-0,4377	168,92	150,05	0,03114	
3,440	-0,4377	168,23	150,05	0,03101	
3,460	-0,4377	168,12	150,05	0,03097	
3,480	-0,4377	168,07	150,05	0,03097	
3,500	-0,4377	168,09	150,06	0,03100	
3,520	-0,4377	168,12	150,05	0,03107	
3,540	-0,4378	168,08	150,05	0,03119	
3,560	-0,4378	168,03	150,05	0,03120	
3,580	-0,4378	168,09	150,05	0,03106	
3,600	-0,4378	168,16	150,05	0,03101	
3,620	-0,4378	168,20	150,05	0,03100	
3,640	-0,4378	168,24	150,05	0,03103	
3,660	-0,4377	168,21	150,05	0,03110	
3,680	-0,4377	168,08	150,05	0,03118	
3,700	-0,4377	168,07	150,05	0,03121	
3,720	-0,4377	168,11	150,05	0,03107	
3,740	-0,4377	168,08	150,05	0,03095	
3,760	-0,4377	168,09	150,05	0,03100	
3,780	-0,4377	168,08	150,05	0,03116	
3,800	-0,4377	168,07	150,05	0,03124	
3,820	-0,4377	168,13	150,05	0,03126	
3,840	-0,4377	168,17	150,05	0,03122	
3,860	-0,4377	168,16	150,05	0,03111	
3,880	-0,4377	168,11	150,05	0,03094	
3,900	-0,4378	168,05	150,05	0,03088	
3,920	-0,4378	168,06	150,05	0,03097	
3,940	-0,4378	168,11	150,05	0,03110	
3,960	-0,4378	168,11	150,06	0,03122	
3,980	-0,4378	168,08	150,05	0,03124	
4,000	-0,4378	168,04	150,05	0,03111	
4,020	-0,4378	168,07	150,05	0,03094	
4,040	-0,4377	168,11	150,05	0,03090	
4,060	-0,4377	168,07	150,05	0,03097	
4,080	-0,4377	168,06	150,05	0,03117	
4,100	-0,4378	168,08	150,06	0,03126	
4,120	-0,4378	168,06	150,05	0,03124	
4,140	-0,4378	168,05	150,05	0,03108	
4,160	-0,4378	168,09	150,05	0,03096	
4,180	-0,4378	168,13	150,05	0,03091	
4,200	-0,4378	168,22	150,05	0,03097	
4,220	-0,4378	168,26	150,05	0,03115	
4,240	-0,4378	168,27	150,05	0,03121	
4,260	-0,4378	168,28	150,05	0,03118	
4,280	-0,4378	168,22	150,05	0,03116	
4,300	-0,4378	168,21	150,05	0,03109	
4,320	-0,4378	168,23	150,05	0,03106	
4,340	-0,4378	168,24	150,05	0,03107	
4,360	-0,4378	168,25	150,06	0,03116	
4,380	-0,4378	168,28	150,05	0,03121	
4,400	-0,4378	168,29	150,05	0,03118	
4,420	-0,4378	168,29	150,05	0,03110	
4,440	-0,4378	168,22	150,05	0,03104	
4,460	-0,4378	168,18	150,05	0,03099	
4,480	-0,4377	168,14	150,05	0,03100	
4,500	-0,4377	168,06	150,05	0,03111	
4,520	-0,4378	168,02	150,05	0,03121	
4,540	-0,4378	168,04	150,05	0,03126	
4,560	-0,4378	168,04	150,05	0,03114	
4,580	-0,4378	168,03	150,05	0,03100	
4,600	-0,4378	168,12	150,05	0,03091	
4,620	-0,4378	168,23	150,05	0,03096	
4,640	-0,4377	168,34	150,05	0,03104	
4,660	-0,4378	169,29	150,05	0,03112	
4,680	-0,4378	169,72	150,05	0,03113	
4,700	-0,4378	169,02	150,05	0,03111	
4,720	-0,4378	169,00	150,05	0,03104	
4,740	-0,4378	168,90	150,05	0,03098	
4,760	-0,4378	168,86	150,06	0,03104	
4,780	-0,4378	170,03	150,05	0,03110	
4,800	-0,4378	171,13	150,05	0,03119	
4,820	-0,4378	171,53	150,05	0,03129	
4,840	-0,4378	171,58	150,05	0,03127	
4,860	-0,4378	170,56	150,05	0,03113	
4,880	-0,4378	169,03	150,05	0,03100	
4,900	-0,4378	168,30	150,05	0,03096	
4,920	-0,4378	168,21	150,05	0,03104	
4,940	-0,4378	168,18	150,05	0,03118	
4,960	-0,4378	168,15	150,05	0,03123	
4,980	-0,4378	168,51	150,05	0,03116	
5,000	-0,4378	169,94	150,05	0,03099	
5,020	-0,4378	171,14	150,05	0,03083	
5,040	-0,4378	171,47	150,05	0,03087	
5,060	-0,4378	171,09	150,05	0,03106	
5,080	-0,4378	169,68	150,05	0,03117	
5,100	-0,4378	168,57	150,05	0,03121	
5,120	-0,4378	168,26	150,05	0,03116	
5,140	-0,4378	169,20	150,05	0,03110	
5,160	-0,4377	170,67	150,06	0,03105	
5,180	-0,4377	171,42	150,05	0,03105	
5,200	-0,4377	171,20	150,05	0,03103	
5,220	-0,4378	169,74	150,05	0,03108	
5,240	-0,4378	168,61	150,05	0,03113	
5,260	-0,4378	168,22	150,05	0,03117	
5,280	-0,4378	168,13	150,05	0,03112	
5,300	-0,4378	168,15	150,06	0,03100	
5,320	-0,4378	168,17	150,05	0,03093	
5,340	-0,4378	168,21	150,05	0,03102	
5,360	-0,4378	168,20	150,05	0,03112	
5,380	-0,4378	168,20	150,05	0,03113	
5,400	-0,4378	168,20	150,05	0,03110	
5,420	-0,4377	168,19	150,05	0,03104	
5,440	-0,4377	168,22	150,05	0,03096	
5,460	-0,4377	168,23	150,05	0,03094	
5,480	-0,4377	168,17	150,05	0,03098	
5,500	-0,4377	168,19	150,06	0,03106	
5,520	-0,4377	168,30	150,05	0,03109	
5,540	-0,4378	168,34	150,05	0,03118	
5,560	-0,4378	168,35	150,05	0,03115	
5,580	-0,4378	169,24	150,05	0,03098	
5,600	-0,4378	170,68	150,05	0,03088	
5,620	-0,4377	170,56	150,05	0,03096	
5,640	-0,4377	169,23	150,06	0,03111	
5,660	-0,4378	168,41	150,05	0,03119	
5,680	-0,4378	168,22	150,05	0,03122	
5,700	-0,4378	168,26	150,05	0,03123	
5,720	-0,4378	168,27	150,05	0,03113	
5,740	-0,4378	168,34	150,05	0,03105	
5,760	-0,4378	168,97	150,05	0,03104	
5,780	-0,4378	169,89	150,05	0,03106	
5,800	-0,4378	169,92	150,05	0,03111	
5,820	-0,4378	168,95	150,05	0,03118	
5,840	-0,4378	168,26	150,05	0,03116	
5,860	-0,4378	168,07	150,05	0,03106	
5,880	-0,4378	168,12	150,05	0,03098	
5,900	-0,4378	168,11	150,05	0,03100	
5,920	-0,4378	168,09	150,05	0,03109	
5,940	-0,4378	168,14	150,05	0,03117	
5,960	-0,4378	168,17	150,05	0,03114	
5,980	-0,4378	168,17	150,06	0,03111	
6,000	-0,4378	168,17	150,05	0,03110	
6,020	-0,4378	168,13	150,05	0,03099	
6,040	-0,4378	168,10	150,06	0,03094	
6,060	-0,4378	168,13	150,06	0,03094	
6,080	-0,4378	168,13	150,05	0,03107	
6,100	-0,4378	168,10	150,05	0,03116	
6,120	-0,4378	168,39	150,05	0,03114	
6,140	-0,4378	169,80	150,05	0,03106	
6,160	-0,4378	170,07	150,05	0,03098	
6,180	-0,4378	168,97	150,06	0,03093	
6,200	-0,4378	168,25	150,06	0,03101	
6,220	-0,4378	168,11	150,05	0,03109	
6,240	-0,4378	168,12	150,05	0,03111	
6,260	-0,4378	168,02	150,06	0,03114	
6,280	-0,4378	167,97	150,05	0,03112	
6,300	-0,4378	168,02	150,05	0,03104	
6,320	-0,4378	168,04	150,05	0,03097	
6,340	-0,4378	168,04	150,05	0,03100	
6,360	-0,4378	168,03	150,05	0,03108	
6,380	-0,4377	167,99	150,05	0,03118	
6,400	-0,4377	167,98	150,05	0,03121	
6,420	-0,4378	167,98	150,05	0,03114	
6,440	-0,4378	168,01	150,05	0,03102	
6,460	-0,4378	168,09	150,06	0,03089	
6,480	-0,4378	168,12	150,05	0,03085	
6,500	-0,4378	168,12	150,05	0,03096	
6,520	-0,4378	168,15	150,05	0,03111	
6,540	-0,4378	168,11	150,05	0,03121	
6,560	-0,4378	168,03	150,05	0,03117	
6,580	-0,4378	168,05	150,05	0,03101	
6,600	-0,4378	168,10	150,06	0,03089	
6,620	-0,4378	168,04	150,06	0,03090	
6,640	-0,4378	168,00	150,05	0,03100	
6,660	-0,4378	167,98	150,05	0,03112	
6,680	-0,4378	168,01	150,06	0,03118	
6,700	-0,4378	168,03	150,05	0,03115	
6,720	-0,4377	168,42	150,05	0,03106	
6,740	-0,4378	169,93	150,06	0,03096	
6,760	-0,4378	171,21	150,05	0,03091	
6,780	-0,4378	171,61	150,05	0,03091	
6,800	-0,4378	171,59	150,05	0,03103	
6,820	-0,4378	171,55	150,05	0,03118	
6,840	-0,4377	171,57	150,05	0,03119	
6,860	-0,4377	171,59	150,05	0,03105	
6,880	-0,4377	171,57	150,05	0,03097	
6,900	-0,4377	171,49	150,05	0,03094	
6,920	-0,4378	171,52	150,05	0,03095	
6,940	-0,4378	171,28	150,05	0,03106	
6,960	-0,4377	169,88	150,05	0,03123	
6,980	-0,4377	168,61	150,05	0,03129	
7,000	-0,4378	168,16	150,05	0,03115	
7,020	-0,4378	168,17	150,05	0,03098	
7,040	-0,4378	168,23	150,05	0,03094	
7,060	-0,4378	168,25	150,05	0,03101	
7,080	-0,4378	168,28	150,05	0,03109	
7,100	-0,4378	168,31	150,05	0,03113	
7,120	-0,4378	168,30	150,05	0,03120	
7,140	-0,4378	168,66	150,05	0,03122	
7,160	-0,4377	170,09	150,05	0,03114	
7,180	-0,4377	171,29	150,05	0,03103	
7,200	-0,4377	170,75	150,05	0,03101	
7,220	-0,4377	169,30	150,05	0,03101	
7,240	-0,4377	168,50	150,05	0,03113	
7,260	-0,4378	168,35	150,05	0,03122	
7,280	-0,4378	168,36	150,06	0,03125	
7,300	-0,4378	168,33	150,05	0,03113	
7,320	-0,4378	168,29	150,05	0,03094	
7,340	-0,4377	168,23	150,05	0,03091	
7,360	-0,4378	168,25	150,06	0,03102	
7,380	-0,4378	168,30	150,05	0,03111	
7,400	-0,4377	168,26	150,05	0,03115	
7,420	-0,4378	168,16	150,05	0,03121	
7,440	-0,4377	168,41	150,05	0,03118	
7,460	-0,4377	169,89	150,05	0,03098	
7,480	-0,4377	170,87	150,06	0,03087	
7,500	-0,4377	170,46	150,05	0,03090	
7,520	-0,4378	169,38	150,05	0,03089	
7,540	-0,4378	169,46	150,05	0,03102	
7,560	-0,4378	170,69	150,05	0,03117	
7,580	-0,4378	171,44	150,05	0,03118	
7,600	-0,4378	171,63	150,05	0,03115	
7,620	-0,4382	174,55	150,16	0,03084	
7,640	-0,4379	162,65	150,08	0,02971	
7,660	-0,4374	120,20	149,98	0,02939	
7,680	-0,4375	75,40	150,01	0,02993	
7,700	-0,4376	37,46	150,05	0,03030	
7,720	-0,4360	9,212	150,05	0,03033	
7,740	-0,4310	1,814	150,05	0,03027	
7,760	-0,4244	33,57	150,05	0,03024	
7,780	-0,4189	77,74	150,05	0,03027	
7,800	-0,4150	118,10	150,05	0,03041	
7,820	-0,4128	149,12	150,05	0,03049	
7,840	-0,4118	168,78	150,06	0,03045	
7,860	-0,4116	178,31	150,05	0,03042	
7,880	-0,4117	181,38	150,05	0,03029	
7,900	-0,4121	181,74	150,06	0,03019	
7,920	-0,4126	180,67	150,05	0,03018	
7,940	-0,4128	179,17	150,05	0,03024	
7,960	-0,4131	178,44	150,05	0,03038	
7,980	-0,4134	177,46	150,05	0,03046	
8,000	-0,4136	175,94	150,05	0,03052	
8,020	-0,4139	174,75	150,05	0,03044	
8,040	-0,4141	173,13	150,05	0,03033	
8,060	-0,4142	172,00	150,05	0,03026	
8,080	-0,4142	171,66	150,05	0,03031	
8,100	-0,4142	171,02	150,05	0,03044	
8,120	-0,4142	170,08	150,05	0,03054	
8,140	-0,4142	169,02	150,05	0,03061	
8,160	-0,4142	168,38	150,05	0,03049	
8,180	-0,4142	168,25	150,06	0,03033	
8,200	-0,4142	168,93	150,05	0,03022	
8,220	-0,4143	170,04	150,05	0,03022	
8,240	-0,4146	171,11	150,06	0,03037	
8,260	-0,4148	171,54	150,05	0,03046	
8,280	-0,4149	171,59	150,05	0,03051	
8,300	-0,4149	171,56	150,05	0,03052	
8,320	-0,4149	171,64	150,06	0,03046	
8,340	-0,4149	171,66	150,05	0,03037	
8,360	-0,4149	171,66	150,05	0,03031	
8,380	-0,4149	171,07	150,06	0,03038	
8,400	-0,4149	169,97	150,05	0,03045	
8,420	-0,4149	169,22	150,05	0,03054	
8,440	-0,4149	170,12	150,05	0,03058	
8,460	-0,4149	171,24	150,05	0,03047	
8,480	-0,4149	171,71	150,05	0,03046	
8,500	-0,4149	171,75	150,05	0,03044	
8,520	-0,4149	171,72	150,05	0,03043	
8,540	-0,4149	171,67	150,05	0,03050	
8,560	-0,4149	171,64	150,05	0,03050	
8,580	-0,4149	171,65	150,05	0,03056	
8,600	-0,4149	171,23	150,05	0,03052	
8,620	-0,4151	169,82	150,05	0,03037	
8,640	-0,4154	168,65	150,05	0,03031	
8,660	-0,4156	168,25	150,05	0,03040	
8,680	-0,4156	168,28	150,05	0,03046	
8,700	-0,4156	168,30	150,05	0,03054	
8,720	-0,4156	168,57	150,05	0,03057	
8,740	-0,4156	169,99	150,05	0,03042	
8,760	-0,4156	171,15	150,05	0,03030	
8,780	-0,4156	171,49	150,05	0,03031	
8,800	-0,4156	171,52	150,05	0,03046	
8,820	-0,4156	171,52	150,05	0,03046	
8,840	-0,4156	171,55	150,05	0,03043	
8,860	-0,4156	171,56	150,05	0,03053	
8,880	-0,4156	171,62	150,05	0,03050	
8,900	-0,4156	171,64	150,06	0,03038	
8,920	-0,4156	171,66	150,06	0,03030	
8,940	-0,4156	171,29	150,05	0,03034	
8,960	-0,4156	170,06	150,05	0,03042	
8,980	-0,4156	169,41	150,05	0,03057	
9,000	-0,4156	168,72	150,05	0,03065	
9,020	-0,4156	168,27	150,05	0,03059	
9,040	-0,4156	169,11	150,05	0,03052	
9,060	-0,4156	170,66	150,05	0,03046	
9,080	-0,4156	171,52	150,05	0,03047	
9,100	-0,4156	171,72	150,05	0,03051	
9,120	-0,4156	171,65	150,05	0,03061	
9,140	-0,4156	171,56	150,05	0,03072	
9,160	-0,4156	171,54	150,05	0,03066	
9,180	-0,4156	171,51	150,05	0,03049	
9,200	-0,4156	171,50	150,05	0,03031	
9,220	-0,4159	171,52	150,05	0,03034	
9,240	-0,4161	170,65	150,05	0,03049	
9,260	-0,4162	169,19	150,05	0,03062	
9,280	-0,4162	168,32	150,05	0,03065	
9,300	-0,4162	168,13	150,05	0,03061	
9,320	-0,4162	168,14	150,05	0,03056	
9,340	-0,4162	168,15	150,05	0,03044	
9,360	-0,4162	168,19	150,05	0,03041	
9,380	-0,4162	168,23	150,05	0,03044	
9,400	-0,4162	168,28	150,05	0,03048	
9,420	-0,4162	168,22	150,05	0,03056	
9,440	-0,4162	168,19	150,05	0,03054	
9,460	-0,4162	168,14	150,05	0,03047	
9,480	-0,4163	168,15	150,05	0,03040	
9,500	-0,4163	168,25	150,05	0,03030	
9,520	-0,4163	169,12	150,06	0,03033	
9,540	-0,4162	169,70	150,05	0,03045	
9,560	-0,4162	169,96	150,05	0,03053	
9,580	-0,4162	170,81	150,06	0,03055	
9,600	-0,4162	170,80	150,06	0,03047	
9,620	-0,4162	170,51	150,05	0,03035	
9,640	-0,4162	169,78	150,05	0,03032	
9,660	-0,4162	169,88	150,06	0,03041	
9,680	-0,4162	169,31	150,05	0,03055	
9,700	-0,4162	169,03	150,05	0,03068	
9,720	-0,4162	168,73	150,06	0,03068	
9,740	-0,4162	168,28	150,05	0,03061	
9,760	-0,4163	168,47	150,05	0,03049	
9,780	-0,4163	169,59	150,05	0,03042	
9,800	-0,4162	169,36	150,05	0,03042	
9,820	-0,4162	168,54	150,05	0,03043	
9,840	-0,4162	168,17	150,05	0,03053	
9,860	-0,4162	168,16	150,05	0,03054	
9,880	-0,4163	168,46	150,05	0,03045	
9,900	-0,4164	168,89	150,05	0,03038	
9,920	-0,4167	168,66	150,06	0,03034	
9,940	-0,4169	168,94	150,06	0,03037	
9,960	-0,4169	168,88	150,05	0,03044	
9,980	-0,4169	168,50	150,05	0,03052	
10,00	-0,4169	168,30	150,05	0,03057	
10,02	-0,4169	168,22	150,05	0,03055	
10,04	-0,4169	168,23	150,05	0,03044	
10,06	-0,4169	168,23	150,05	0,03038	
10,08	-0,4169	168,18	150,05	0,03040	
10,10	-0,4169	168,13	150,05	0,03044	
10,12	-0,4169	168,08	150,05	0,03055	
10,14	-0,4169	168,03	150,05	0,03063	
10,16	-0,4169	168,12	150,05	0,03062	
10,18	-0,4169	168,22	150,05	0,03050	
10,20	-0,4169	168,22	150,05	0,03041	
10,22	-0,4169	168,20	150,05	0,03041	
10,24	-0,4169	168,16	150,05	0,03049	
10,26	-0,4169	168,08	150,05	0,03062	
10,28	-0,4169	168,12	150,05	0,03067	
10,30	-0,4169	168,12	150,05	0,03063	
10,32	-0,4169	168,12	150,05	0,03054	
10,34	-0,4169	168,38	150,05	0,03043	
10,36	-0,4169	168,82	150,05	0,03039	
10,38	-0,4169	168,55	150,05	0,03045	
10,40	-0,4169	168,50	150,05	0,03058	
10,42	-0,4169	168,92	150,05	0,03062	
10,44	-0,4169	168,61	150,05	0,03061	
10,46	-0,4169	169,09	150,05	0,03055	
10,48	-0,4169	170,15	150,05	0,03045	
10,50	-0,4169	170,43	150,05	0,03041	
10,52	-0,4169	170,85	150,05	0,03045	
10,54	-0,4169	170,30	150,05	0,03055	
10,56	-0,4169	168,93	150,05	0,03069	
10,58	-0,4169	168,50	150,05	0,03065	
10,60	-0,4169	168,83	150,05	0,03051	
10,62	-0,4169	168,56	150,05	0,03044	
10,64	-0,4169	169,09	150,05	0,03038	
10,66	-0,4169	169,53	150,05	0,03038	
10,68	-0,4169	168,77	150,05	0,03048	
10,70	-0,4170	168,14	150,05	0,03060	
10,72	-0,4173	167,95	150,05	0,03062	
10,74	-0,4175	167,97	150,05	0,03055	
10,76	-0,4176	168,03	150,05	0,03039	
10,78	-0,4176	168,04	150,05	0,03031	
10,80	-0,4176	168,08	150,05	0,03034	
10,82	-0,4176	168,06	150,05	0,03049	
10,84	-0,4176	168,34	150,05	0,03067	
10,86	-0,4176	169,76	150,05	0,03068	
10,88	-0,4176	170,96	150,05	0,03056	
10,90	-0,4176	171,44	150,05	0,03035	
10,92	-0,4176	171,53	150,05	0,03033	
10,94	-0,4176	171,48	150,05	0,03042	
10,96	-0,4176	171,46	150,05	0,03051	
10,98	-0,4176	171,42	150,05	0,03063	
11,00	-0,4176	171,41	150,05	0,03064	
11,02	-0,4176	171,44	150,05	0,03054	
11,04	-0,4176	171,13	150,05	0,03044	
11,06	-0,4176	169,72	150,05	0,03044	
11,08	-0,4176	169,34	150,05	0,03043	
11,10	-0,4176	169,53	150,05	0,03045	
11,12	-0,4176	168,83	150,05	0,03053	
11,14	-0,4176	168,23	150,05	0,03062	
11,16	-0,4176	168,08	150,05	0,03062	
11,18	-0,4176	168,13	150,05	0,03056	
11,20	-0,4176	168,11	150,05	0,03047	
11,22	-0,4176	168,27	150,05	0,03049	
11,24	-0,4176	168,72	150,05	0,03058	
11,26	-0,4176	168,44	150,05	0,03061	
11,28	-0,4176	168,06	150,05	0,03066	
11,30	-0,4176	167,93	150,05	0,03063	
11,32	-0,4176	167,95	150,05	0,03051	
11,34	-0,4176	168,05	150,05	0,03046	
11,36	-0,4176	168,07	150,05	0,03045	
11,38	-0,4176	168,06	150,05	0,03050	
11,40	-0,4176	168,08	150,05	0,03060	
11,42	-0,4176	168,07	150,05	0,03067	
11,44	-0,4176	168,96	150,05	0,03061	
11,46	-0,4176	170,51	150,05	0,03048	
11,48	-0,4176	171,38	150,05	0,03036	
11,50	-0,4176	171,56	150,05	0,03034	
11,52	-0,4176	171,51	150,05	0,03044	
11,54	-0,4178	171,51	150,05	0,03057	
11,56	-0,4181	170,59	150,05	0,03067	
11,58	-0,4182	169,02	150,05	0,03072	
11,60	-0,4183	168,23	150,05	0,03065	
11,62	-0,4183	168,09	150,05	0,03055	
11,64	-0,4183	168,16	150,05	0,03046	
11,66	-0,4183	168,15	150,05	0,03050	
11,68	-0,4183	168,11	150,05	0,03059	
11,70	-0,4183	168,12	150,05	0,03067	
11,72	-0,4183	168,11	150,05	0,03066	
11,74	-0,4183	168,06	150,05	0,03053	
11,76	-0,4183	168,06	150,05	0,03040	
11,78	-0,4183	168,11	150,05	0,03035	
11,80	-0,4183	168,07	150,05	0,03043	
11,82	-0,4183	168,10	150,05	0,03056	
11,84	-0,4183	168,11	150,05	0,03068	
11,86	-0,4183	168,14	150,05	0,03073	
11,88	-0,4183	168,14	150,05	0,03066	
11,90	-0,4183	168,15	150,05	0,03052	
11,92	-0,4183	168,16	150,05	0,03045	
11,94	-0,4183	168,17	150,05	0,03043	
11,96	-0,4183	168,19	150,05	0,03049	
11,98	-0,4182	168,16	150,05	0,03066	
12,00	-0,4182	168,15	150,05	0,03077	
12,02	-0,4182	168,15	150,05	0,03067	
12,04	-0,4182	168,05	150,05	0,03052	
12,06	-0,4183	167,98	150,05	0,03047	
12,08	-0,4183	168,31	150,05	0,03050	
12,10	-0,4183	169,24	150,05	0,03057	
12,12	-0,4183	170,39	150,05	0,03056	
12,14	-0,4183	171,18	150,05	0,03060	
12,16	-0,4183	171,49	150,05	0,03056	
12,18	-0,4183	171,58	150,05	0,03052	
12,20	-0,4183	171,51	150,05	0,03052	
12,22	-0,4183	171,47	150,05	0,03046	
12,24	-0,4183	171,43	150,05	0,03046	
12,26	-0,4183	171,45	150,05	0,03053	
12,28	-0,4183	171,45	150,05	0,03058	
12,30	-0,4183	171,13	150,05	0,03055	
12,32	-0,4183	169,75	150,05	0,03041	
12,34	-0,4183	168,53	150,05	0,03038	
12,36	-0,4183	168,08	150,05	0,03044	
12,38	-0,4183	168,07	150,05	0,03049	
12,40	-0,4182	168,14	150,05	0,03056	
12,42	-0,4183	168,15	150,05	0,03065	
12,44	-0,4183	168,12	150,05	0,03062	
12,46	-0,4186	168,06	150,05	0,03050	
12,48	-0,4188	168,04	150,05	0,03045	
12,50	-0,4189	168,04	150,05	0,03052	
12,52	-0,4189	168,04	150,05	0,03061	
12,54	-0,4189	168,03	150,05	0,03067	
12,56	-0,4189	168,02	150,05	0,03064	
12,58	-0,4189	168,05	150,05	0,03057	
12,60	-0,4189	168,06	150,05	0,03045	
12,62	-0,4189	168,07	150,05	0,03031	
12,64	-0,4189	168,06	150,05	0,03027	
12,66	-0,4189	168,14	150,05	0,03040	
12,68	-0,4189	168,19	150,05	0,03058	
12,70	-0,4189	168,36	150,06	0,03066	
12,72	-0,4191	168,94	150,10	0,03062	
12,74	-0,4191	164,22	150,08	0,03043	
12,76	-0,4190	153,05	150,06	0,03026	
12,78	-0,4189	140,57	150,05	0,03012	
12,80	-0,4188	128,09	150,05	0,03009	
12,82	-0,4182	115,68	150,05	0,03016	
12,84	-0,4169	107,32	150,05	0,03024	
12,86	-0,4154	104,18	150,05	0,03033	
12,88	-0,4142	102,23	150,05	0,03040	
12,90	-0,4131	99,68	150,05	0,03032	
12,92	-0,4116	98,00	150,05	0,03016	
12,94	-0,4101	97,74	150,05	0,03011	
12,96	-0,4086	99,13	150,05	0,03013	
12,98	-0,4069	101,63	150,05	0,03023	
13,00	-0,4053	105,03	150,05	0,03031	
13,02	-0,4039	107,20	150,05	0,03029	
13,04	-0,4026	108,63	150,05	0,03021	
13,06	-0,4012	109,76	150,05	0,03010	
13,08	-0,3999	109,12	150,05	0,03005	
13,10	-0,3989	108,10	150,05	0,03014	
13,12	-0,3978	107,71	150,05	0,03028	
13,14	-0,3966	107,67	150,05	0,03035	
13,16	-0,3952	107,64	150,05	0,03034	
13,18	-0,3939	107,64	150,05	0,03020	
13,20	-0,3925	107,61	150,05	0,03011	
13,22	-0,3912	107,62	150,05	0,03005	
13,24	-0,3898	107,65	150,05	0,03008	
13,26	-0,3885	107,65	150,05	0,03026	
13,28	-0,3872	107,69	150,05	0,03039	
13,30	-0,3858	107,77	150,05	0,03038	
13,32	-0,3845	107,75	150,05	0,03032	
13,34	-0,3831	107,38	150,05	0,03020	
13,36	-0,3818	105,96	150,05	0,03004	
13,38	-0,3804	104,71	150,05	0,03006	
13,40	-0,3790	104,27	150,05	0,03016	
13,42	-0,3774	104,24	150,05	0,03026	
13,44	-0,3758	104,29	150,05	0,03031	
13,46	-0,3744	104,31	150,05	0,03033	
13,48	-0,3730	104,33	150,05	0,03025	
13,50	-0,3717	104,32	150,05	0,03017	
13,52	-0,3704	104,30	150,05	0,03019	
13,54	-0,3690	104,29	150,05	0,03022	
13,56	-0,3677	104,31	150,05	0,03027	
13,58	-0,3664	104,32	150,05	0,03035	
13,60	-0,3650	104,29	150,05	0,03036	
13,62	-0,3637	104,25	150,05	0,03027	
13,64	-0,3623	104,24	150,05	0,03022	
13,66	-0,3610	104,27	150,05	0,03023	
13,68	-0,3596	104,30	150,05	0,03022	
13,70	-0,3583	103,50	150,05	0,03028	
13,72	-0,3566	101,97	150,05	0,03040	
13,74	-0,3550	101,13	150,05	0,03043	
13,76	-0,3536	101,00	150,05	0,03034	
13,78	-0,3522	101,04	150,05	0,03021	
13,80	-0,3509	101,07	150,05	0,03015	
13,82	-0,3495	101,03	150,05	0,03021	
13,84	-0,3482	101,02	150,05	0,03032	
13,86	-0,3468	100,97	150,05	0,03038	
13,88	-0,3452	100,93	150,05	0,03040	
13,90	-0,3436	100,97	150,05	0,03032	
13,92	-0,3421	100,93	150,05	0,03022	
13,94	-0,3408	100,89	150,05	0,03017	
13,96	-0,3394	100,92	150,05	0,03015	
13,98	-0,3378	100,94	150,05	0,03024	
14,00	-0,3362	100,97	150,05	0,03043	
14,02	-0,3348	100,99	150,05	0,03052	
14,04	-0,3334	100,96	150,05	0,03050	
14,06	-0,3321	100,96	150,05	0,03039	
14,08	-0,3307	100,91	150,05	0,03033	
14,10	-0,3291	100,63	150,05	0,03028	
14,12	-0,3275	99,25	150,05	0,03025	
14,14	-0,3260	98,16	150,05	0,03030	
14,16	-0,3247	99,08	150,05	0,03040	
14,18	-0,3232	100,36	150,05	0,03041	
14,20	-0,3215	100,85	150,05	0,03025	
14,22	-0,3200	100,63	150,05	0,03011	
14,24	-0,3186	99,82	150,05	0,03015	
14,26	-0,3171	98,71	150,05	0,03020	
14,28	-0,3155	97,79	150,05	0,03023	
14,30	-0,3140	97,45	150,05	0,03030	
14,32	-0,3126	97,46	150,04	0,03036	
14,34	-0,3109	97,51	150,04	0,03032	
14,36	-0,3093	97,54	150,04	0,03020	
14,38	-0,3079	97,56	150,04	0,03011	
14,40	-0,3064	97,53	150,05	0,03017	
14,42	-0,3047	97,53	150,05	0,03030	
14,44	-0,3032	97,57	150,05	0,03046	
14,46	-0,3018	97,58	150,05	0,03052	
14,48	-0,3002	97,55	150,05	0,03046	
14,50	-0,2986	97,48	150,05	0,03033	
14,52	-0,2972	97,45	150,05	0,03020	
14,54	-0,2958	97,45	150,05	0,03017	
14,56	-0,2942	96,60	150,05	0,03029	
14,58	-0,2926	95,03	150,05	0,03041	
14,60	-0,2911	94,18	150,05	0,03042	
14,62	-0,2895	94,02	150,05	0,03039	
14,64	-0,2879	94,05	150,05	0,03027	
14,66	-0,2863	94,04	150,05	0,03016	
14,68	-0,2846	94,03	150,05	0,03013	
14,70	-0,2831	93,97	150,05	0,03021	
14,72	-0,2816	93,93	150,05	0,03035	
14,74	-0,2799	93,91	150,05	0,03045	
14,76	-0,2784	93,97	150,05	0,03046	
14,78	-0,2767	94,03	150,17	0,03039	
14,80	-0,2751	94,02	150,66	0,03029	
14,82	-0,2735	93,98	151,38	0,03022	
14,84	-0,2719	94,00	151,90	0,03031	
14,86	-0,2703	94,01	152,88	0,03046	
14,88	-0,2686	93,98	154,82	0,03053	
14,90	-0,2671	93,97	156,99	0,03051	
14,92	-0,2655	93,88	159,02	0,03042	
14,94	-0,2638	93,86	160,77	0,03026	
14,96	-0,2622	93,67	162,28	0,03020	
14,98	-0,2606	92,35	164,07	0,03026	
15,00	-0,2589	91,17	165,97	0,03034	
15,02	-0,2572	90,78	167,55	0,03040	
15,04	-0,2556	90,72	168,81	0,03048	
15,06	-0,2539	90,69	169,92	0,03046	
15,08	-0,2522	90,74	171,06	0,03035	
15,10	-0,2505	90,77	172,32	0,03028	
15,12	-0,2488	90,72	174,07	0,03029	
15,14	-0,2471	90,72	175,95	0,03036	
15,16	-0,2455	90,70	177,62	0,03044	
15,18	-0,2438	90,65	179,16	0,03046	
15,20	-0,2422	90,61	180,61	0,03046	
15,22	-0,2404	90,61	181,92	0,03041	
15,24	-0,2387	90,66	183,14	0,03031	
15,26	-0,2369	90,66	184,51	0,03022	
15,28	-0,2352	90,63	185,93	0,03023	
15,30	-0,2336	90,65	187,36	0,03033	
15,32	-0,2319	90,67	188,87	0,03046	
15,34	-0,2302	89,86	190,27	0,03047	
15,36	-0,2284	88,33	191,51	0,03046	
15,38	-0,2267	87,52	192,76	0,03046	
15,40	-0,2250	87,35	194,09	0,03040	
15,42	-0,2233	87,30	195,47	0,03038	
15,44	-0,2215	87,31	196,92	0,03042	
15,46	-0,2198	87,28	198,27	0,03050	
15,48	-0,2181	87,03	199,66	0,03054	
15,50	-0,2163	85,70	201,06	0,03050	
15,52	-0,2145	84,43	202,41	0,03035	
15,54	-0,2128	84,05	203,74	0,03018	
15,56	-0,2110	84,05	205,09	0,03020	
15,58	-0,2092	84,02	206,56	0,03036	
15,60	-0,2074	83,98	208,15	0,03050	
15,62	-0,2056	83,96	209,62	0,03051	
15,64	-0,2038	83,99	210,96	0,03040	
15,66	-0,2020	84,00	212,35	0,03027	
15,68	-0,2002	83,98	213,77	0,03027	
15,70	-0,1984	83,93	215,15	0,03034	
15,72	-0,1966	83,87	216,60	0,03040	
15,74	-0,1948	83,86	218,08	0,03047	
15,76	-0,1930	83,87	219,46	0,03048	
15,78	-0,1911	83,86	220,80	0,03044	
15,80	-0,1892	83,90	222,17	0,03032	
15,82	-0,1874	83,94	223,58	0,03026	
15,84	-0,1856	83,95	224,99	0,03030	
15,86	-0,1837	83,98	226,40	0,03045	
15,88	-0,1819	84,04	227,85	0,03054	
15,90	-0,1800	84,09	229,37	0,03051	
15,92	-0,1782	84,12	230,84	0,03040	
15,94	-0,1763	84,08	232,27	0,03025	
15,96	-0,1745	83,24	233,75	0,03016	
15,98	-0,1726	81,71	235,27	0,03014	
16,00	-0,1706	80,84	236,72	0,03029	
16,02	-0,1687	80,66	238,15	0,03046	
16,04	-0,1668	80,74	239,57	0,03049	
16,06	-0,1649	80,81	240,99	0,03040	
16,08	-0,1630	80,78	242,43	0,03031	
16,10	-0,1612	80,66	243,88	0,03031	
16,12	-0,1594	80,58	245,33	0,03036	
16,14	-0,1575	80,61	246,82	0,03046	
16,16	-0,1555	79,85	248,31	0,03049	
16,18	-0,1536	78,32	249,78	0,03050	
16,20	-0,1517	77,41	251,27	0,03045	
16,22	-0,1498	77,13	252,75	0,03034	
16,24	-0,1478	77,12	254,19	0,03022	
16,26	-0,1459	77,16	255,64	0,03018	
16,28	-0,1440	77,19	257,16	0,03027	
16,30	-0,1421	77,21	259,31	0,03038	
16,32	-0,1401	77,24	262,76	0,03051	
16,34	-0,1380	77,31	266,99	0,03058	
16,36	-0,1360	77,35	270,13	0,03055	
16,38	-0,1340	77,33	271,93	0,03042	
16,40	-0,1320	77,30	273,22	0,03033	
16,42	-0,1301	77,24	274,62	0,03039	
16,44	-0,1282	77,23	276,10	0,03048	
16,46	-0,1263	78,05	277,49	0,03050	
16,48	-0,1243	79,61	278,96	0,03047	
16,50	-0,1223	80,45	280,48	0,03034	
16,52	-0,1203	80,58	282,02	0,03027	
16,54	-0,1184	80,52	283,51	0,03032	
16,56	-0,1165	80,48	284,95	0,03045	
16,58	-0,1147	80,43	286,52	0,03053	
16,60	-0,1128	79,70	288,09	0,03056	
16,62	-0,1109	78,17	289,64	0,03058	
16,64	-0,1089	77,26	291,27	0,03049	
16,66	-0,1068	77,12	292,89	0,03033	
16,68	-0,1048	77,20	294,44	0,03024	
16,70	-0,1028	77,16	296,02	0,03027	
16,72	-0,1008	77,06	297,65	0,03036	
16,74	-0,09876	77,01	299,27	0,03049	
16,76	-0,09675	76,29	300,91	0,03057	
16,78	-0,09473	74,85	302,53	0,03045	
16,80	-0,09271	73,98	304,18	0,03033	
16,82	-0,09069	73,77	305,88	0,03034	
16,84	-0,08866	73,78	307,51	0,03042	
16,86	-0,08664	73,80	309,20	0,03053	
16,88	-0,08463	73,05	310,90	0,03061	
16,90	-0,08262	71,61	312,56	0,03056	
16,92	-0,08060	70,76	314,15	0,03043	
16,94	-0,07858	70,49	315,87	0,03031	
16,96	-0,07645	70,50	317,64	0,03030	
16,98	-0,07430	70,53	319,33	0,03038	
17,00	-0,07219	70,53	321,04	0,03046	
17,02	-0,07001	70,54	322,81	0,03051	
17,04	-0,06789	70,52	324,59	0,03050	
17,06	-0,06585	70,50	326,32	0,03036	
17,08	-0,06372	70,47	328,05	0,03025	
17,10	-0,06156	70,45	329,77	0,03025	
17,12	-0,05941	69,62	331,56	0,03032	
17,14	-0,05709	67,65	333,20	0,03046	
17,16	-0,05495	70,10	334,22	0,03057	
17,18	-0,05292	80,36	334,60	0,03061	
17,20	-0,05084	94,98	334,69	0,03053	
17,22	-0,04884	110,04	334,82	0,03037	
17,24	-0,04701	122,45	335,29	0,03033	
17,26	-0,04580	128,36	336,01	0,03040	
17,28	-0,04516	129,32	336,78	0,03051	
17,30	-0,04441	127,37	337,67	0,03054	
17,32	-0,04353	126,06	338,51	0,03053	
17,34	-0,04256	129,12	339,23	0,03043	
17,36	-0,04146	133,24	340,09	0,03034	
17,38	-0,04053	134,66	340,98	0,03035	
17,40	-0,03988	135,06	341,76	0,03045	
17,42	-0,03942	135,11	342,52	0,03055	
17,44	-0,03878	131,87	343,40	0,03063	
17,46	-0,03792	128,88	344,31	0,03065	
17,48	-0,03710	129,88	345,04	0,03056	
17,50	-0,03628	130,57	345,80	0,03044	
17,52	-0,03544	128,69	346,71	0,03043	
17,54	-0,03462	127,96	347,54	0,03043	
17,56	-0,03387	129,16	348,29	0,03049	
17,58	-0,03315	128,72	349,10	0,03058	
17,60	-0,03232	126,75	349,99	0,03063	
17,62	-0,03153	126,46	350,82	0,03063	
17,64	-0,03081	127,10	351,61	0,03048	
17,66	-0,03012	126,20	352,42	0,03036	
17,68	-0,02942	124,92	353,22	0,03043	
17,70	-0,02862	124,13	354,05	0,03056	
17,72	-0,02797	122,77	354,89	0,03062	
17,74	-0,02743	121,36	355,70	0,03058	
17,76	-0,02682	119,57	356,50	0,03049	
17,78	-0,02615	117,74	357,34	0,03039	
17,80	-0,02543	116,88	358,18	0,03033	
17,82	-0,02457	115,77	359,03	0,03035	
17,84	-0,02377	114,20	359,85	0,03048	
17,86	-0,02310	114,35	360,60	0,03059	
17,88	-0,02232	115,47	361,39	0,03059	
17,90	-0,02145	114,80	362,29	0,03052	
17,92	-0,02073	114,24	363,16	0,03046	
17,94	-0,02007	114,97	363,91	0,03041	
17,96	-0,01924	115,26	364,70	0,03044	
17,98	-0,01837	113,95	365,61	0,03052	
18,00	-0,01770	114,91	366,42	0,03057	
18,02	-0,01706	116,72	367,18	0,03053	
18,04	-0,01623	116,19	368,07	0,03046	
18,06	-0,01541	115,18	368,94	0,03037	
18,08	-0,01471	116,66	369,68	0,03031	
18,10	-0,01404	117,47	370,46	0,03036	
18,12	-0,01332	115,75	371,36	0,03043	
18,14	-0,01265	115,34	372,20	0,03051	
18,16	-0,01202	116,14	372,94	0,03063	
18,18	-0,01133	115,12	373,78	0,03063	
18,20	-0,01063	113,87	374,64	0,03051	
18,22	-0,01000	114,93	375,43	0,03044	
18,24	-0,00934	115,48	376,23	0,03046	
18,26	-0,00865	114,35	377,08	0,03053	
18,28	-0,00796	113,44	377,93	0,03061	
18,30	-0,00728	112,95	378,76	0,03065	
18,32	-0,00663	112,82	379,52	0,03059	
18,34	-0,00594	113,60	380,34	0,03047	
18,36	-0,00523	113,46	381,24	0,03034	
18,38	-0,00462	114,44	382,01	0,03032	
18,40	-0,00408	115,98	382,80	0,03031	
18,42	-0,00349	115,06	383,68	0,03042	
18,44	-0,00293	114,35	384,47	0,03054	
18,46	-0,00226	115,31	385,30	0,03057	
18,48	-0,00152	114,75	386,16	0,03061	
18,50	-0,00091	114,95	386,93	0,03056	
18,52	-0,00022	116,36	387,75	0,03042	
18,54	0,00046	116,61	388,60	0,03040	
18,56	0,00091	117,02	389,38	0,03051	
18,58	0,00148	118,24	390,21	0,03053	
18,60	0,00218	117,95	391,08	0,03056	
18,62	0,00281	118,02	391,91	0,03058	
18,64	0,00338	119,00	392,74	0,03053	
18,66	0,00390	119,30	393,56	0,03048	
18,68	0,00446	120,03	394,35	0,03043	
18,70	0,00514	121,32	395,16	0,03049	
18,72	0,00580	121,54	395,98	0,03067	
18,74	0,00631	121,63	396,79	0,03079	
18,76	0,00687	122,00	397,62	0,03076	
18,78	0,00740	122,49	398,44	0,03066	
18,80	0,00791	123,76	399,26	0,03050	
18,82	0,00855	124,29	400,11	0,03045	
18,84	0,00918	124,56	400,92	0,03047	
18,86	0,00966	125,51	401,72	0,03057	
18,88	0,01021	126,29	402,57	0,03067	
18,90	0,01073	126,81	403,39	0,03068	
18,92	0,01119	128,38	404,18	0,03059	
18,94	0,01163	129,54	405,01	0,03050	
18,96	0,01212	128,63	405,89	0,03047	
18,98	0,01259	128,66	406,72	0,03049	
19,00	0,01298	129,57	407,46	0,03054	
19,02	0,01352	128,91	408,25	0,03061	
19,04	0,01409	128,20	409,11	0,03062	
19,06	0,01458	128,55	409,96	0,03055	
19,08	0,01501	128,87	410,80	0,03048	
19,10	0,01546	128,92	411,63	0,03045	
19,12	0,01597	129,68	412,44	0,03053	
19,14	0,01649	132,10	413,23	0,03065	
19,16	0,01703	133,02	414,11	0,03070	
19,18	0,01751	132,26	414,96	0,03069	
19,20	0,01787	133,18	415,68	0,03061	
19,22	0,01834	133,94	416,49	0,03045	
19,24	0,01885	132,24	417,37	0,03036	
19,26	0,01924	131,63	418,17	0,03043	
19,28	0,01959	131,75	418,97	0,03061	
19,30	0,01999	130,67	419,81	0,03081	
19,32	0,02038	130,31	420,64	0,03084	
19,34	0,02083	130,92	421,50	0,03071	
19,36	0,02131	130,08	422,33	0,03052	
19,38	0,02168	130,28	423,08	0,03043	
19,40	0,02212	130,57	423,88	0,03045	
19,42	0,02262	130,34	424,75	0,03053	
19,44	0,02306	130,70	425,59	0,03066	
19,46	0,02349	131,60	426,39	0,03072	
19,48	0,02397	131,36	427,23	0,03065	
19,50	0,02443	130,71	428,07	0,03052	
19,52	0,02481	131,57	428,83	0,03051	
19,54	0,02528	131,42	429,65	0,03053	
19,56	0,02578	129,91	430,53	0,03059	
19,58	0,02617	129,97	431,32	0,03068	
19,60	0,02661	130,55	432,11	0,03068	
19,62	0,02709	129,67	432,95	0,03063	
19,64	0,02751	129,08	433,78	0,03046	
19,66	0,02798	128,74	434,61	0,03040	
19,68	0,02845	127,79	435,42	0,03049	
19,70	0,02897	127,76	436,22	0,03061	
19,72	0,02953	127,87	437,04	0,03067	
19,74	0,03003	127,92	437,88	0,03066	
19,76	0,03044	128,02	438,69	0,03057	
19,78	0,03086	128,49	439,48	0,03042	
19,80	0,03137	128,76	440,33	0,03037	
19,82	0,03195	128,81	441,19	0,03045	
19,84	0,03241	129,02	441,96	0,03056	
19,86	0,03288	128,82	442,75	0,03063	
19,88	0,03339	127,24	443,62	0,03072	
19,90	0,03380	126,79	444,43	0,03069	
19,92	0,03425	127,09	445,27	0,03054	
19,94	0,03474	125,59	446,12	0,03040	
19,96	0,03513	125,14	446,88	0,03040	
19,98	0,03568	126,33	447,69	0,03052	
20,00	0,03627	125,23	448,57	0,03070	
20,02	0,03671	123,63	449,39	0,03079	
20,04	0,03718	123,67	450,22	0,03074	
20,06	0,03776	122,91	451,04	0,03058	
20,08	0,03832	122,51	451,77	0,03045	
20,10	0,03892	123,13	452,64	0,03038	
20,12	0,03946	122,05	453,51	0,03046	
20,14	0,03982	121,66	454,29	0,03059	
20,16	0,04028	121,61	455,15	0,03071	
20,18	0,04083	120,24	456,00	0,03070	
20,20	0,04133	120,27	456,75	0,03052	
20,22	0,04185	120,58	457,57	0,03038	
20,24	0,04244	119,12	458,41	0,03036	
20,26	0,04304	118,92	459,21	0,03045	
20,28	0,04362	119,32	460,04	0,03055	
20,30	0,04416	118,70	460,84	0,03065	
20,32	0,04471	118,20	461,66	0,03070	
20,34	0,04525	117,49	462,55	0,03057	
20,36	0,04570	116,95	463,34	0,03039	
20,38	0,04614	117,35	464,11	0,03033	
20,40	0,04679	115,95	464,99	0,03041	
20,42	0,04743	114,38	465,79	0,03051	
20,44	0,04790	114,99	466,55	0,03060	
20,46	0,04849	113,85	467,44	0,03064	
20,48	0,04900	111,83	468,25	0,03062	
20,50	0,04945	111,78	469,05	0,03052	
20,52	0,04994	110,99	469,94	0,03044	
20,54	0,05045	109,95	470,72	0,03046	
20,56	0,05109	110,42	471,50	0,03053	
20,58	0,05181	109,30	472,39	0,03056	
20,60	0,05244	108,08	473,18	0,03058	
20,62	0,05298	108,88	473,97	0,03059	
20,64	0,05355	108,27	474,84	0,03052	
20,66	0,05411	107,70	475,63	0,03046	
20,68	0,05474	108,63	476,47	0,03048	
20,70	0,05532	108,16	477,33	0,03060	
20,72	0,05582	107,58	478,06	0,03068	
20,74	0,05648	107,19	478,88	0,03068	
20,76	0,05723	105,23	479,78	0,03067	
20,78	0,05781	105,53	480,53	0,03054	
20,80	0,05840	106,88	481,38	0,03037	
20,82	0,05910	105,70	482,24	0,03036	
20,84	0,05974	106,51	482,95	0,03049	
20,86	0,06040	107,50	483,83	0,03055	
20,88	0,06103	105,13	484,76	0,03064	
20,90	0,06154	104,11	485,50	0,03067	
20,92	0,06221	104,28	486,32	0,03055	
20,94	0,06292	102,71	487,15	0,03047	
20,96	0,06347	102,73	487,87	0,03038	
20,98	0,06402	103,12	488,76	0,03041	
21,00	0,06462	101,42	489,65	0,03056	
21,02	0,06520	101,73	490,41	0,03071	
21,04	0,06588	102,17	491,22	0,03070	
21,06	0,06656	100,47	492,03	0,03060	
21,08	0,06720	99,96	492,82	0,03048	
21,10	0,06789	100,10	493,70	0,03038	
21,12	0,06856	100,02	494,49	0,03044	
21,14	0,06918	100,63	495,25	0,03063	
21,16	0,06993	99,63	496,17	0,03074	
21,18	0,07059	98,61	496,99	0,03080	
21,20	0,07123	100,47	497,75	0,03072	
21,22	0,07186	100,14	498,63	0,03053	
21,24	0,07245	98,23	499,42	0,03043	
21,26	0,07308	98,23	500,22	0,03044	
21,28	0,07372	98,00	501,11	0,03049	
21,30	0,07428	97,64	501,85	0,03065	
21,32	0,07492	98,87	502,63	0,03075	
21,34	0,07570	97,92	503,62	0,03067	
21,36	0,07640	97,34	504,45	0,03054	
21,38	0,07710	98,60	505,22	0,03045	
21,40	0,07776	97,93	506,05	0,03047	
21,42	0,07842	96,62	506,79	0,03060	
21,44	0,07913	96,96	507,60	0,03068	
21,46	0,07989	95,69	508,49	0,03065	
21,48	0,08059	95,08	509,23	0,03056	
21,50	0,08133	95,98	510,07	0,03045	
21,52	0,08210	94,94	510,99	0,03038	
21,54	0,08269	94,82	511,75	0,03041	
21,56	0,08338	95,91	512,57	0,03046	
21,58	0,08415	94,37	513,44	0,03059	
21,60	0,08486	93,86	514,18	0,03065	
21,62	0,08567	94,66	515,03	0,03058	
21,64	0,08643	93,76	515,87	0,03045	
21,66	0,08699	94,38	516,56	0,03037	
21,68	0,08771	95,53	517,45	0,03041	
21,70	0,08848	93,51	518,40	0,03056	
21,72	0,08907	92,64	519,16	0,03068	
21,74	0,08976	92,67	519,99	0,03073	
21,76	0,09057	91,05	520,79	0,03066	
21,78	0,09131	91,38	521,51	0,03055	
21,80	0,09209	91,71	522,40	0,03044	
21,82	0,09285	90,00	523,27	0,03041	
21,84	0,09361	89,79	524,03	0,03053	
21,86	0,09442	89,17	524,90	0,03070	
21,88	0,09512	87,66	525,70	0,03083	
21,90	0,09583	88,74	526,42	0,03087	
21,92	0,09670	88,88	527,34	0,03070	
21,94	0,09749	87,56	528,22	0,03050	
21,96	0,09828	88,62	528,99	0,03043	
21,98	0,09911	88,96	529,83	0,03049	
22,00	0,09981	87,91	530,59	0,03059	
22,02	0,1006	88,24	531,37	0,03068	
22,04	0,1014	87,82	532,31	0,03067	
22,06	0,1021	86,60	533,10	0,03063	
22,08	0,1028	86,79	533,87	0,03052	
22,10	0,1036	85,41	534,79	0,03046	
22,12	0,1043	84,68	535,58	0,03047	
22,14	0,1051	86,46	536,33	0,03052	
22,16	0,1060	85,71	537,20	0,03059	
22,18	0,1068	84,39	537,99	0,03065	
22,20	0,1077	85,14	538,79	0,03068	
22,22	0,1085	84,44	539,66	0,03061	
22,24	0,1091	83,04	540,40	0,03050	
22,26	0,1099	82,27	541,25	0,03043	
22,28	0,1109	80,27	542,19	0,03049	
22,30	0,1115	80,19	542,91	0,03064	
22,32	0,1124	81,27	543,70	0,03070	
22,34	0,1134	79,54	544,61	0,03064	
22,36	0,1141	79,47	545,33	0,03058	
22,38	0,1149	79,72	546,19	0,03047	
22,40	0,1158	77,44	547,11	0,03046	
22,42	0,1166	76,68	547,82	0,03049	
22,44	0,1175	76,38	548,67	0,03055	
22,46	0,1184	73,50	549,60	0,03068	
22,48	0,1191	72,64	550,30	0,03070	
22,50	0,1200	72,84	551,12	0,03058	
22,52	0,1210	70,32	552,08	0,03045	
22,54	0,1218	69,78	552,85	0,03043	
22,56	0,1227	70,81	553,56	0,03046	
22,58	0,1236	69,61	554,36	0,03057	
22,60	0,1246	68,11	555,18	0,03067	
22,62	0,1255	68,37	555,95	0,03065	
22,64	0,1264	67,01	556,79	0,03061	
22,66	0,1273	64,30	557,65	0,03051	
22,68	0,1282	63,11	558,41	0,03043	
22,70	0,1293	62,50	559,25	0,03040	
22,72	0,1303	60,86	560,17	0,03044	
22,74	0,1313	60,55	560,91	0,03060	
22,76	0,1323	60,20	561,72	0,03071	
22,78	0,1334	57,35	562,72	0,03071	
22,80	0,1343	55,94	563,49	0,03059	
22,82	0,1353	55,80	564,20	0,03047	
22,84	0,1364	53,14	565,10	0,03046	
22,86	0,1374	50,16	565,91	0,03048	
22,88	0,1384	49,75	566,63	0,03054	
22,90	0,1395	48,18	567,45	0,03067	
22,92	0,1407	44,86	568,33	0,03070	
22,94	0,1419	43,22	569,10	0,03057	
22,96	0,1430	42,59	569,88	0,03044	
22,98	0,1441	39,24	570,84	0,03043	
23,00	0,1453	36,94	571,66	0,03055	
23,02	0,1466	36,65	572,38	0,03063	
23,04	0,1480	34,02	573,31	0,03071	
23,06	0,1494	31,13	574,15	0,03069	
23,08	0,1505	30,95	574,85	0,03060	
23,10	0,1516	29,65	575,69	0,03052	
23,12	0,1529	25,92	576,57	0,03047	
23,14	0,1543	24,02	577,26	0,03048	
23,16	0,1556	24,32	577,95	0,03054	
23,18	0,1571	22,41	578,98	0,03065	
23,20	0,1587	19,27	580,03	0,03075	
23,22	0,1601	18,21	580,71	0,03065	
23,24	0,1614	17,38	581,34	0,03047	
23,26	0,1628	14,19	582,28	0,03040	
23,28	0,1643	11,09	583,29	0,03045	
23,30	0,1657	13,27	583,95	0,03059	
23,32	0,1673	13,73	584,70	0,03063	
23,34	0,1689	10,86	585,71	0,03057	
23,36	0,1702	10,24	586,50	0,03050	
23,38	0,1717	11,87	587,12	0,03048	
23,40	0,1733	10,78	587,97	0,03048	
23,42	0,1749	7,635	588,99	0,03048	
23,44	0,1762	8,236	589,77	0,03056	
23,46	0,1777	9,963	590,48	0,03068	
23,48	0,1794	8,168	591,41	0,03075	
23,50	0,1809	7,683	592,24	0,03071	
23,52	0,1823	10,35	592,93	0,03059	
23,54	0,1838	11,09	593,77	0,03048	
23,56	0,1855	10,00	594,67	0,03051	
23,58	0,1870	12,54	595,34	0,03064	
23,60	0,1883	16,22	596,06	0,03068	
23,62	0,1897	16,06	597,19	0,03067	
23,64	0,1913	16,19	598,26	0,03067	
23,66	0,1927	20,52	598,84	0,03059	
23,68	0,1941	25,53	599,27	0,03055	
23,70	0,1956	26,86	600,25	0,03048	
23,72	0,1972	26,34	601,64	0,03058	
23,74	0,1985	29,59	602,55	0,03077	
23,76	0,1997	36,58	602,91	0,03082	
23,78	0,2010	39,95	603,60	0,03070	
23,80	0,2025	38,68	604,75	0,03052	
23,82	0,2037	42,31	605,64	0,03040	
23,84	0,2046	47,66	606,18	0,03044	
23,86	0,2058	49,14	606,83	0,03058	
23,88	0,2072	47,85	607,84	0,03068	
23,90	0,2082	51,50	608,78	0,03068	
23,92	0,2091	57,32	609,52	0,03067	
23,94	0,2100	59,52	610,26	0,03060	
23,96	0,2112	60,17	611,05	0,03051	
23,98	0,2122	62,31	611,89	0,03048	
24,00	0,2132	64,86	612,73	0,03050	
24,02	0,2141	66,23	613,53	0,03059	
24,04	0,2149	67,73	614,32	0,03068	
24,06	0,2158	69,41	615,17	0,03073	
24,08	0,2167	70,92	616,02	0,03063	
24,10	0,2176	72,89	616,82	0,03049	
24,12	0,2185	74,52	617,64	0,03039	
24,14	0,2194	74,97	618,49	0,03043	
24,16	0,2203	75,69	619,29	0,03063	
24,18	0,2212	77,27	620,11	0,03078	
24,20	0,2220	78,01	620,98	0,03075	
24,22	0,2228	79,57	621,74	0,03062	
24,24	0,2236	81,08	622,53	0,03053	
24,26	0,2245	80,66	623,44	0,03054	
24,28	0,2252	81,71	624,23	0,03059	
24,30	0,2260	83,73	625,00	0,03066	
24,32	0,2269	83,17	625,91	0,03070	
24,34	0,2277	83,13	626,68	0,03070	
24,36	0,2284	84,85	627,47	0,03058	
24,38	0,2292	84,51	628,37	0,03047	
24,40	0,2299	84,73	629,11	0,03045	
24,42	0,2307	87,17	629,90	0,03049	
24,44	0,2315	86,18	630,85	0,03060	
24,46	0,2322	85,15	631,66	0,03073	
24,48	0,2330	87,22	632,44	0,03073	
24,50	0,2339	87,56	633,29	0,03065	
24,52	0,2347	86,87	634,07	0,03055	
24,54	0,2355	87,81	634,87	0,03047	
24,56	0,2362	88,27	635,71	0,03051	
24,58	0,2368	88,15	636,49	0,03063	
24,60	0,2375	88,45	637,37	0,03076	
24,62	0,2383	88,43	638,23	0,03084	
24,64	0,2390	89,50	638,93	0,03070	
24,66	0,2398	89,88	639,78	0,03047	
24,68	0,2406	87,84	640,69	0,03040	
24,70	0,2411	87,99	641,46	0,03049	
24,72	0,2419	88,48	642,28	0,03054	
24,74	0,2427	86,86	643,07	0,03058	
24,76	0,2435	86,54	643,81	0,03062	
24,78	0,2442	85,92	644,72	0,03056	
24,80	0,2449	84,09	645,59	0,03045	
24,82	0,2456	83,85	646,34	0,03039	
24,84	0,2465	82,82	647,21	0,03042	
24,86	0,2472	80,92	648,03	0,03046	
24,88	0,2479	81,87	648,76	0,03054	
24,90	0,2486	82,04	649,68	0,03063	
24,92	0,2494	80,19	650,54	0,03058	
24,94	0,2502	80,62	651,32	0,03047	
24,96	0,2510	80,34	652,19	0,03037	
24,98	0,2518	79,44	652,92	0,03036	
25,00	0,2525	80,16	653,65	0,03045	
25,02	0,2534	78,82	654,64	0,03057	
25,04	0,2542	77,29	655,53	0,03067	
25,06	0,2549	78,87	656,25	0,03068	
25,08	0,2558	78,60	657,07	0,03056	
25,10	0,2566	76,20	657,84	0,03041	
25,12	0,2575	76,27	658,66	0,03032	
25,14	0,2583	75,99	659,58	0,03036	
25,16	0,2591	74,83	660,34	0,03054	
25,18	0,2599	75,22	661,13	0,03071	
25,20	0,2607	74,43	662,03	0,03073	
25,22	0,2615	74,38	662,80	0,03058	
25,24	0,2624	75,76	663,58	0,03040	
25,26	0,2633	74,88	664,44	0,03036	
25,28	0,2642	74,43	665,20	0,03050	
25,30	0,2650	75,00	666,05	0,03064	
25,32	0,2659	73,64	666,98	0,03072	
25,34	0,2666	73,30	667,72	0,03066	
25,36	0,2674	73,98	668,52	0,03054	
25,38	0,2683	72,34	669,39	0,03046	
25,40	0,2691	72,06	670,13	0,03043	
25,42	0,2700	72,64	670,98	0,03046	
25,44	0,2710	70,94	671,86	0,03055	
25,46	0,2718	71,15	672,61	0,03065	
25,48	0,2726	71,56	673,48	0,03075	
25,50	0,2735	69,79	674,36	0,03067	
25,52	0,2742	69,72	675,08	0,03051	
25,54	0,2751	69,75	675,94	0,03043	
25,56	0,2761	67,83	676,78	0,03046	
25,58	0,2769	68,57	677,49	0,03057	
25,60	0,2779	68,66	678,39	0,03068	
25,62	0,2788	66,08	679,31	0,03067	
25,64	0,2796	66,58	680,04	0,03055	
25,66	0,2805	67,42	680,86	0,03043	
25,68	0,2814	65,74	681,66	0,03041	
25,70	0,2823	65,29	682,42	0,03039	
25,72	0,2832	65,83	683,30	0,03043	
25,74	0,2841	64,69	684,09	0,03057	
25,76	0,2851	65,53	684,83	0,03066	
25,78	0,2861	64,93	685,83	0,03063	
25,80	0,2871	62,36	686,81	0,03054	
25,82	0,2879	62,85	687,47	0,03043	
25,84	0,2887	63,75	688,10	0,03046	
25,86	0,2898	61,14	689,02	0,03056	
25,88	0,2909	59,43	689,92	0,03069	
25,90	0,2917	62,51	690,61	0,03072	
25,92	0,2926	62,54	691,48	0,03062	
25,94	0,2938	58,65	692,52	0,03047	
25,96	0,2947	58,48	693,29	0,03040	
25,98	0,2955	60,38	693,88	0,03045	
26,00	0,2964	58,19	694,69	0,03049	
26,02	0,2974	53,63	695,66	0,03057	
26,04	0,2982	53,47	696,41	0,03071	
26,06	0,2990	53,07	697,19	0,03070	
26,08	0,3000	49,43	698,12	0,03057	
26,10	0,3009	48,11	698,93	0,03048	
26,12	0,3018	48,44	699,70	0,03043	
26,14	0,3028	46,40	700,52	0,03051	
26,16	0,3037	44,01	701,29	0,03061	
26,18	0,3047	43,49	702,14	0,03069	
26,20	0,3057	42,08	703,00	0,03063	
26,22	0,3066	41,61	703,73	0,03051	
26,24	0,3076	41,52	704,57	0,03040	
26,26	0,3087	39,45	705,50	0,03038	
26,28	0,3096	39,10	706,28	0,03048	
26,30	0,3105	38,87	707,08	0,03056	
26,32	0,3115	36,39	707,93	0,03068	
26,34	0,3125	34,62	708,71	0,03072	
26,36	0,3135	34,10	709,54	0,03065	
26,38	0,3145	32,53	710,40	0,03053	
26,40	0,3155	31,81	711,18	0,03043	
26,42	0,3165	31,80	711,98	0,03045	
26,44	0,3175	30,81	712,79	0,03057	
26,46	0,3186	29,77	713,57	0,03070	
26,48	0,3196	28,66	714,44	0,03072	
26,50	0,3207	26,82	715,29	0,03064	
26,52	0,3216	26,60	716,07	0,03050	
26,54	0,3227	25,89	716,92	0,03046	
26,56	0,3239	23,74	717,76	0,03047	
26,58	0,3250	23,11	718,52	0,03054	
26,60	0,3261	22,45	719,34	0,03070	
26,62	0,3272	20,43	720,19	0,03078	
26,64	0,3282	19,41	720,96	0,03072	
26,66	0,3293	19,14	721,75	0,03051	
26,68	0,3306	17,71	722,62	0,03036	
26,70	0,3317	16,09	723,49	0,03041	
26,72	0,3328	16,35	724,24	0,03054	
26,74	0,3340	15,81	725,08	0,03066	
26,76	0,3354	13,74	725,99	0,03071	
26,78	0,3364	13,99	726,76	0,03062	
26,80	0,3375	14,89	727,55	0,03048	
26,82	0,3388	14,21	728,45	0,03043	
26,84	0,3401	14,48	729,25	0,03048	
26,86	0,3411	16,48	730,01	0,03061	
26,88	0,3422	17,57	730,87	0,03071	
26,90	0,3435	18,40	731,73	0,03075	
26,92	0,3446	21,50	732,46	0,03070	
26,94	0,3457	23,84	733,32	0,03057	
26,96	0,3469	24,63	734,27	0,03047	
26,98	0,3480	28,03	735,03	0,03045	
27,00	0,3491	31,28	735,87	0,03049	
27,02	0,3503	32,35	736,67	0,03062	
27,04	0,3513	35,49	737,30	0,03071	
27,06	0,3524	38,76	738,30	0,03069	
27,08	0,3535	38,22	739,47	0,03057	
27,10	0,3544	40,13	740,18	0,03047	
27,12	0,3552	43,18	740,74	0,03043	
27,14	0,3563	42,77	741,58	0,03045	
27,16	0,3575	42,63	742,43	0,03058	
27,18	0,3584	47,03	743,02	0,03072	
27,20	0,3593	48,61	743,89	0,03071	
27,22	0,3604	45,49	745,23	0,03063	
27,24	0,3613	46,26	746,16	0,03051	
27,26	0,3620	50,42	746,48	0,03048	
27,28	0,3628	51,83	746,99	0,03043	
27,30	0,3639	48,95	748,31	0,03047	
27,32	0,3650	47,80	749,67	0,03061	
27,34	0,3657	50,50	750,12	0,03070	
27,36	0,3664	53,56	750,20	0,03062	
27,38	0,3672	53,47	751,09	0,03051	
27,40	0,3683	50,94	752,76	0,03047	
27,42	0,3692	50,91	753,85	0,03057	
27,44	0,3697	53,50	754,01	0,03069	
27,46	0,3704	54,09	754,46	0,03062	
27,48	0,3716	49,94	755,86	0,03057	
27,50	0,3725	48,08	757,08	0,03048	
27,52	0,3731	51,16	757,36	0,03036	
27,54	0,3737	52,50	757,51	0,03033	
27,56	0,3745	47,75	758,62	0,03032	
27,58	0,3755	43,60	760,30	0,03041	
27,60	0,3763	44,83	761,18	0,03062	
27,62	0,3767	47,84	761,26	0,03072	
27,64	0,3774	46,01	761,92	0,03060	
27,66	0,3784	41,60	763,43	0,03042	
27,68	0,3792	41,70	764,44	0,03036	
27,70	0,3796	44,75	764,58	0,03037	
27,72	0,3801	43,59	764,89	0,03042	
27,74	0,3810	37,71	766,25	0,03052	
27,76	0,3820	35,25	767,78	0,03068	
27,78	0,3826	37,83	768,33	0,03066	
27,80	0,3831	40,29	768,39	0,03054	
27,82	0,3838	37,20	769,33	0,03044	
27,84	0,3847	32,32	770,93	0,03040	
27,86	0,3853	33,00	771,79	0,03049	
27,88	0,3857	36,61	771,81	0,03065	
27,90	0,3863	34,30	772,32	0,03070	
27,92	0,3872	28,42	773,85	0,03058	
27,94	0,3880	26,91	775,21	0,03048	
27,96	0,3884	30,32	775,48	0,03046	
27,98	0,3888	31,41	775,63	0,03038	
28,00	0,3895	27,25	776,84	0,03036	
28,02	0,3904	23,42	778,57	0,03055	
28,04	0,3911	24,11	779,29	0,03071	
28,06	0,3914	26,39	779,26	0,03068	
28,08	0,3919	22,57	780,03	0,03049	
28,10	0,3927	16,40	781,56	0,03037	
28,12	0,3933	16,56	782,43	0,03041	
28,14	0,3937	19,25	782,50	0,03053	
28,16	0,3942	16,56	782,96	0,03062	
28,18	0,3950	11,23	784,48	0,03065	
28,20	0,3957	9,386	785,98	0,03066	
28,22	0,3961	12,51	786,36	0,03059	
28,24	0,3965	15,26	786,39	0,03046	
28,26	0,3972	13,15	787,46	0,03040	
28,28	0,3979	9,390	789,09	0,03047	
28,30	0,3985	11,15	789,79	0,03063	
28,32	0,3988	14,20	789,68	0,03073	
28,34	0,3993	12,17	790,22	0,03068	
28,36	0,4000	8,066	791,89	0,03054	
28,38	0,4008	6,538	793,42	0,03046	
28,40	0,4011	8,885	793,77	0,03048	
28,42	0,4015	8,826	793,97	0,03053	
28,44	0,4023	3,597	795,24	0,03053	
28,46	0,4031	1,255	796,59	0,03057	
28,48	0,4036	6,422	796,93	0,03065	
28,50	0,4040	9,636	796,99	0,03060	
28,52	0,4046	6,037	798,05	0,03051	
28,54	0,4053	2,082	799,76	0,03045	
28,56	0,4058	4,110	800,58	0,03054	
28,58	0,4061	8,477	800,23	0,03074	
28,60	0,4066	11,89	799,73	0,03082	
28,62	0,4074	13,39	799,82	0,03072	
28,64	0,4079	19,03	799,86	0,03060	
28,66	0,4082	27,80	799,64	0,03046	
28,68	0,4088	29,09	799,77	0,03042	
28,70	0,4093	27,11	799,90	0,03049	
28,72	0,4096	33,50	799,66	0,03060	
28,74	0,4100	39,55	799,67	0,03062	
28,76	0,4106	38,41	799,94	0,03058	
28,78	0,4110	42,01	799,83	0,03053	
28,80	0,4114	48,80	799,64	0,03044	
28,82	0,4120	48,89	799,85	0,03042	
28,84	0,4124	49,64	799,87	0,03046	
28,86	0,4126	56,68	799,61	0,03057	
28,88	0,4130	58,08	799,80	0,03064	
28,90	0,4136	54,89	800,10	0,03068	
28,92	0,4138	58,44	799,89	0,03065	
28,94	0,4141	63,68	799,65	0,03054	
28,96	0,4145	61,90	799,81	0,03046	
28,98	0,4149	62,92	799,78	0,03057	
29,00	0,4151	69,77	799,61	0,03068	
29,02	0,4156	69,98	799,80	0,03070	
29,04	0,4160	67,63	799,85	0,03072	
29,06	0,4163	71,84	799,63	0,03067	
29,08	0,4166	73,51	799,77	0,03057	
29,10	0,4170	70,95	799,94	0,03050	
29,12	0,4171	74,72	799,72	0,03054	
29,14	0,4174	79,28	799,65	0,03061	
29,16	0,4179	76,99	799,86	0,03068	
29,18	0,4182	78,24	799,76	0,03071	
29,20	0,4185	82,90	799,62	0,03068	
29,22	0,4190	81,08	799,85	0,03061	
29,24	0,4193	79,14	799,88	0,03052	
29,26	0,4194	84,14	799,62	0,03048	
29,28	0,4198	85,50	799,73	0,03053	
29,30	0,4201	82,67	799,97	0,03067	
29,32	0,4203	85,94	799,78	0,03078	
29,34	0,4205	90,26	799,63	0,03075	
29,36	0,4209	87,59	799,89	0,03061	
29,38	0,4212	86,83	799,90	0,03046	
29,40	0,4213	92,19	799,64	0,03042	
29,42	0,4217	92,31	799,72	0,03056	
29,44	0,4221	88,82	799,86	0,03074	
29,46	0,4223	92,30	799,66	0,03077	
29,48	0,4226	94,48	799,70	0,03072	
29,50	0,4229	90,18	800,04	0,03065	
29,52	0,4231	90,14	799,98	0,03059	
29,54	0,4232	95,46	799,67	0,03056	
29,56	0,4236	94,58	799,78	0,03056	
29,58	0,4239	92,40	799,93	0,03064	
29,60	0,4240	96,79	799,69	0,03070	
29,62	0,4243	99,36	799,62	0,03070	
29,64	0,4247	95,48	799,80	0,03068	
29,66	0,4249	95,93	799,68	0,03058	
29,68	0,4252	99,26	799,63	0,03046	
29,70	0,4254	96,33	799,87	0,03051	
29,72	0,4256	95,30	799,79	0,03075	
29,74	0,4258	99,48	799,65	0,03085	
29,76	0,4262	98,09	799,86	0,03082	
29,78	0,4265	96,11	799,90	0,03068	
29,80	0,4266	100,95	799,65	0,03051	
29,82	0,4268	102,52	799,63	0,03048	
29,84	0,4272	99,75	799,70	0,03060	
29,86	0,4272	102,91	799,54	0,03071	
29,88	0,4276	104,31	799,71	0,03072	
29,90	0,4280	100,66	800,01	0,03077	
29,92	0,4281	101,57	799,84	0,03071	
29,94	0,4284	105,32	799,65	0,03054	
29,96	0,4287	102,36	799,90	0,03047	
29,98	0,4289	100,66	799,97	0,03049	
30,00	0,4290	105,30	799,69	0,03055	
30,02	0,4293	105,28	799,66	0,03063	
30,04	0,4295	102,10	799,71	0,03071	
30,06	0,4297	105,25	799,57	0,03066	
30,08	0,4300	106,55	799,79	0,03052	
30,10	0,4303	103,63	800,01	0,03052	
30,12	0,4304	105,16	799,76	0,03059	
30,14	0,4306	108,66	799,71	0,03062	
30,16	0,4309	106,31	800,03	0,03068	
30,18	0,4311	106,42	799,93	0,03076	
30,20	0,4312	110,28	799,67	0,03072	
30,22	0,4316	106,77	800,01	0,03057	
30,24	0,4319	102,27	800,26	0,03053	
30,26	0,4320	105,45	799,98	0,03058	
30,28	0,4320	109,16	799,67	0,03060	
30,30	0,4325	105,09	799,88	0,03065	
30,32	0,4328	104,32	800,08	0,03074	
30,34	0,4327	109,70	799,82	0,03072	
30,36	0,4329	110,60	799,77	0,03063	
30,38	0,4333	106,38	800,01	0,03060	
30,40	0,4335	108,54	799,87	0,03057	
30,42	0,4337	113,14	799,67	0,03062	
30,44	0,4341	110,06	799,90	0,03064	
30,46	0,4343	107,53	799,97	0,03061	
30,48	0,4344	112,30	799,67	0,03065	
30,50	0,4346	113,87	799,71	0,03059	
30,52	0,4349	110,41	799,97	0,03051	
30,54	0,4351	113,00	799,82	0,03046	
30,56	0,4353	117,08	799,65	0,03048	
30,58	0,4355	113,69	799,87	0,03056	
30,60	0,4358	111,61	799,92	0,03060	
30,62	0,4359	116,11	799,63	0,03056	
30,64	0,4360	116,64	799,67	0,03051	
30,66	0,4363	111,71	800,08	0,03041	
30,68	0,4366	112,67	800,08	0,03041	
30,70	0,4366	117,63	799,72	0,03051	
30,72	0,4368	116,20	799,75	0,03059	
30,74	0,4371	113,30	799,88	0,03068	
30,76	0,4372	117,66	799,66	0,03065	
30,78	0,4374	119,23	799,68	0,03054	
30,80	0,4376	113,94	799,95	0,03048	
30,82	0,4377	112,98	799,83	0,03044	
30,84	0,4379	116,96	799,58	0,03049	
30,86	0,4382	114,99	799,85	0,03069	
30,88	0,4385	112,38	800,14	0,03083	
30,90	0,4387	116,06	799,92	0,03088	
30,92	0,4387	119,44	799,65	0,03075	
30,94	0,4389	116,22	799,87	0,03052	
30,96	0,4393	115,74	799,95	0,03045	
30,98	0,4393	120,70	799,68	0,03057	
31,00	0,4394	119,87	799,72	0,03065	
31,02	0,4397	115,00	799,86	0,03066	
31,04	0,4398	116,84	799,67	0,03071	
31,06	0,4400	118,91	799,71	0,03071	
31,08	0,4402	115,54	799,92	0,03070	
31,10	0,4404	116,01	799,77	0,03070	
31,12	0,4406	119,75	799,60	0,03069	
31,14	0,4408	117,53	799,78	0,03074	
31,16	0,4408	115,93	799,73	0,03074	
31,18	0,4410	118,94	799,63	0,03079	
31,20	0,4414	117,49	799,84	0,03077	
31,22	0,4415	114,99	799,80	0,03061	
31,24	0,4414	117,68	799,63	0,03050	
31,26	0,4418	116,92	799,88	0,03053	
31,28	0,4421	114,47	800,03	0,03070	
31,30	0,4420	118,45	799,73	0,03083	
31,32	0,4422	120,06	799,76	0,03090	
31,34	0,4426	115,55	800,09	0,03086	
31,36	0,4428	115,79	799,98	0,03068	
31,38	0,4427	119,06	799,71	0,03052	
31,40	0,4431	115,89	799,78	0,03059	
31,42	0,4433	114,39	799,70	0,03076	
31,44	0,4435	116,47	799,70	0,03080	
31,46	0,4436	114,47	799,93	0,03084	
31,48	0,4437	113,07	799,82	0,03084	
31,50	0,4440	115,16	799,76	0,03068	
31,52	0,4442	115,04	799,94	0,03043	
31,54	0,4442	115,62	799,78	0,03038	
31,56	0,4445	118,50	799,65	0,03032	
31,58	0,4448	115,47	799,94	0,03027	
31,60	0,4449	112,63	799,98	0,03029	
31,62	0,4448	116,19	799,71	0,03023	
31,64	0,4452	115,86	799,84	0,03004	
31,66	0,4455	112,75	799,96	0,02992	
31,68	0,4454	116,38	799,73	0,02988	
31,70	0,4456	117,82	799,74	0,02982	
31,72	0,4460	114,11	799,90	0,02987	
31,74	0,4460	115,33	799,70	0,02995	
31,76	0,4461	119,40	799,60	0,02989	
31,78	0,4465	116,15	800,07	0,02970	
31,80	0,4468	113,33	800,28	0,02948	
31,82	0,4467	116,85	799,90	0,02936	
31,84	0,4468	118,32	799,86	0,02932	
31,86	0,4472	114,28	800,29	0,02938	
31,88	0,4475	115,22	800,23	0,02946	
31,90	0,4474	119,42	799,80	0,02943	
31,92	0,4476	117,22	799,79	0,02928	
31,94	0,4480	112,98	799,85	0,02910	
31,96	0,4480	115,81	799,65	0,02897	
31,98	0,4482	116,20	799,75	0,02886	
32,00	0,4484	112,03	799,91	0,02891	
32,02	0,4485	112,57	799,72	0,02904	
32,04	0,4487	114,75	799,66	0,02905	
32,06	0,4489	113,22	799,71	0,02898	
32,08	0,4490	115,54	799,50	0,02884	
32,10	0,4493	118,94	799,66	0,02866	
32,12	0,4496	115,84	800,28	0,02859	
32,14	0,4497	114,35	800,35	0,02875	
32,16	0,4498	118,31	799,88	0,02894	
32,18	0,4501	118,42	799,87	0,02899	
32,20	0,4503	114,13	800,22	0,02899	
32,22	0,4503	115,75	800,12	0,02887	
32,24	0,4503	119,91	799,72	0,02865	
32,26	0,4507	117,92	799,81	0,02860	
32,28	0,4509	114,16	800,01	0,02870	
32,30	0,4508	118,09	799,80	0,02866	
32,32	0,4510	120,29	799,69	0,02850	
32,34	0,4514	116,04	799,81	0,02836	
32,36	0,4514	116,10	799,64	0,02813	
32,38	0,4515	119,42	799,64	0,02788	
32,40	0,4519	116,64	800,06	0,02787	
32,42	0,4521	114,85	800,11	0,02801	
32,44	0,4521	119,34	799,77	0,02804	
32,46	0,4522	120,83	799,64	0,02807	
32,48	0,4525	118,49	799,67	0,02814	
32,50	0,4526	121,69	799,52	0,02798	
32,52	0,4528	122,20	799,70	0,02784	
32,54	0,4530	117,70	800,03	0,02794	
32,56	0,4531	117,41	799,88	0,02805	
32,58	0,4533	120,79	799,66	0,02805	
32,60	0,4536	118,59	799,83	0,02812	
32,62	0,4535	117,62	799,77	0,02811	
32,64	0,4535	121,28	799,65	0,02788	
32,66	0,4540	118,84	799,99	0,02774	
32,68	0,4543	114,72	800,17	0,02778	
32,70	0,4541	117,34	799,81	0,02780	
32,72	0,4542	119,06	799,72	0,02783	
32,74	0,4547	114,14	800,12	0,02790	
32,76	0,4549	113,67	800,13	0,02784	
32,78	0,4548	117,78	799,73	0,02765	
32,80	0,4548	118,10	799,51	0,02760	
32,82	0,4553	113,12	799,96	0,02756	
32,84	0,4556	112,80	800,16	0,02758	
32,86	0,4555	116,25	799,85	0,02771	
32,88	0,4556	115,88	799,65	0,02788	
32,90	0,4559	113,32	799,50	0,02786	
32,92	0,4561	115,39	799,52	0,02765	
32,94	0,4563	115,60	799,97	0,02754	
32,96	0,4564	112,95	800,15	0,02757	
32,98	0,4566	113,88	799,80	0,02759	
33,00	0,4567	116,89	799,67	0,02761	
33,02	0,4571	114,10	800,17	0,02766	
33,04	0,4574	114,00	800,26	0,02762	
33,06	0,4575	117,04	799,87	0,02743	
33,08	0,4576	115,51	799,68	0,02714	
33,10	0,4577	112,41	799,63	0,02680	
33,12	0,4578	115,93	799,45	0,02655	
33,14	0,4582	116,85	799,92	0,02645	
33,16	0,4583	113,56	800,52	0,02640	
33,18	0,4584	113,69	800,42	0,02623	
33,20	0,4585	117,86	799,87	0,02612	
33,22	0,4588	119,04	799,72	0,02606	
33,24	0,4590	116,77	800,00	0,02582	
33,26	0,4589	118,42	799,89	0,02580	
33,28	0,4591	120,02	799,66	0,02598	
33,30	0,4595	115,66	799,86	0,02596	
33,32	0,4596	113,09	799,89	0,02579	
33,34	0,4595	117,60	799,66	0,02573	
33,36	0,4597	117,52	799,76	0,02573	
33,38	0,4601	114,17	799,85	0,02558	
33,40	0,4601	116,76	799,63	0,02557	
33,42	0,4602	119,07	799,68	0,02567	
33,44	0,4606	116,19	799,94	0,02569	
33,46	0,4607	117,48	799,79	0,02577	
33,48	0,4608	120,52	799,66	0,02628	
33,50	0,4610	117,10	799,88	0,02696	
33,52	0,4612	115,89	799,84	0,02707	
33,54	0,4613	120,07	799,62	0,02705	
33,56	0,4616	118,50	799,78	0,02716	
33,58	0,4617	115,30	799,88	0,02723	
33,60	0,4617	118,96	799,65	0,02721	
33,62	0,4621	119,27	799,79	0,02716	
33,64	0,4624	115,10	800,05	0,02699	
33,66	0,4623	116,80	799,84	0,02675	
33,68	0,4623	120,64	799,59	0,02661	
33,70	0,4627	116,80	799,84	0,02649	
33,72	0,4630	113,89	800,06	0,02588	
33,74	0,4629	118,07	799,82	0,02530	
33,76	0,4629	120,30	799,60	0,02510	
33,78	0,4634	116,45	799,85	0,02499	
33,80	0,4636	117,01	799,86	0,02492	
33,82	0,4635	121,19	799,60	0,02490	
33,84	0,4637	117,04	799,93	0,02487	
33,86	0,4641	109,93	800,37	0,02488	
33,88	0,4643	111,07	800,30	0,02508	
33,90	0,4642	116,02	799,84	0,02515	
33,92	0,4645	116,38	799,71	0,02501	
33,94	0,4649	115,00	799,92	0,02489	
33,96	0,4649	118,07	799,80	0,02489	
33,98	0,4649	119,86	799,61	0,02478	
34,00	0,4653	115,12	799,87	0,02461	
34,02	0,4656	112,00	799,96	0,02467	
34,04	0,4655	117,38	799,71	0,02473	
34,06	0,4657	118,35	799,74	0,02453	
34,08	0,4661	115,26	799,80	0,02436	
34,10	0,4661	118,82	799,60	0,02432	
34,12	0,4663	120,86	799,68	0,02427	
34,14	0,4665	117,00	799,86	0,02422	
34,16	0,4667	117,57	799,70	0,02433	
34,18	0,4669	119,66	799,63	0,02444	
34,20	0,4670	117,29	799,64	0,02431	
34,22	0,4669	117,22	799,44	0,02413	
34,24	0,4672	118,51	799,72	0,02406	
34,26	0,4676	115,16	800,41	0,02411	
34,28	0,4677	113,63	800,40	0,02419	
34,30	0,4676	117,08	799,94	0,02426	
34,32	0,4679	115,78	800,07	0,02426	
34,34	0,4683	112,92	800,18	0,02401	
34,36	0,4682	116,38	799,87	0,02359	
34,38	0,4683	117,38	799,95	0,02322	
34,40	0,4687	113,33	800,17	0,02305	
34,42	0,4688	114,09	799,88	0,02302	
34,44	0,4689	117,26	799,71	0,02299	
34,46	0,4692	113,78	800,19	0,02289	
34,48	0,4695	111,50	800,32	0,02264	
34,50	0,4695	115,70	799,90	0,02245	
34,52	0,4696	116,21	800,01	0,02233	
34,54	0,4698	111,92	800,31	0,02236	
34,56	0,4701	113,44	800,08	0,02242	
34,58	0,4702	117,38	799,72	0,02243	
34,60	0,4704	115,09	799,83	0,02241	
34,62	0,4706	113,36	799,80	0,02232	
34,64	0,4708	117,09	799,70	0,02215	
34,66	0,4710	115,98	799,90	0,02195	
34,68	0,4710	114,35	799,83	0,02176	
34,70	0,4711	117,38	799,64	0,02149	
34,72	0,4716	117,78	799,81	0,02119	
34,74	0,4717	116,04	799,87	0,02101	
34,76	0,4716	119,51	799,64	0,02083	
34,78	0,4719	120,35	799,77	0,02066	
34,80	0,4723	116,84	800,01	0,02058	
34,82	0,4723	119,37	799,81	0,02048	
34,84	0,4723	122,54	799,68	0,02043	
34,86	0,4726	119,37	799,86	0,02057	
34,88	0,4729	119,26	799,75	0,02075	
34,90	0,4729	123,46	799,60	0,02072	
34,92	0,4731	121,81	799,90	0,02057	
34,94	0,4734	119,39	799,98	0,02045	
34,96	0,4735	122,86	799,73	0,02029	
34,98	0,4737	122,10	799,87	0,01959	
35,00	0,4738	118,49	800,00	0,01813	
35,02	0,4737	121,59	799,73	0,01709	
35,04	0,4741	123,63	799,69	0,01668	
35,06	0,4744	119,56	799,88	0,01656	
35,08	0,4743	119,99	799,74	0,01651	
35,10	0,4743	123,43	799,63	0,01644	
35,12	0,4747	120,59	799,80	0,01647	
35,14	0,4749	119,47	799,70	0,01662	
35,16	0,4749	122,31	799,60	0,01669	
35,18	0,4751	120,46	799,85	0,01670	
35,20	0,4753	118,20	799,88	0,01664	
35,22	0,4755	122,18	799,63	0,01651	
35,24	0,4757	122,67	799,72	0,01636	
35,26	0,4758	119,03	799,89	0,01634	
35,28	0,4757	121,76	799,67	0,01638	
35,30	0,4761	123,53	799,68	0,01645	
35,32	0,4764	118,67	800,00	0,01651	
35,34	0,4764	118,03	799,88	0,01646	
35,36	0,4763	120,60	799,74	0,01628	
35,38	0,4767	117,21	800,03	0,01616	
35,40	0,4770	114,83	800,08	0,01621	
35,42	0,4770	119,21	799,73	0,01626	
35,44	0,4770	120,30	799,72	0,01632	
35,46	0,4774	115,59	799,99	0,01635	
35,48	0,4776	117,49	799,86	0,01629	
35,50	0,4776	121,30	799,62	0,01618	
35,52	0,4779	117,08	799,77	0,01613	
35,54	0,4782	113,32	799,85	0,01614	
35,56	0,4783	117,96	799,64	0,01616	
35,58	0,4784	119,69	799,68	0,01626	
35,60	0,4786	116,64	799,79	0,01635	
35,62	0,4787	119,27	799,61	0,01628	
35,64	0,4790	120,80	799,83	0,01618	
35,66	0,4792	116,88	800,11	0,01607	
35,68	0,4791	117,53	799,87	0,01600	
35,70	0,4794	120,56	799,71	0,01609	
35,72	0,4797	117,32	799,98	0,01622	
35,74	0,4798	116,01	799,99	0,01630	
35,76	0,4797	120,54	799,70	0,01625	
35,78	0,4800	119,44	799,80	0,01617	
35,80	0,4803	115,57	799,99	0,01612	
35,82	0,4803	118,92	799,76	0,01605	
35,84	0,4804	121,88	799,69	0,01609	
35,86	0,4809	117,83	799,91	0,01623	
35,88	0,4810	117,21	799,81	0,01623	
35,90	0,4810	121,41	799,65	0,01619	
35,92	0,4812	119,92	799,78	0,01617	
35,94	0,4815	118,66	799,72	0,01603	
35,96	0,4816	122,13	799,60	0,01591	
35,98	0,4818	121,28	799,77	0,01602	
36,00	0,4820	119,64	799,72	0,01622	
36,02	0,4822	122,44	799,59	0,01622	
36,04	0,4825	121,20	799,92	0,01617	
36,06	0,4826	118,59	800,10	0,01616	
36,08	0,4826	121,95	799,81	0,01604	
36,10	0,4829	124,53	799,68	0,01591	
36,12	0,4831	121,12	799,81	0,01602	
36,14	0,4831	121,62	799,70	0,01613	
36,16	0,4831	125,07	799,52	0,01619	
36,18	0,4835	122,48	799,76	0,01631	
36,20	0,4838	119,34	799,92	0,01628	
36,22	0,4837	123,89	799,68	0,01606	
36,24	0,4838	126,20	799,63	0,01597	
36,26	0,4843	122,07	799,82	0,01600	
36,28	0,4844	123,13	799,69	0,01612	
36,30	0,4844	125,89	799,62	0,01617	
36,32	0,4846	120,94	800,05	0,01625	
36,34	0,4849	116,96	800,18	0,01620	
36,36	0,4850	121,00	799,84	0,01604	
36,38	0,4851	122,57	799,73	0,01599	
36,40	0,4854	119,20	799,85	0,01597	
36,42	0,4856	122,16	799,65	0,01598	
36,44	0,4856	126,52	799,55	0,01600	
36,46	0,4859	121,99	799,93	0,01612	
36,48	0,4861	118,29	800,11	0,01617	
36,50	0,4863	121,82	799,75	0,01610	
36,52	0,4863	123,80	799,56	0,01599	
36,54	0,4865	118,63	800,24	0,01593	
36,56	0,4868	116,76	800,66	0,01598	
36,58	0,4870	118,54	800,41	0,01612	
36,60	0,4870	119,21	799,87	0,01621	
36,62	0,4871	117,39	799,66	0,01621	
36,64	0,4876	117,44	799,74	0,01612	
36,66	0,4877	121,71	799,61	0,01597	
36,68	0,4877	123,19	799,62	0,01578	
36,70	0,4880	120,13	799,78	0,01582	
36,72	0,4881	121,02	799,63	0,01599	
36,74	0,4883	125,35	799,65	0,01611	
36,76	0,4885	124,01	800,06	0,01614	
36,78	0,4887	122,13	800,10	0,01614	
36,80	0,4888	126,20	799,74	0,01612	
36,82	0,4890	127,62	799,71	0,01597	
36,84	0,4892	124,38	799,85	0,01594	
36,86	0,4891	126,87	799,65	0,01605	
36,88	0,4893	128,25	799,73	0,01612	
36,90	0,4897	123,22	800,19	0,01607	
36,92	0,4899	120,91	800,22	0,01604	
36,94	0,4898	125,26	799,81	0,01604	
36,96	0,4900	126,48	799,76	0,01584	
36,98	0,4904	123,79	800,04	0,01574	
37,00	0,4905	125,86	799,98	0,01589	
37,02	0,4904	129,93	799,62	0,01609	
37,04	0,4905	129,48	799,52	0,01610	
37,06	0,4910	124,08	800,00	0,01610	
37,08	0,4913	123,48	800,19	0,01607	
37,10	0,4911	126,50	799,85	0,01595	
37,12	0,4912	125,74	799,71	0,01593	
37,14	0,4916	121,90	799,83	0,01606	
37,16	0,4917	125,05	799,68	0,01612	
37,18	0,4918	128,83	799,68	0,01616	
37,20	0,4920	125,88	799,93	0,01616	
37,22	0,4922	124,49	799,85	0,01601	
37,24	0,4923	128,97	799,61	0,01585	
37,26	0,4925	128,74	799,81	0,01587	
37,28	0,4926	126,22	799,95	0,01601	
37,30	0,4926	129,52	799,71	0,01607	
37,32	0,4930	130,14	799,72	0,01612	
37,34	0,4932	126,05	799,93	0,01612	
37,36	0,4931	127,00	799,77	0,01597	
37,38	0,4931	130,61	799,62	0,01576	
37,40	0,4936	127,46	799,93	0,01573	
37,42	0,4938	125,41	800,04	0,01587	
37,44	0,4938	129,63	799,74	0,01594	
37,46	0,4938	131,24	799,63	0,01599	
37,48	0,4941	127,36	799,81	0,01607	
37,50	0,4944	128,63	799,72	0,01607	
37,52	0,4944	131,89	799,57	0,01589	
37,54	0,4945	128,46	799,97	0,01581	
37,56	0,4948	125,37	800,24	0,01582	
37,58	0,4950	129,04	799,92	0,01587	
37,60	0,4950	131,67	799,68	0,01593	
37,62	0,4952	126,58	800,08	0,01605	
37,64	0,4954	124,43	800,26	0,01611	
37,66	0,4955	128,22	799,89	0,01598	
37,68	0,4957	128,84	799,74	0,01585	
37,70	0,4959	123,76	800,02	0,01583	
37,72	0,4959	123,64	799,95	0,01594	
37,74	0,4958	127,82	799,67	0,01610	
37,76	0,4962	125,71	799,80	0,01615	
37,78	0,4965	121,96	799,89	0,01609	
37,80	0,4964	125,78	799,66	0,01602	
37,82	0,4966	128,23	799,65	0,01594	
37,84	0,4969	125,19	799,79	0,01587	
37,86	0,4970	126,75	799,64	0,01586	
37,88	0,4972	128,23	799,81	0,01601	
37,90	0,4973	125,14	800,13	0,01616	
37,92	0,4974	125,44	799,95	0,01608	
37,94	0,4976	130,15	799,65	0,01595	
37,96	0,4979	128,92	799,80	0,01586	
37,98	0,4979	126,91	799,85	0,01575	
38,00	0,4979	129,60	799,68	0,01576	
38,02	0,4983	128,24	799,82	0,01588	
38,04	0,4985	124,93	799,84	0,01604	
38,06	0,4984	128,04	799,62	0,01608	
38,08	0,4985	129,45	799,71	0,01595	
38,10	0,4988	127,36	799,81	0,01579	
38,12	0,4990	129,42	799,66	0,01577	
38,14	0,4992	129,68	799,83	0,01579	
38,16	0,4993	126,73	800,04	0,01589	
38,18	0,4994	128,30	799,82	0,01602	
38,20	0,4997	132,50	799,65	0,01610	
38,22	0,5000	129,90	799,86	0,01603	
38,24	0,4999	129,24	799,82	0,01587	
38,26	0,4998	133,04	799,62	0,01577	
38,28	0,5001	131,28	799,72	0,01582	
38,30	0,5004	128,07	799,71	0,01601	
38,32	0,5005	130,20	799,65	0,01610	
38,34	0,5007	129,06	800,06	0,01605	
38,36	0,5008	126,51	800,25	0,01597	
38,38	0,5009	129,13	799,90	0,01578	
38,40	0,5011	132,01	799,74	0,01564	
38,42	0,5013	128,86	800,02	0,01574	
38,44	0,5013	129,63	799,96	0,01591	
38,46	0,5014	133,26	799,71	0,01598	
38,48	0,5018	129,99	799,92	0,01602	
38,50	0,5020	126,25	800,03	0,01605	
38,52	0,5019	130,32	799,77	0,01590	
38,54	0,5019	134,37	799,53	0,01570	
38,56	0,5023	132,13	799,59	0,01573	
38,58	0,5026	131,49	799,61	0,01591	
38,60	0,5025	135,36	799,41	0,01595	
38,62	0,5026	133,41	799,93	0,01594	
38,64	0,5029	127,97	800,68	0,01602	
38,66	0,5032	128,02	800,61	0,01593	
38,68	0,5032	131,86	800,02	0,01577	
38,70	0,5032	133,62	799,63	0,01574	
38,72	0,5034	132,20	799,89	0,01581	
38,74	0,5037	132,61	799,97	0,01592	
38,76	0,5038	134,26	799,71	0,01604	
38,78	0,5040	131,56	799,77	0,01607	
38,80	0,5040	127,66	799,80	0,01594	
38,82	0,5039	130,32	799,62	0,01580	
38,84	0,5042	132,28	799,64	0,01571	
38,86	0,5045	130,21	799,67	0,01570	
38,88	0,5045	132,53	799,47	0,01582	
38,90	0,5046	134,36	799,71	0,01599	
38,92	0,5048	130,35	800,31	0,01606	
38,94	0,5050	129,24	800,29	0,01600	
38,96	0,5051	133,08	799,82	0,01602	
38,98	0,5052	131,74	799,73	0,01592	
39,00	0,5053	128,34	799,93	0,01584	
39,02	0,5052	132,18	799,77	0,01598	
39,04	0,5054	134,01	799,79	0,01612	
39,06	0,5059	128,46	800,09	0,01611	
39,08	0,5059	127,73	799,91	0,01606	
39,10	0,5058	131,23	799,87	0,01597	
39,12	0,5061	128,01	800,44	0,01589	
39,14	0,5064	124,42	800,55	0,01585	
39,16	0,5065	127,81	800,07	0,01591	
39,18	0,5065	130,29	799,80	0,01601	
39,20	0,5068	127,59	800,03	0,01604	
39,22	0,5070	129,24	799,96	0,01596	
39,24	0,5071	133,26	799,67	0,01580	
39,26	0,5073	131,57	799,80	0,01566	
39,28	0,5074	128,08	799,89	0,01568	
39,30	0,5073	131,24	799,68	0,01577	
39,32	0,5077	132,85	799,70	0,01583	
39,34	0,5079	129,84	799,73	0,01592	
39,36	0,5079	131,32	799,58	0,01596	
39,38	0,5080	132,42	799,73	0,01589	
39,40	0,5081	129,98	799,87	0,01582	
39,42	0,5083	131,53	799,64	0,01570	
39,44	0,5085	134,19	799,61	0,01568	
39,46	0,5087	130,53	800,05	0,01582	
39,48	0,5087	128,92	800,19	0,01592	
39,50	0,5086	133,43	799,79	0,01591	
39,52	0,5089	134,00	799,83	0,01592	
39,54	0,5093	129,01	800,43	0,01586	
39,56	0,5094	128,78	800,54	0,01573	
39,58	0,5093	131,89	800,09	0,01576	
39,60	0,5093	132,69	799,75	0,01591	
39,62	0,5097	129,27	800,09	0,01594	
39,64	0,5100	129,59	800,20	0,01593	
39,66	0,5099	133,13	799,84	0,01597	
39,68	0,5099	132,50	799,76	0,01582	
39,70	0,5103	128,26	799,92	0,01556	
39,72	0,5104	130,63	799,69	0,01558	
39,74	0,5106	134,16	799,65	0,01569	
39,76	0,5108	129,19	800,31	0,01565	
39,78	0,5108	125,06	800,67	0,01572	
39,80	0,5109	128,53	800,28	0,01588	
39,82	0,5111	131,76	799,93	0,01572	
39,84	0,5114	128,50	800,30	0,01549	
39,86	0,5114	128,58	800,44	0,01554	
39,88	0,5113	132,52	800,00	0,01564	
39,90	0,5115	133,33	799,79	0,01564	
39,92	0,5119	127,91	800,19	0,01577	
39,94	0,5121	127,45	800,28	0,01585	
39,96	0,5119	132,19	799,85	0,01563	
39,98	0,5120	133,05	799,80	0,01547	
40,00	0,5123	128,53	800,14	0,01559	
40,02	0,5126	129,54	800,07	0,01573	
40,04	0,5126	133,90	799,71	0,01574	
40,06	0,5127	131,99	799,80	0,01587	
40,08	0,5129	128,38	799,89	0,01597	
40,10	0,5130	131,96	799,61	0,01575	
40,12	0,5133	132,82	799,83	0,01558	
40,14	0,5135	127,05	800,47	0,01564	
40,16	0,5135	125,71	800,51	0,01571	
40,18	0,5133	129,88	800,00	0,01569	
40,20	0,5135	129,96	799,95	0,01579	
40,22	0,5140	126,35	800,38	0,01590	
40,24	0,5141	128,43	800,34	0,01586	
40,26	0,5140	132,39	799,87	0,01580	
40,28	0,5140	132,07	799,80	0,01574	
40,30	0,5143	128,17	800,02	0,01565	
40,32	0,5145	130,46	799,83	0,01572	
40,34	0,5146	132,18	799,76	0,01587	
40,36	0,5148	127,66	800,03	0,01594	
40,38	0,5148	125,95	799,97	0,01584	
40,40	0,5148	130,94	799,69	0,01572	
40,42	0,5153	130,24	799,87	0,01569	
40,44	0,5155	127,01	800,02	0,01562	
40,46	0,5154	130,72	799,77	0,01571	
40,48	0,5153	133,78	799,55	0,01595	
40,50	0,5156	129,84	799,85	0,01603	
40,52	0,5160	128,02	800,06	0,01588	
40,54	0,5160	131,71	799,78	0,01571	
40,56	0,5159	133,06	799,63	0,01573	
40,58	0,5161	128,25	800,02	0,01564	
40,60	0,5163	128,33	800,14	0,01562	
40,62	0,5165	132,58	799,87	0,01579	
40,64	0,5167	130,54	800,04	0,01586	
40,66	0,5168	126,04	800,11	0,01576	
40,68	0,5167	128,68	799,84	0,01571	
40,70	0,5168	129,89	799,86	0,01571	
40,72	0,5171	127,86	799,80	0,01564	
40,74	0,5172	130,19	799,63	0,01563	
40,76	0,5174	130,42	799,92	0,01579	
40,78	0,5175	128,16	800,04	0,01590	
40,80	0,5174	130,44	799,74	0,01587	
40,82	0,5177	131,53	799,90	0,01591	
40,84	0,5181	128,24	800,33	0,01586	
40,86	0,5181	129,32	800,18	0,01566	
40,88	0,5179	133,64	799,79	0,01561	
40,90	0,5181	131,03	800,03	0,01571	
40,92	0,5185	128,13	800,25	0,01582	
40,94	0,5186	131,11	799,96	0,01597	
40,96	0,5186	133,24	799,66	0,01605	
40,98	0,5188	129,51	799,74	0,01587	
41,00	0,5187	129,47	799,67	0,01565	
41,02	0,5188	133,60	799,56	0,01566	
41,04	0,5193	131,59	799,94	0,01577	
41,06	0,5195	127,85	800,15	0,01582	
41,08	0,5194	131,00	799,86	0,01585	
41,10	0,5193	134,73	799,66	0,01585	
41,12	0,5195	131,53	799,87	0,01573	
41,14	0,5198	132,03	799,82	0,01561	
41,16	0,5199	135,55	799,62	0,01563	
41,18	0,5201	132,91	799,85	0,01574	
41,20	0,5202	129,32	799,98	0,01694	
41,22	0,5200	132,52	799,72	0,02473	
41,24	0,5201	133,72	799,63	0,03023	
41,26	0,5205	130,13	799,72	0,02945	
41,28	0,5206	131,88	799,56	0,02804	
41,30	0,5207	132,63	799,80	0,03122	
41,32	0,5208	128,23	800,30	0,02704	
41,34	0,5208	127,47	800,25	0,02370	
41,36	0,5208	132,79	799,79	0,03033	
41,38	0,5212	133,01	799,93	0,03724	
41,40	0,5215	129,77	800,30	0,04010	
41,42	0,5214	132,09	800,08	0,04084	
41,44	0,5213	133,94	799,82	0,04086	
41,46	0,5215	128,64	800,17	0,04107	
41,48	0,5219	125,83	800,32	0,04147	
41,50	0,5219	130,33	799,93	0,04187	
41,52	0,5220	131,60	799,85	0,04239	
41,54	0,5222	126,90	800,12	0,04323	
41,56	0,5221	128,01	799,98	0,04374	
41,58	0,5222	131,68	799,70	0,04369	
41,60	0,5226	129,27	799,64	0,04358	
41,62	0,5227	127,82	799,49	0,04345	
41,64	0,5227	130,24	799,63	0,04308	
41,66	0,5229	128,38	800,15	0,04277	
41,68	0,5231	126,18	800,26	0,04268	
41,70	0,5232	129,85	799,86	0,04232	
41,72	0,5233	133,00	799,74	0,04184	
41,74	0,5235	130,41	800,10	0,04140	
41,76	0,5235	131,79	800,07	0,04130	
41,78	0,5234	134,68	799,76	0,04140	
41,80	0,5239	131,55	799,86	0,04133	
41,82	0,5241	128,06	799,92	0,04111	
41,84	0,5240	131,86	799,66	0,04054	
41,86	0,5241	133,53	799,67	0,03979	
41,88	0,5243	129,64	799,90	0,03931	
41,90	0,5244	130,17	799,78	0,03921	
41,92	0,5247	132,40	799,76	0,03913	
41,94	0,5248	130,56	799,83	0,03931	
41,96	0,5247	131,82	799,63	0,03978	
41,98	0,5247	134,72	799,68	0,04031	
42,00	0,5249	132,42	799,95	0,04105	
42,02	0,5251	131,93	799,82	0,04159	
42,04	0,5253	134,41	799,64	0,04171	
42,06	0,5255	131,83	799,83	0,04195	
42,08	0,5255	130,08	799,84	0,04271	
42,10	0,5254	134,69	799,61	0,04330	
42,12	0,5255	134,90	799,75	0,04338	
42,14	0,5259	131,51	799,92	0,04339	
42,16	0,5260	134,39	799,69	0,04330	
42,18	0,5261	135,92	799,72	0,04286	
42,20	0,5262	131,01	800,06	0,04254	
42,22	0,5261	130,72	799,95	0,04230	
42,24	0,5261	135,79	799,73	0,04168	
42,26	0,5265	133,84	800,07	0,04095	
42,28	0,5268	130,41	800,30	0,04066	
42,30	0,5267	133,28	799,98	0,04050	
42,32	0,5267	135,72	799,81	0,03998	
42,34	0,5269	131,44	800,02	0,03941	
42,36	0,5270	131,32	799,91	0,03914	
42,38	0,5272	134,76	799,70	0,03878	
42,40	0,5275	132,57	799,85	0,03818	
42,42	0,5275	130,71	799,78	0,03790	
42,44	0,5274	134,31	799,63	0,03806	
42,46	0,5275	132,90	800,09	0,03838	
42,48	0,5278	129,17	800,44	0,03885	
42,50	0,5280	131,30	800,17	0,03974	
42,52	0,5280	135,79	799,75	0,04075	
42,54	0,5281	133,57	799,95	0,04140	
42,56	0,5282	132,70	800,18	0,04197	
42,58	0,5281	135,93	799,90	0,04236	
42,60	0,5281	137,12	799,73	0,04238	
42,62	0,5286	132,92	800,01	0,04226	
42,64	0,5288	132,55	799,98	0,04214	
42,66	0,5287	137,27	799,70	0,04185	
42,68	0,5288	136,03	799,80	0,04143	
42,70	0,5290	132,15	799,88	0,04101	
42,72	0,5291	135,28	799,66	0,04070	
42,74	0,5294	136,32	799,81	0,04038	
42,76	0,5296	132,87	800,02	0,04001	
42,78	0,5295	134,78	799,82	0,03960	
42,80	0,5294	138,79	799,66	0,03912	
42,82	0,5296	136,24	799,82	0,03855	
42,84	0,5297	135,53	799,75	0,03800	
42,86	0,5299	139,50	799,60	0,03732	
42,88	0,5302	137,44	799,89	0,03692	
42,90	0,5302	134,19	800,00	0,03737	
42,92	0,5301	138,07	799,72	0,03820	
42,94	0,5301	138,93	799,69	0,03892	
42,96	0,5303	134,25	799,84	0,03943	
42,98	0,5305	135,55	799,67	0,04005	
43,00	0,5307	137,85	799,69	0,04041	
43,02	0,5309	133,68	799,97	0,04030	
43,04	0,5309	132,85	799,89	0,04033	
43,06	0,5307	137,85	799,65	0,04046	
43,08	0,5309	136,55	799,88	0,04069	
43,10	0,5313	133,87	799,99	0,04109	
43,12	0,5313	137,37	799,70	0,04155	
43,14	0,5315	137,42	799,75	0,04174	
43,16	0,5316	132,38	800,07	0,04160	
43,18	0,5315	132,74	799,94	0,04163	
43,20	0,5314	137,25	799,64	0,04140	
43,22	0,5317	134,33	799,88	0,04089	
43,24	0,5321	131,26	800,06	0,04048	
43,26	0,5321	135,14	799,79	0,04022	
43,28	0,5321	136,15	799,67	0,03988	
43,30	0,5322	132,11	799,71	0,03982	
43,32	0,5323	133,30	799,56	0,04050	
43,34	0,5326	134,86	799,74	0,04089	
43,36	0,5329	131,41	800,08	0,04079	
43,38	0,5328	131,26	799,92	0,04036	
43,40	0,5327	134,98	799,67	0,03991	
43,42	0,5329	132,63	799,83	0,03933	
43,44	0,5331	130,35	799,84	0,03899	
43,46	0,5332	134,68	799,61	0,03888	
43,48	0,5335	133,84	799,85	0,03862	
43,50	0,5336	128,80	800,08	0,03862	
43,52	0,5335	130,10	799,85	0,03907	
43,54	0,5334	133,24	799,59	0,03965	
43,56	0,5337	129,88	799,69	0,03988	
43,58	0,5340	128,67	799,68	0,04011	
43,60	0,5341	132,57	799,58	0,04031	
43,62	0,5342	130,54	799,94	0,04058	
43,64	0,5343	126,87	800,15	0,04122	
43,66	0,5342	130,35	799,85	0,04225	
43,68	0,5345	134,33	799,72	0,04301	
43,70	0,5348	131,38	800,00	0,04366	
43,72	0,5349	132,03	799,95	0,04458	
43,74	0,5347	136,16	799,66	0,04538	
43,76	0,5349	133,38	799,78	0,04503	
43,78	0,5351	128,56	799,90	0,04415	
43,80	0,5353	131,59	799,67	0,04314	
43,82	0,5354	134,11	799,65	0,04207	
43,84	0,5356	130,35	799,90	0,04139	
43,86	0,5355	131,17	799,79	0,04113	
43,88	0,5354	135,35	799,62	0,04112	
43,90	0,5358	132,50	799,86	0,04101	
43,92	0,5360	130,09	799,90	0,04115	
43,94	0,5361	134,12	799,65	0,04144	
43,96	0,5362	132,94	799,82	0,04167	
43,98	0,5363	128,31	800,06	0,04178	
44,00	0,5362	129,64	799,89	0,04195	
44,02	0,5363	133,97	799,57	0,04194	
44,04	0,5367	130,87	799,98	0,04169	
44,06	0,5370	127,28	800,51	0,04159	
44,08	0,5369	128,88	800,42	0,04184	
44,10	0,5368	131,27	799,90	0,04204	
44,12	0,5370	130,38	799,87	0,04192	
44,14	0,5374	127,80	800,27	0,04181	
44,16	0,5376	129,80	800,20	0,04176	
44,18	0,5374	132,98	799,77	0,04164	
44,20	0,5375	131,15	799,87	0,04148	
44,22	0,5378	126,46	800,18	0,04161	
44,24	0,5381	128,86	799,99	0,04174	
44,26	0,5381	132,82	799,70	0,04172	
44,28	0,5383	130,24	799,88	0,04169	
44,30	0,5383	128,72	799,91	0,04167	
44,32	0,5381	132,87	799,70	0,04150	
44,34	0,5384	132,49	799,85	0,04139	
44,36	0,5388	129,90	799,94	0,04151	
44,38	0,5388	133,04	799,69	0,04157	
44,40	0,5389	135,05	799,73	0,04152	
44,42	0,5390	131,78	799,98	0,04159	
44,44	0,5391	132,87	799,82	0,04157	
44,46	0,5393	135,88	799,72	0,04127	
44,48	0,5396	132,82	799,99	0,04111	
44,50	0,5396	131,47	799,95	0,04123	
44,52	0,5395	135,35	799,63	0,04133	
44,54	0,5396	134,19	799,76	0,04128	
44,56	0,5399	129,46	800,04	0,04135	
44,58	0,5401	131,58	799,88	0,04143	
44,60	0,5401	135,44	799,61	0,04124	
44,62	0,5402	132,81	799,77	0,04101	
44,64	0,5403	131,26	799,87	0,04101	
44,66	0,5402	135,49	799,63	0,04109	
44,68	0,5404	135,41	799,70	0,04108	
44,70	0,5408	130,36	800,03	0,04119	
44,72	0,5409	131,45	799,95	0,04126	
44,74	0,5408	136,78	799,70	0,04109	
44,76	0,5409	134,69	799,98	0,04097	
44,78	0,5410	132,12	800,12	0,04094	
44,80	0,5412	136,07	799,79	0,04093	
44,82	0,5415	137,11	799,80	0,04091	
44,84	0,5417	132,39	800,07	0,04100	
44,86	0,5416	132,83	799,89	0,04112	
44,88	0,5414	136,85	799,63	0,04107	
44,90	0,5417	133,46	799,93	0,04092	
44,92	0,5420	130,08	800,10	0,04083	
44,94	0,5421	133,63	799,80	0,04085	
44,96	0,5422	134,48	799,71	0,04082	
44,98	0,5423	130,29	799,87	0,04084	
45,00	0,5422	131,78	799,71	0,04084	
45,02	0,5422	135,75	799,61	0,04075	
45,04	0,5425	133,03	799,91	0,04059	
45,06	0,5428	131,60	799,93	0,04055	
45,08	0,5428	135,61	799,68	0,04055	
45,10	0,5429	135,25	799,79	0,04060	
45,12	0,5430	132,11	799,82	0,04072	
45,14	0,5429	134,85	799,62	0,04074	
45,16	0,5433	134,81	799,85	0,04067	
45,18	0,5436	131,04	800,11	0,04056	
45,20	0,5436	132,59	799,86	0,04049	
45,22	0,5435	136,58	799,68	0,04039	
45,24	0,5436	134,01	799,90	0,04041	
45,26	0,5438	133,68	799,84	0,04057	
45,28	0,5440	137,12	799,66	0,04060	
45,30	0,5443	134,37	799,86	0,04048	
45,32	0,5443	130,78	799,91	0,04036	
45,34	0,5441	134,22	799,66	0,04020	
45,36	0,5442	134,69	799,78	0,04006	
45,38	0,5445	131,51	799,91	0,04013	
45,40	0,5447	134,22	799,68	0,04027	
45,42	0,5449	135,13	799,80	0,04021	
45,44	0,5450	130,33	800,11	0,04014	
45,46	0,5449	129,86	799,95	0,04010	
45,48	0,5448	133,74	799,69	0,03999	
45,50	0,5451	132,24	799,88	0,03987	
45,52	0,5455	131,65	799,91	0,03991	
45,54	0,5455	136,40	799,65	0,04003	
45,56	0,5456	135,87	799,71	0,04005	
45,58	0,5457	131,58	799,83	0,04007	
45,60	0,5455	134,12	799,61	0,04002	
45,62	0,5458	135,94	799,70	0,03983	
45,64	0,5462	131,05	800,10	0,03967	
45,66	0,5463	129,97	800,02	0,03980	
45,68	0,5462	134,05	799,70	0,03994	
45,70	0,5463	132,81	799,73	0,03994	
45,72	0,5465	130,76	799,67	0,03991	
45,74	0,5467	134,15	799,57	0,03974	
45,76	0,5470	132,86	800,02	0,03946	
45,78	0,5470	128,13	800,27	0,03936	
45,80	0,5469	129,34	799,93	0,03952	
45,82	0,5470	132,16	799,75	0,03964	
45,84	0,5474	129,57	799,82	0,03963	
45,86	0,5475	131,18	799,66	0,03969	
45,88	0,5475	133,88	799,55	0,03967	
45,90	0,5477	129,99	799,86	0,03942	
45,92	0,5478	127,37	799,95	0,03926	
45,94	0,5479	131,38	799,69	0,03922	
45,96	0,5482	131,69	799,79	0,03921	
45,98	0,5483	128,79	799,93	0,03932	
46,00	0,5482	131,48	799,72	0,03947	
46,02	0,5483	133,14	799,74	0,03941	
46,04	0,5487	130,04	799,91	0,03923	
46,06	0,5488	131,95	799,72	0,03919	
46,08	0,5489	135,70	799,66	0,03919	
46,10	0,5490	133,00	799,92	0,03921	
46,12	0,5490	131,98	799,85	0,03933	
46,14	0,5492	136,03	799,64	0,03935	
46,16	0,5496	134,29	799,85	0,03915	
46,18	0,5497	131,50	799,94	0,03895	
46,20	0,5496	135,29	799,68	0,03890	
46,22	0,5496	136,75	799,64	0,03880	
46,24	0,5499	132,75	799,78	0,03879	
46,26	0,5501	134,42	799,60	0,03893	
46,28	0,5502	137,25	799,59	0,03896	
46,30	0,5504	133,34	800,11	0,03882	
46,32	0,5504	131,17	800,29	0,03864	
46,34	0,5503	135,31	799,90	0,03866	
46,36	0,5504	137,15	799,77	0,03864	
46,38	0,5509	133,11	800,23	0,03857	
46,40	0,5510	133,84	800,29	0,03873	
46,42	0,5509	137,94	799,86	0,03889	
46,44	0,5510	135,72	800,04	0,03872	
46,46	0,5513	130,24	800,48	0,03853	
46,48	0,5515	132,06	800,30	0,03847	
46,50	0,5515	136,59	799,88	0,03848	
46,52	0,5517	133,79	800,24	0,03838	
46,54	0,5518	130,66	800,64	0,03847	
46,56	0,5519	133,63	800,44	0,03861	
46,58	0,5521	137,34	799,90	0,03870	
46,60	0,5522	137,49	799,71	0,03857	
46,62	0,5524	135,55	799,91	0,03836	
46,64	0,5523	138,16	799,80	0,03834	
46,66	0,5523	140,11	799,66	0,03838	
46,68	0,5526	136,33	799,90	0,03839	
46,70	0,5529	134,44	799,91	0,03847	
46,72	0,5529	139,08	799,65	0,03850	
46,74	0,5530	139,05	799,86	0,03832	
46,76	0,5531	136,03	800,08	0,03817	
46,78	0,5531	139,02	799,82	0,03813	
46,80	0,5534	141,10	799,77	0,03804	
46,82	0,5537	137,28	799,99	0,03817	
46,84	0,5536	137,36	799,82	0,03832	
46,86	0,5536	141,06	799,70	0,03825	
46,88	0,5537	137,75	800,04	0,03808	
46,90	0,5539	135,51	800,07	0,03795	
46,92	0,5540	140,13	799,74	0,03794	
46,94	0,5543	140,27	799,76	0,03795	
46,96	0,5544	135,95	799,91	0,03807	
46,98	0,5543	138,34	799,72	0,03821	
47,00	0,5543	141,05	799,64	0,03820	
47,02	0,5546	138,06	799,77	0,03815	
47,04	0,5548	138,74	799,63	0,03806	
47,06	0,5550	142,08	799,63	0,03793	
47,08	0,5551	139,56	799,91	0,03792	
47,10	0,5550	137,86	799,83	0,03812	
47,12	0,5549	140,82	799,67	0,03816	
47,14	0,5552	138,94	799,94	0,03808	
47,16	0,5556	136,30	800,00	0,03798	
47,18	0,5556	139,56	799,70	0,03791	
47,20	0,5557	140,33	799,71	0,03778	
47,22	0,5558	136,06	799,91	0,03781	
47,24	0,5556	137,62	799,72	0,03791	
47,26	0,5558	139,59	799,75	0,03787	
47,28	0,5563	136,05	800,13	0,03788	
47,30	0,5564	135,54	800,06	0,03785	
47,32	0,5563	140,44	799,73	0,03773	
47,34	0,5564	139,64	799,91	0,03748	
47,36	0,5566	136,70	800,07	0,03742	
47,38	0,5568	139,56	799,78	0,03759	
47,40	0,5569	140,33	799,71	0,03766	
47,42	0,5571	135,35	799,91	0,03763	
47,44	0,5570	135,16	799,78	0,03765	
47,46	0,5569	139,44	799,64	0,03749	
47,48	0,5572	137,14	799,93	0,03729	
47,50	0,5575	135,07	799,99	0,03731	
47,52	0,5575	139,21	799,69	0,03743	
47,54	0,5577	139,69	799,73	0,03741	
47,56	0,5578	135,33	799,92	0,03741	
47,58	0,5577	137,32	799,72	0,03740	
47,60	0,5577	140,41	799,66	0,03723	
47,62	0,5581	136,81	799,96	0,03699	
47,64	0,5576	135,27	799,92	0,03699	
47,66	0,5389	139,39	799,66	0,03707	
47,68	0,5085	137,79	799,81	0,03712	
47,70	0,4927	134,94	799,88	0,03721	
47,72	0,4897	138,38	799,65	0,03725	
47,74	0,4903	138,27	799,81	0,03709	
47,76	0,4906	133,19	800,08	0,03686	
47,78	0,4905	134,64	799,88	0,03680	
47,80	0,4906	139,06	799,66	0,03680	
47,82	0,4911	136,06	799,84	0,03680	
47,84	0,4912	134,61	799,83	0,03695	
47,86	0,4911	139,25	799,59	0,03700	
47,88	0,4911	138,51	799,82	0,03665	
47,90	0,4912	135,81	800,04	0,03620	
47,92	0,4914	141,80	799,79	0,03571	
47,94	0,4922	150,19	799,70	0,03493	
47,96	0,4938	157,23	799,91	0,03387	
47,98	0,4959	174,85	799,79	0,03270	
48,00	0,4987	201,60	799,65	0,03119	
48,02	0,5024	227,44	799,87	0,02928	
48,04	0,5069	259,37	799,78	0,02705	
48,06	0,5119	301,63	799,53	0,02433	
48,08	0,5180	340,70	800,14	0,02113	
48,10	0,5249	380,14	800,87	0,01783	
48,12	0,5325	427,89	800,81	0,01434	
48,14	0,5409	477,60	800,18	0,01035	
48,16	0,5501	524,46	799,79	0,00554	
48,18	0,5604	567,31	800,22	0,00021	
48,20	0,5713	608,88	800,43	-0,00540	
48,22	0,5828	649,02	800,01	-0,01145	
48,24	0,5951	683,68	799,79	-0,01815	
48,26	0,6085	709,56	800,03	-0,02516	
48,28	0,6225	738,29	799,93	-0,03267	
48,30	0,6372	767,81	799,67	-0,04091	
48,32	0,6530	786,54	799,90	-0,04977	
48,34	0,6693	801,29	800,08	-0,05909	
48,36	0,6864	821,31	799,81	-0,06902	
48,38	0,7046	838,11	799,65	-0,07947	
48,40	0,7236	847,09	799,66	-0,09030	
48,42	0,7430	859,29	799,47	-0,1018	
48,44	0,7634	869,12	799,74	-0,1140	
48,46	0,7848	872,02	800,24	-0,1266	
48,48	0,8067	878,00	800,05	-0,1395	
48,50	0,8294	888,16	799,71	-0,1531	
48,52	0,8532	890,76	800,03	-0,1671	
48,54	0,8778	893,88	800,25	-0,1813	
48,56	0,9030	903,85	799,87	-0,1961	
48,58	0,9289	911,80	799,53	-0,2116	
48,60	0,9559	911,31	800,17	-0,2273	
48,62	0,9836	914,44	800,64	-0,2433	
48,64	1,012	922,59	800,18	-0,2598	
48,66	1,041	927,35	799,93	-0,2767	
48,68	1,071	925,58	800,25	-0,2937	
48,70	1,102	930,04	800,14	-0,3112	
48,72	1,133	938,77	799,58	-0,3292	
48,74	1,166	940,65	799,33	-0,3476	
48,76	1,199	936,19	800,26	-0,3662	
48,78	1,233	937,76	801,22	-0,3848	
48,80	1,268	944,32	801,07	-0,4037	
48,82	1,304	950,27	800,18	-0,4231	
48,84	1,340	954,04	800,24	-0,4430	
48,86	1,377	957,77	801,27	-0,4631	
48,88	1,416	963,08	801,53	-0,4833	
48,90	1,454	966,36	800,84	-0,5035	
48,92	1,493	968,46	799,87	-0,5237	
48,94	1,533	968,05	799,69	-0,5437	
48,96	1,573	968,02	800,01	-0,5634	
48,98	1,613	969,50	800,00	-0,5833	
49,00	1,653	971,07	799,67	-0,6031	
49,02	1,693	968,61	799,89	-0,6229	
49,04	1,733	967,71	800,14	-0,6425	
49,06	1,773	974,46	799,86	-0,6621	
49,08	1,813	976,14	799,74	-0,6818	
49,10	1,853	972,68	799,64	-0,7013	
49,12	1,893	972,40	799,71	-0,7208	
49,14	1,933	973,63	800,11	-0,7402	
49,16	1,973	974,44	800,10	-0,7595	
49,18	2,013	978,53	799,69	-0,7789	
49,20	2,053	980,35	799,93	-0,7982	
49,22	2,093	978,57	800,41	-0,8173	
49,24	2,133	981,52	800,16	-0,8363	
49,26	2,173	985,20	799,68	-0,8553	
49,28	2,213	979,99	800,21	-0,8743	
49,30	2,253	976,28	800,94	-0,8931	
49,32	2,293	980,08	800,79	-0,9118	
49,34	2,333	983,95	800,06	-0,9305	
49,36	2,373	982,90	799,81	-0,9491	
49,38	2,413	981,43	800,04	-0,9676	
49,40	2,453	983,79	799,95	-0,9862	
49,42	2,493	985,31	799,57	-1,005	
49,44	2,533	980,46	799,81	-1,023	
49,46	2,573	974,82	800,47	-1,041	
49,48	2,613	977,70	800,42	-1,059	
49,50	2,653	982,68	799,88	-1,078	
49,52	2,693	979,61	800,21	-1,096	
49,54	2,733	976,61	800,69	-1,114	
49,56	2,773	981,05	800,37	-1,132	
49,58	2,813	984,64	799,76	-1,150	
49,60	2,853	979,74	799,93	-1,167	
49,62	2,893	975,49	800,29	-1,185	
49,64	2,933	978,69	800,22	-1,203	
49,66	2,973	981,71	799,81	-1,221	
49,68	3,013	980,37	799,81	-1,238	
49,70	3,053	978,29	800,13	-1,256	
49,72	3,093	981,00	799,95	-1,274	
49,74	3,133	981,98	799,81	-1,291	
49,76	3,173	976,73	800,14	-1,309	
49,78	3,213	975,00	799,92	-1,326	
49,80	3,253	978,35	799,88	-1,344	
49,82	3,293	975,64	800,69	-1,361	
49,84	3,333	972,38	800,95	-1,378	
49,86	3,373	976,13	800,50	-1,395	
49,88	3,413	980,96	799,91	-1,412	
49,90	3,453	982,31	799,64	-1,430	
49,92	3,493	981,41	799,91	-1,447	
49,94	3,533	980,73	799,98	-1,464	
49,96	3,573	981,18	799,67	-1,481	
49,98	3,613	979,92	799,52	-1,498	
50,00	3,653	974,25	800,06	-1,515	
50,02	3,693	973,72	800,43	-1,532	
50,04	3,733	977,88	800,12	-1,548	
50,06	3,773	980,72	799,69	-1,565	
50,08	3,813	978,52	799,78	-1,582	
50,10	3,853	979,06	799,79	-1,599	
50,12	3,893	982,30	799,63	-1,615	
50,14	3,933	977,08	800,07	-1,631	
50,16	3,973	970,38	800,37	-1,648	
50,18	4,013	971,64	800,13	-1,664	
50,20	4,053	977,50	799,71	-1,681	
50,22	4,093	977,23	799,82	-1,697	
50,24	4,133	976,37	799,89	-1,713	
50,26	4,173	978,18	799,76	-1,729	
50,28	4,213	973,75	800,34	-1,746	
50,30	4,253	968,23	800,69	-1,762	
50,32	4,293	969,22	800,21	-1,778	
50,34	4,333	972,87	800,01	-1,794	
50,36	4,373	970,19	800,32	-1,810	
50,38	4,413	971,19	799,95	-1,825	
50,40	4,453	971,70	799,97	-1,841	
50,42	4,493	964,21	801,12	-1,857	
50,44	4,534	958,99	801,76	-1,873	
50,46	4,573	962,38	801,46	-1,888	
50,48	4,613	965,72	800,78	-1,903	
50,50	4,653	968,11	800,05	-1,919	
50,52	4,693	972,04	799,85	-1,934	
50,54	4,733	969,84	800,41	-1,950	
50,56	4,773	965,68	800,61	-1,965	
50,58	4,813	964,71	800,08	-1,980	
50,60	4,853	964,98	799,84	-1,995	
50,62	4,893	959,88	800,69	-2,010	
50,64	4,933	959,77	801,32	-2,025	
50,66	4,973	962,72	801,14	-2,040	
50,68	5,013	964,19	800,42	-2,055	
50,70	5,053	964,44	799,99	-2,070	
50,72	5,093	962,76	800,84	-2,084	
50,74	5,133	960,98	801,73	-2,099	
50,76	5,173	960,35	801,63	-2,114	
50,78	5,213	960,60	800,69	-2,128	
50,80	5,253	961,09	800,06	-2,143	
50,82	5,293	961,22	800,34	-2,157	
50,84	5,333	962,61	800,33	-2,172	
50,86	5,373	963,99	800,02	-2,186	
50,88	5,413	959,33	800,86	-2,200	
50,90	5,453	953,68	801,67	-2,214	
50,92	5,493	955,25	801,32	-2,229	
50,94	5,533	959,39	800,38	-2,243	
50,96	5,573	960,87	799,83	-2,257	
50,98	5,613	958,95	800,10	-2,271	
51,00	5,653	958,96	800,23	-2,285	
51,02	5,693	959,39	799,92	-2,298	
51,04	5,733	958,09	799,57	-2,312	
51,06	5,773	956,19	799,26	-2,326	
51,08	5,813	953,49	799,85	-2,340	
51,10	5,853	948,79	801,38	-2,354	
51,12	5,893	946,41	801,94	-2,367	
51,14	5,933	947,56	801,34	-2,381	
51,16	5,973	951,11	800,60	-2,394	
51,18	6,013	956,89	799,91	-2,407	
51,20	6,053	960,07	799,97	-2,421	
51,22	6,093	954,86	800,68	-2,434	
51,24	6,133	948,99	800,88	-2,447	
51,26	6,173	947,04	800,33	-2,460	
51,28	6,213	947,38	799,77	-2,473	
51,30	6,253	944,77	800,27	-2,487	
51,32	6,293	944,27	800,62	-2,500	
51,34	6,333	945,44	800,15	-2,513	
51,36	6,373	943,42	799,88	-2,525	
51,38	6,413	937,16	800,17	-2,538	
51,40	6,453	937,43	799,93	-2,551	
51,42	6,493	941,07	799,64	-2,563	
51,44	6,533	935,21	800,75	-2,576	
51,46	6,573	928,34	802,41	-2,589	
51,48	6,613	930,02	803,00	-2,601	
51,50	6,653	933,70	802,27	-2,613	
51,52	6,693	934,98	801,03	-2,626	
51,54	6,733	939,67	799,98	-2,638	
51,56	6,773	942,07	799,86	-2,650	
51,58	6,814	935,57	800,27	-2,662	
51,60	6,853	929,64	800,16	-2,675	
51,62	6,893	925,25	800,63	-2,687	
51,64	6,933	921,73	801,31	-2,699	
51,66	6,973	922,56	801,09	-2,710	
51,68	7,013	929,49	800,10	-2,722	
51,70	7,053	931,10	800,03	-2,734	
51,72	7,094	924,81	801,20	-2,746	
51,74	7,134	921,93	801,79	-2,758	
51,76	7,173	921,69	801,53	-2,769	
51,78	7,213	920,71	801,02	-2,781	
51,80	7,253	920,51	800,35	-2,792	
51,82	7,293	925,56	799,76	-2,804	
51,84	7,333	924,82	799,88	-2,815	
51,86	7,373	919,02	800,14	-2,827	
51,88	7,413	917,05	799,93	-2,838	
51,90	7,453	917,78	799,75	-2,849	
51,92	7,493	914,69	800,12	-2,861	
51,94	7,533	915,53	800,16	-2,872	
51,96	7,573	921,64	799,68	-2,883	
51,98	7,613	919,91	799,95	-2,894	
52,00	7,653	912,73	800,58	-2,905	
52,02	7,693	913,11	800,42	-2,916	
52,04	7,733	914,76	800,02	-2,927	
52,06	7,773	911,37	799,78	-2,937	
52,08	7,813	911,76	799,44	-2,948	
52,10	7,853	911,40	799,98	-2,959	
52,12	7,893	905,28	800,85	-2,970	
52,14	7,933	901,33	800,88	-2,980	
52,16	7,973	902,92	800,58	-2,991	
52,18	8,013	905,93	799,94	-3,001	
52,20	8,053	908,45	799,83	-3,011	
52,22	8,093	905,47	801,20	-3,022	
52,24	8,133	901,18	801,83	-3,032	
52,26	8,173	898,33	801,14	-3,043	
52,28	8,213	897,54	800,13	-3,053	
52,30	8,253	891,69	800,78	-3,063	
52,32	8,294	888,54	802,11	-3,074	
52,34	8,333	889,86	802,25	-3,083	
52,36	8,373	889,54	801,76	-3,093	
52,38	8,413	888,67	800,68	-3,103	
52,40	8,453	888,01	800,89	-3,114	
52,42	8,493	885,42	802,28	-3,124	
52,44	8,533	882,05	802,81	-3,134	
52,46	8,573	880,10	802,22	-3,143	
52,48	8,613	878,81	801,13	-3,153	
52,50	8,653	879,87	800,08	-3,163	
52,52	8,693	883,41	799,85	-3,173	
52,54	8,733	880,99	800,55	-3,183	
52,56	8,773	877,79	800,99	-3,192	
52,58	8,813	878,00	800,63	-3,202	
52,60	8,853	880,07	799,84	-3,212	
52,62	8,893	880,24	799,57	-3,221	
52,64	8,933	877,70	799,94	-3,231	
52,66	8,973	876,14	799,99	-3,240	
52,68	9,013	874,75	799,77	-3,250	
52,70	9,053	871,04	799,85	-3,259	
52,72	9,093	870,12	799,86	-3,268	
52,74	9,133	877,27	799,64	-3,278	
52,76	9,173	879,44	800,12	-3,287	
52,78	9,213	874,70	800,45	-3,296	
52,80	9,253	873,33	800,17	-3,305	
52,82	9,293	870,31	800,86	-3,315	
52,84	9,333	865,76	801,44	-3,324	
52,86	9,373	866,64	801,30	-3,333	
52,88	9,413	871,14	800,78	-3,341	
52,90	9,453	873,67	800,04	-3,350	
52,92	9,493	874,71	800,18	-3,359	
52,94	9,533	871,77	801,14	-3,368	
52,96	9,573	867,97	801,42	-3,377	
52,98	9,613	866,37	801,10	-3,386	
53,00	9,653	866,65	800,38	-3,394	
53,02	9,693	867,56	800,40	-3,403	
53,04	9,733	865,78	802,24	-3,412	
53,06	9,773	863,35	803,72	-3,421	
53,08	9,813	861,19	803,61	-3,429	
53,10	9,853	859,29	802,70	-3,434	
53,12	9,893	853,92	801,66	-3,437	
53,14	9,932	845,07	800,55	-3,438	
53,16	9,962	826,71	800,07	-3,438	
53,18	9,979	790,60	800,65	-3,438	
53,20	9,986	747,35	800,94	-3,438	
53,22	9,989	707,61	800,68	-3,438	
53,24	9,990	673,50	800,29	-3,438	
53,26	9,991	645,03	800,08	-3,438	
53,28	9,991	625,81	799,78	-3,438	
53,30	9,992	610,74	799,58	-3,438	
53,32	9,992	589,57	800,16	-3,438	
53,34	9,992	568,34	800,72	-3,438	
53,36	9,992	551,92	800,61	-3,438	
53,38	9,992	538,37	800,09	-3,438	
53,40	9,992	526,59	799,74	-3,438	
53,42	9,992	515,50	800,56	-3,438	
53,44	9,992	504,08	801,40	-3,438	
53,46	9,992	493,05	801,31	-3,438	
53,48	9,992	482,84	800,55	-3,438	
53,50	9,992	474,44	799,69	-3,438	
53,52	9,992	463,77	800,34	-3,438	
53,54	9,992	451,57	801,95	-3,439	
53,56	9,992	440,62	802,06	-3,438	
53,58	9,992	430,56	800,68	-3,438	
53,60	9,992	414,03	801,33	-3,439	
53,62	9,992	397,59	803,31	-3,439	
53,64	9,992	388,66	804,36	-3,439	
53,66	9,992	381,17	804,40	-3,439	
53,68	9,992	372,36	804,30	-3,439	
53,70	9,992	368,05	804,18	-3,439	
53,72	9,992	370,05	803,79	-3,439	
53,74	9,992	372,25	803,11	-3,439	
53,76	9,992	372,87	802,23	-3,438	
53,78	9,992	372,92	801,32	-3,438	
53,80	9,992	373,41	800,36	-3,438	
53,82	9,992	373,58	799,76	-3,438	
53,84	9,992	372,70	799,65	-3,438	
53,86	9,992	372,60	799,58	-3,438	
53,88	9,992	372,78	799,56	-3,438	
53,90	9,992	372,46	799,63	-3,439	
53,92	9,992	373,20	799,49	-3,439	
53,94	9,992	373,04	799,82	-3,439	
53,96	9,992	372,24	800,54	-3,439	
53,98	9,992	372,57	800,41	-3,439	
54,00	9,992	373,48	799,83	-3,439	
54,02	9,992	372,80	800,10	-3,439	
54,04	9,992	372,19	801,02	-3,439	
54,06	9,992	372,46	800,91	-3,439	
54,08	9,992	373,40	800,29	-3,439	
54,10	9,992	372,65	801,03	-3,439	
54,12	9,992	372,25	802,13	-3,439	
54,14	9,992	372,48	802,11	-3,439	
54,16	9,992	372,81	800,99	-3,439	
54,18	9,992	373,28	800,06	-3,439	
54,20	9,992	351,70	801,12	-3,439	
54,22	9,992	310,84	802,68	-3,440	
54,24	9,992	285,15	803,18	-3,440	
54,26	9,992	275,75	802,64	-3,439	
54,28	9,992	270,76	801,99	-3,439	
54,30	9,992	270,27	801,50	-3,439	
54,32	9,992	275,60	800,91	-3,439	
54,34	9,992	281,42	800,21	-3,439	
54,36	9,992	285,63	799,52	-3,439	
54,38	9,992	283,39	799,94	-3,439	
54,40	9,992	276,66	801,35	-3,439	
54,42	9,992	271,80	801,96	-3,439	
54,44	9,992	268,37	801,43	-3,439	
54,46	9,992	265,02	800,74	-3,439	
54,48	9,992	266,03	800,05	-3,439	
54,50	9,992	269,86	800,11	-3,439	
54,52	9,992	266,50	801,17	-3,439	
54,54	9,992	260,91	801,76	-3,439	
54,56	9,992	257,68	801,30	-3,439	
54,58	9,992	256,22	800,18	-3,439	
54,60	9,992	254,25	799,62	-3,439	
54,62	9,992	249,21	800,82	-3,439	
54,64	9,992	243,27	802,45	-3,439	
54,66	9,992	237,83	803,16	-3,439	
54,68	9,992	232,80	802,81	-3,439	
54,70	9,992	228,26	801,88	-3,439	
54,72	9,992	230,73	800,81	-3,439	
54,74	9,992	237,74	799,98	-3,439	
54,76	9,992	242,00	799,44	-3,439	
54,78	9,992	241,22	799,50	-3,439	
54,80	9,992	233,87	800,79	-3,440	
54,82	9,992	225,59	802,20	-3,440	
54,84	9,992	219,80	802,37	-3,440	
54,86	9,992	216,64	801,25	-3,440	
54,88	9,992	216,55	800,61	-3,440	
54,90	9,992	213,82	802,28	-3,440	
54,92	9,992	208,98	804,10	-3,440	
54,94	9,992	203,56	804,69	-3,440	
54,96	9,992	198,85	804,36	-3,440	
54,98	9,992	195,69	803,61	-3,440	
55,00	9,992	197,70	802,64	-3,440	
55,02	9,992	203,88	801,52	-3,439	
55,04	9,992	210,28	800,43	-3,439	
55,06	9,992	214,44	800,01	-3,439	
55,08	9,992	214,05	800,40	-3,439	
55,10	9,992	214,54	800,63	-3,439	
55,12	9,992	217,50	800,13	-3,439	
55,14	9,992	219,54	800,00	-3,439	
55,16	9,992	213,43	801,38	-3,440	
55,18	9,992	207,85	802,09	-3,440	
55,20	9,992	205,35	801,11	-3,440	
55,22	9,992	199,85	800,80	-3,440	
55,24	9,992	187,30	802,29	-3,440	
55,26	9,992	179,90	802,69	-3,440	
55,28	9,992	177,89	801,36	-3,440	
55,30	9,992	175,14	800,55	-3,440	
55,32	9,992	165,77	801,97	-3,440	
55,34	9,992	159,64	803,20	-3,440	
55,36	9,992	157,45	803,15	-3,440	
55,38	9,992	154,88	802,80	-3,440	
55,40	9,992	152,81	802,77	-3,440	
55,42	9,992	156,21	802,68	-3,440	
55,44	9,992	163,26	802,25	-3,440	
55,46	9,992	169,64	801,49	-3,440	
55,48	9,992	176,33	800,50	-3,440	
55,50	9,992	181,35	800,10	-3,440	
55,52	9,992	180,88	800,73	-3,440	
55,54	9,992	180,91	801,33	-3,440	
55,56	9,992	183,14	801,29	-3,440	
55,58	9,992	185,89	800,71	-3,440	
55,60	9,992	189,84	799,85	-3,440	
55,62	9,992	192,44	799,96	-3,440	
55,64	9,992	188,32	800,49	-3,440	
55,66	9,992	183,65	800,25	-3,440	
55,68	9,992	177,29	800,24	-3,440	
55,70	9,992	168,43	800,76	-3,440	
55,72	9,992	163,94	801,00	-3,440	
55,74	9,992	166,75	800,58	-3,440	
55,76	9,992	170,16	799,65	-3,440	
55,78	9,992	173,92	798,30	-3,439	
55,80	9,992	180,64	796,94	-3,439	
55,82	9,992	186,96	796,63	-3,439	
55,84	9,992	192,48	796,72	-3,439	
55,86	9,992	197,37	796,22	-3,439	
55,88	9,992	202,72	794,95	-3,439	
55,90	9,992	208,94	793,61	-3,439	
55,92	9,992	215,36	792,70	-3,439	
55,94	9,992	220,83	791,55	-3,439	
55,96	9,992	226,26	789,81	-3,439	
55,98	9,992	232,49	788,47	-3,439	
56,00	9,992	238,40	788,11	-3,439	
56,02	9,992	243,60	787,77	-3,438	
56,04	9,992	249,21	786,64	-3,438	
56,06	9,992	254,41	785,16	-3,438	
56,08	9,992	259,66	784,03	-3,438	
56,10	9,992	264,61	783,42	-3,438	
56,12	9,992	269,76	783,16	-3,438	
56,14	9,992	274,59	782,34	-3,438	
56,16	9,992	279,16	781,01	-3,438	
56,18	9,992	283,68	779,91	-3,437	
56,20	9,992	288,07	778,73	-3,437	
56,22	9,992	292,56	777,29	-3,437	
56,24	9,992	297,13	776,27	-3,437	
56,26	9,992	301,61	775,98	-3,437	
56,28	9,992	306,08	776,31	-3,437	
56,30	9,992	310,85	776,66	-3,437	
56,32	9,992	315,88	776,09	-3,437	
56,34	9,992	320,66	774,68	-3,437	
56,36	9,992	324,95	773,41	-3,437	
56,38	9,992	328,70	772,45	-3,437	
56,40	9,992	332,09	771,54	-3,437	
56,42	9,992	335,62	770,37	-3,436	
56,44	9,992	339,80	769,08	-3,436	
56,46	9,992	343,72	767,95	-3,436	
56,48	9,992	347,18	766,71	-3,436	
56,50	9,992	350,50	765,58	-3,436	
56,52	9,992	354,33	765,11	-3,436	
56,54	9,992	358,41	764,75	-3,436	
56,56	9,992	362,18	764,04	-3,436	
56,58	9,992	365,66	763,23	-3,436	
56,60	9,992	369,03	762,57	-3,435	
56,62	9,992	372,37	762,33	-3,435	
56,64	9,992	375,15	762,48	-3,435	
56,66	9,992	377,72	762,78	-3,435	
56,68	9,992	380,72	762,77	-3,435	
56,70	9,992	383,79	762,20	-3,435	
56,72	9,992	386,41	761,46	-3,435	
56,74	9,992	388,70	760,85	-3,435	
56,76	9,992	391,11	759,97	-3,435	
56,78	9,992	393,92	758,32	-3,434	
56,80	9,992	395,97	756,50	-3,434	
56,82	9,992	397,84	755,70	-3,434	
56,84	9,992	399,89	755,74	-3,434	
56,86	9,992	401,87	755,83	-3,434	
56,88	9,992	403,59	755,55	-3,434	
56,90	9,992	405,28	754,84	-3,434	
56,92	9,992	406,92	753,82	-3,434	
56,94	9,992	408,63	752,91	-3,433	
56,96	9,992	410,23	752,27	-3,433	
56,98	9,992	411,90	751,67	-3,433	
57,00	9,992	412,84	751,03	-3,433	
57,02	9,992	413,12	750,29	-3,433	
57,04	9,992	413,84	749,22	-3,433	
57,06	9,992	415,33	747,78	-3,432	
57,08	9,992	416,24	746,01	-3,432	
57,10	9,992	416,42	744,22	-3,432	
57,12	9,992	416,38	742,90	-3,432	
57,14	9,992	416,28	742,27	-3,432	
57,16	9,992	416,98	742,24	-3,432	
57,18	9,992	418,54	742,54	-3,432	
57,20	9,992	419,51	742,68	-3,431	
57,22	9,992	419,77	742,21	-3,431	
57,24	9,992	419,76	741,22	-3,431	
57,26	9,992	419,00	739,77	-3,431	
57,28	9,992	417,50	738,09	-3,431	
57,30	9,992	416,64	736,81	-3,431	
57,32	9,992	416,47	736,20	-3,431	
57,34	9,992	416,23	735,93	-3,431	
57,36	9,992	414,91	735,59	-3,430	
57,38	9,992	413,58	734,99	-3,430	
57,40	9,992	412,91	734,14	-3,430	
57,42	9,992	411,58	733,24	-3,430	
57,44	9,992	410,28	732,52	-3,430	
57,46	9,992	409,04	732,06	-3,430	
57,48	9,992	407,40	731,67	-3,430	
57,50	9,992	406,23	731,51	-3,430	
57,52	9,992	404,75	731,60	-3,429	
57,54	9,992	403,30	731,05	-3,429	
57,56	9,992	401,49	729,29	-3,429	
57,58	9,992	399,36	727,40	-3,429	
57,60	9,992	397,39	726,24	-3,429	
57,62	9,992	395,75	725,68	-3,429	
57,64	9,992	393,27	725,46	-3,429	
57,66	9,992	390,67	725,41	-3,429	
57,68	9,992	388,28	725,17	-3,429	
57,70	9,992	386,00	724,42	-3,429	
57,72	9,992	383,76	723,49	-3,429	
57,74	9,992	381,51	722,99	-3,429	
57,76	9,992	379,25	723,34	-3,429	
57,78	9,992	376,48	724,00	-3,429	
57,80	9,992	373,27	724,20	-3,429	
57,82	9,992	370,43	723,87	-3,429	
57,84	9,992	367,78	723,41	-3,429	
57,86	9,992	364,78	722,93	-3,429	
57,88	9,992	361,43	722,47	-3,429	
57,90	9,992	358,07	722,15	-3,429	
57,92	9,992	354,76	721,83	-3,429	
57,94	9,992	351,43	721,11	-3,429	
57,96	9,992	348,09	720,01	-3,429	
57,98	9,992	344,80	718,98	-3,430	
58,00	9,992	341,46	718,23	-3,430	
58,02	9,992	338,05	717,53	-3,430	
58,04	9,992	334,91	716,94	-3,430	
58,06	9,992	332,35	716,51	-3,430	
58,08	9,992	329,57	715,99	-3,430	
58,10	9,992	326,18	715,42	-3,430	
58,12	9,992	322,06	714,86	-3,431	
58,14	9,992	318,13	714,23	-3,431	
58,16	9,992	314,07	713,45	-3,431	
58,18	9,992	309,74	712,77	-3,431	
58,20	9,992	305,19	712,45	-3,431	
58,22	9,992	301,12	712,34	-3,431	
58,24	9,992	297,01	712,09	-3,432	
58,26	9,992	292,91	711,56	-3,432	
58,28	9,992	289,26	710,82	-3,432	
58,30	9,992	285,88	710,15	-3,433	
58,32	9,992	282,41	710,02	-3,433	
58,34	9,992	278,28	710,20	-3,433	
58,36	9,992	274,30	710,10	-3,434	
58,38	9,992	270,20	709,62	-3,434	
58,40	9,992	266,08	708,84	-3,434	
58,42	9,992	262,17	708,00	-3,434	
58,44	9,992	257,96	707,39	-3,435	
58,46	9,992	254,05	706,76	-3,435	
58,48	9,992	250,03	705,96	-3,435	
58,50	9,992	246,02	705,25	-3,436	
58,52	9,992	242,20	704,97	-3,436	
58,54	9,992	237,95	704,95	-3,436	
58,56	9,992	234,01	704,68	-3,437	
58,58	9,992	229,96	704,10	-3,437	
58,60	9,992	225,66	703,61	-3,438	
58,62	9,992	221,21	703,47	-3,438	
58,64	9,992	216,69	703,46	-3,438	
58,66	9,992	212,42	703,28	-3,439	
58,68	9,992	208,55	702,76	-3,439	
58,70	9,992	204,43	702,07	-3,440	
58,72	9,992	200,51	701,56	-3,440	
58,74	9,992	197,00	701,21	-3,440	
58,76	9,992	193,60	700,83	-3,441	
58,78	9,992	189,68	700,39	-3,441	
58,80	9,992	185,65	700,04	-3,442	
58,82	9,992	182,04	699,34	-3,442	
58,84	9,992	178,43	698,48	-3,442	
58,86	9,992	174,31	698,01	-3,443	
58,88	9,992	170,36	697,80	-3,443	
58,90	9,992	166,82	697,79	-3,444	
58,92	9,992	163,40	697,66	-3,444	
58,94	9,992	160,01	697,38	-3,444	
58,96	9,992	156,11	697,22	-3,445	
58,98	9,992	151,99	696,83	-3,445	
59,00	9,992	148,27	696,38	-3,446	