Zeit  1 - Standardmessrate [s]	ZwickWeg [mm]	ZwickKraft [N]	Pyrometer [°C]	Maytec [mm]
0	-0,9730	159,17	150,12	0,02286	
0,02000	-0,9730	159,24	150,12	0,02296	
0,04000	-0,9730	159,28	150,11	0,02299	
0,06000	-0,9730	159,25	150,11	0,02305	
0,08000	-0,9730	159,28	150,11	0,02308	
0,1000	-0,9730	159,30	150,12	0,02301	
0,1200	-0,9730	159,27	150,12	0,02297	
0,1400	-0,9730	159,20	150,12	0,02292	
0,1600	-0,9730	159,20	150,11	0,02287	
0,1800	-0,9730	159,19	150,11	0,02294	
0,2000	-0,9730	159,18	150,11	0,02301	
0,2200	-0,9730	159,15	150,12	0,02301	
0,2400	-0,9730	159,12	150,12	0,02310	
0,2600	-0,9730	159,12	150,11	0,02313	
0,2800	-0,9730	159,18	150,11	0,02298	
0,3000	-0,9730	159,23	150,11	0,02286	
0,3200	-0,9730	159,18	150,12	0,02280	
0,3400	-0,9730	159,20	150,12	0,02281	
0,3600	-0,9730	159,24	150,11	0,02288	
0,3800	-0,9730	159,20	150,11	0,02296	
0,4000	-0,9730	159,22	150,12	0,02305	
0,4200	-0,9730	159,21	150,12	0,02311	
0,4400	-0,9730	159,17	150,12	0,02306	
0,4600	-0,9730	159,18	150,11	0,02295	
0,4800	-0,9730	159,23	150,11	0,02285	
0,5000	-0,9730	159,25	150,11	0,02281	
0,5200	-0,9730	159,29	150,12	0,02284	
0,5400	-0,9730	159,32	150,12	0,02300	
0,5600	-0,9730	159,77	150,12	0,02308	
0,5800	-0,9730	160,48	150,11	0,02310	
0,6000	-0,9730	160,32	150,11	0,02300	
0,6200	-0,9730	159,66	150,12	0,02295	
0,6400	-0,9730	159,33	150,12	0,02289	
0,6600	-0,9730	159,24	150,11	0,02280	
0,6800	-0,9730	159,27	150,11	0,02284	
0,7000	-0,9730	159,29	150,11	0,02295	
0,7200	-0,9730	159,32	150,12	0,02306	
0,7400	-0,9730	159,38	150,12	0,02311	
0,7600	-0,9730	159,38	150,12	0,02310	
0,7800	-0,9730	159,32	150,11	0,02302	
0,8000	-0,9730	159,28	150,11	0,02288	
0,8200	-0,9730	159,27	150,12	0,02286	
0,8400	-0,9730	159,28	150,12	0,02293	
0,8600	-0,9730	159,24	150,11	0,02298	
0,8800	-0,9730	159,26	150,11	0,02302	
0,9000	-0,9730	159,25	150,11	0,02309	
0,9200	-0,9730	159,23	150,11	0,02314	
0,9400	-0,9730	159,19	150,11	0,02308	
0,9600	-0,9730	159,14	150,12	0,02294	
0,9800	-0,9730	159,13	150,12	0,02283	
1,000	-0,9730	159,15	150,11	0,02285	
1,020	-0,9730	159,16	150,11	0,02290	
1,040	-0,9730	159,18	150,11	0,02297	
1,060	-0,9730	159,17	150,12	0,02308	
1,080	-0,9730	159,20	150,12	0,02310	
1,100	-0,9730	159,18	150,11	0,02307	
1,120	-0,9730	159,12	150,11	0,02294	
1,140	-0,9730	159,07	150,11	0,02278	
1,160	-0,9730	159,11	150,12	0,02273	
1,180	-0,9730	159,19	150,12	0,02283	
1,200	-0,9730	159,25	150,11	0,02300	
1,220	-0,9730	159,28	150,11	0,02307	
1,240	-0,9730	159,29	150,12	0,02313	
1,260	-0,9730	159,26	150,12	0,02309	
1,280	-0,9730	159,22	150,12	0,02297	
1,300	-0,9730	159,22	150,11	0,02294	
1,320	-0,9730	159,23	150,11	0,02289	
1,340	-0,9730	159,18	150,12	0,02288	
1,360	-0,9730	159,09	150,12	0,02290	
1,380	-0,9730	159,11	150,12	0,02302	
1,400	-0,9730	159,18	150,11	0,02312	
1,420	-0,9730	159,23	150,11	0,02315	
1,440	-0,9730	159,24	150,12	0,02308	
1,460	-0,9730	159,23	150,12	0,02293	
1,480	-0,9730	159,18	150,12	0,02288	
1,500	-0,9730	159,19	150,11	0,02293	
1,520	-0,9730	159,19	150,11	0,02297	
1,540	-0,9730	159,14	150,12	0,02296	
1,560	-0,9730	159,12	150,12	0,02302	
1,580	-0,9730	159,11	150,12	0,02313	
1,600	-0,9730	159,09	150,11	0,02311	
1,620	-0,9730	159,08	150,11	0,02298	
1,640	-0,9730	159,10	150,12	0,02286	
1,660	-0,9730	159,14	150,12	0,02279	
1,680	-0,9730	159,18	150,12	0,02282	
1,700	-0,9730	159,18	150,12	0,02295	
1,720	-0,9730	159,16	150,11	0,02310	
1,740	-0,9730	159,16	150,12	0,02315	
1,760	-0,9730	159,16	150,12	0,02311	
1,780	-0,9730	159,14	150,12	0,02301	
1,800	-0,9730	159,17	150,11	0,02291	
1,820	-0,9730	159,19	150,12	0,02288	
1,840	-0,9730	159,19	150,12	0,02292	
1,860	-0,9730	159,16	150,12	0,02304	
1,880	-0,9730	159,13	150,12	0,02318	
1,900	-0,9730	159,12	150,11	0,02319	
1,920	-0,9730	159,15	150,12	0,02310	
1,940	-0,9730	159,17	150,12	0,02297	
1,960	-0,9730	159,20	150,12	0,02289	
1,980	-0,9730	159,26	150,11	0,02281	
2,000	-0,9730	159,30	150,11	0,02281	
2,020	-0,9730	159,27	150,12	0,02287	
2,040	-0,9730	159,24	150,12	0,02299	
2,060	-0,9730	159,26	150,12	0,02308	
2,080	-0,9730	159,26	150,11	0,02305	
2,100	-0,9730	159,27	150,11	0,02306	
2,120	-0,9730	159,29	150,12	0,02298	
2,140	-0,9730	159,24	150,12	0,02291	
2,160	-0,9730	159,23	150,12	0,02288	
2,180	-0,9730	159,29	150,11	0,02286	
2,200	-0,9730	159,33	150,11	0,02294	
2,220	-0,9730	159,30	150,12	0,02307	
2,240	-0,9730	159,23	150,12	0,02311	
2,260	-0,9730	159,17	150,12	0,02308	
2,280	-0,9730	159,18	150,11	0,02296	
2,300	-0,9730	159,19	150,11	0,02291	
2,320	-0,9730	159,17	150,12	0,02291	
2,340	-0,9730	159,17	150,12	0,02292	
2,360	-0,9730	159,22	150,12	0,02297	
2,380	-0,9730	159,28	150,11	0,02304	
2,400	-0,9730	159,21	150,11	0,02310	
2,420	-0,9730	159,12	150,12	0,02316	
2,440	-0,9730	159,14	150,12	0,02312	
2,460	-0,9730	159,21	150,11	0,02301	
2,480	-0,9730	159,26	150,11	0,02289	
2,500	-0,9730	159,23	150,11	0,02285	
2,520	-0,9730	159,20	150,11	0,02291	
2,540	-0,9730	159,21	150,12	0,02301	
2,560	-0,9730	159,21	150,12	0,02303	
2,580	-0,9730	159,22	150,11	0,02303	
2,600	-0,9730	159,24	150,11	0,02307	
2,620	-0,9730	159,26	150,12	0,02304	
2,640	-0,9730	159,21	150,12	0,02295	
2,660	-0,9730	159,21	150,12	0,02286	
2,680	-0,9730	159,20	150,12	0,02286	
2,700	-0,9730	159,19	150,12	0,02298	
2,720	-0,9730	159,17	150,12	0,02310	
2,740	-0,9730	159,16	150,12	0,02314	
2,760	-0,9730	159,20	150,11	0,02312	
2,780	-0,9730	159,28	150,11	0,02304	
2,800	-0,9730	159,23	150,11	0,02290	
2,820	-0,9730	159,24	150,12	0,02279	
2,840	-0,9730	159,32	150,12	0,02276	
2,860	-0,9730	159,35	150,11	0,02278	
2,880	-0,9730	159,33	150,11	0,02292	
2,900	-0,9730	159,34	150,11	0,02311	
2,920	-0,9730	159,37	150,12	0,02319	
2,940	-0,9730	159,31	150,12	0,02314	
2,960	-0,9730	159,24	150,12	0,02299	
2,980	-0,9730	159,27	150,11	0,02281	
3,000	-0,9730	159,32	150,12	0,02278	
3,020	-0,9731	159,35	150,12	0,02293	
3,040	-0,9731	159,32	150,12	0,02306	
3,060	-0,9730	159,28	150,12	0,02316	
3,080	-0,9730	159,28	150,12	0,02317	
3,100	-0,9730	159,31	150,12	0,02311	
3,120	-0,9730	159,26	150,12	0,02299	
3,140	-0,9730	159,29	150,11	0,02292	
3,160	-0,9730	159,32	150,11	0,02286	
3,180	-0,9730	159,29	150,11	0,02287	
3,200	-0,9731	159,27	150,12	0,02284	
3,220	-0,9733	159,28	150,12	0,02289	
3,240	-0,9736	159,35	150,12	0,02304	
3,260	-0,9737	159,33	150,11	0,02312	
3,280	-0,9737	159,25	150,11	0,02310	
3,300	-0,9737	159,26	150,11	0,02296	
3,320	-0,9737	159,33	150,12	0,02280	
3,340	-0,9737	159,35	150,12	0,02277	
3,360	-0,9737	159,30	150,11	0,02277	
3,380	-0,9737	159,25	150,11	0,02284	
3,400	-0,9737	159,25	150,12	0,02296	
3,420	-0,9737	159,28	150,12	0,02308	
3,440	-0,9737	159,20	150,12	0,02312	
3,460	-0,9737	159,20	150,11	0,02304	
3,480	-0,9737	159,21	150,11	0,02293	
3,500	-0,9737	159,19	150,11	0,02290	
3,520	-0,9737	159,25	150,12	0,02287	
3,540	-0,9737	159,25	150,12	0,02293	
3,560	-0,9737	159,17	150,11	0,02305	
3,580	-0,9737	159,13	150,11	0,02315	
3,600	-0,9737	159,09	150,11	0,02316	
3,620	-0,9737	159,16	150,12	0,02306	
3,640	-0,9737	159,27	150,12	0,02296	
3,660	-0,9737	159,30	150,12	0,02292	
3,680	-0,9737	159,20	150,11	0,02292	
3,700	-0,9737	159,12	150,11	0,02295	
3,720	-0,9737	159,15	150,12	0,02299	
3,740	-0,9737	159,18	150,12	0,02302	
3,760	-0,9737	159,16	150,12	0,02312	
3,780	-0,9737	159,19	150,11	0,02317	
3,800	-0,9737	159,18	150,11	0,02311	
3,820	-0,9737	159,20	150,12	0,02299	
3,840	-0,9737	159,20	150,12	0,02290	
3,860	-0,9737	159,20	150,12	0,02292	
3,880	-0,9737	159,22	150,11	0,02304	
3,900	-0,9737	159,16	150,12	0,02317	
3,920	-0,9737	159,05	150,12	0,02315	
3,940	-0,9737	159,04	150,12	0,02310	
3,960	-0,9737	159,10	150,11	0,02300	
3,980	-0,9737	159,17	150,11	0,02284	
4,000	-0,9737	159,20	150,12	0,02276	
4,020	-0,9737	159,24	150,12	0,02280	
4,040	-0,9737	159,29	150,12	0,02292	
4,060	-0,9737	159,24	150,11	0,02300	
4,080	-0,9737	159,12	150,11	0,02302	
4,100	-0,9737	159,14	150,12	0,02300	
4,120	-0,9737	159,19	150,12	0,02302	
4,140	-0,9737	159,19	150,11	0,02302	
4,160	-0,9737	159,18	150,11	0,02297	
4,180	-0,9735	159,21	150,11	0,02295	
4,200	-0,9732	159,21	150,12	0,02294	
4,220	-0,9730	159,17	150,12	0,02295	
4,240	-0,9730	159,13	150,12	0,02301	
4,260	-0,9730	159,13	150,11	0,02310	
4,280	-0,9730	159,14	150,11	0,02315	
4,300	-0,9730	159,18	150,12	0,02307	
4,320	-0,9730	159,24	150,12	0,02291	
4,340	-0,9730	159,22	150,12	0,02280	
4,360	-0,9730	159,23	150,11	0,02280	
4,380	-0,9730	159,31	150,11	0,02290	
4,400	-0,9730	159,29	150,12	0,02300	
4,420	-0,9730	159,21	150,12	0,02306	
4,440	-0,9730	159,18	150,12	0,02308	
4,460	-0,9730	159,17	150,11	0,02313	
4,480	-0,9730	159,16	150,11	0,02302	
4,500	-0,9730	159,20	150,12	0,02279	
4,520	-0,9730	159,21	150,12	0,02266	
4,540	-0,9730	159,20	150,12	0,02266	
4,560	-0,9730	159,18	150,11	0,02280	
4,580	-0,9730	159,20	150,11	0,02298	
4,600	-0,9730	159,21	150,11	0,02308	
4,620	-0,9730	159,19	150,12	0,02308	
4,640	-0,9730	159,13	150,12	0,02299	
4,660	-0,9730	159,09	150,11	0,02293	
4,680	-0,9731	159,11	150,11	0,02290	
4,700	-0,9734	159,20	150,12	0,02290	
4,720	-0,9736	159,30	150,12	0,02297	
4,740	-0,9737	159,34	150,12	0,02308	
4,760	-0,9737	159,28	150,12	0,02309	
4,780	-0,9737	159,18	150,12	0,02309	
4,800	-0,9737	159,15	150,12	0,02300	
4,820	-0,9737	159,18	150,12	0,02289	
4,840	-0,9737	159,18	150,12	0,02288	
4,860	-0,9737	159,16	150,11	0,02294	
4,880	-0,9737	159,16	150,11	0,02302	
4,900	-0,9737	159,10	150,12	0,02309	
4,920	-0,9737	159,10	150,12	0,02318	
4,940	-0,9737	159,15	150,12	0,02319	
4,960	-0,9737	159,12	150,11	0,02312	
4,980	-0,9737	159,08	150,12	0,02299	
5,000	-0,9737	159,06	150,12	0,02314	
5,020	-0,9737	159,07	150,12	0,02379	
5,040	-0,9737	159,13	150,12	0,02437	
5,060	-0,9737	159,13	150,12	0,02464	
5,080	-0,9737	159,08	150,12	0,02477	
5,100	-0,9737	159,08	150,12	0,02482	
5,120	-0,9737	159,13	150,11	0,02476	
5,140	-0,9737	159,17	150,11	0,02462	
5,160	-0,9737	159,14	150,11	0,02447	
5,180	-0,9737	159,11	150,12	0,02442	
5,200	-0,9737	159,13	150,12	0,02444	
5,220	-0,9737	159,15	150,12	0,02456	
5,240	-0,9737	159,17	150,11	0,02418	
5,260	-0,9737	159,22	150,11	0,02351	
5,280	-0,9737	159,29	150,12	0,02321	
5,300	-0,9737	159,34	150,12	0,02304	
5,320	-0,9737	159,32	150,12	0,02289	
5,340	-0,9737	159,34	150,12	0,02282	
5,360	-0,9737	159,36	150,11	0,02286	
5,380	-0,9737	159,32	150,12	0,02295	
5,400	-0,9737	159,28	150,12	0,02305	
5,420	-0,9737	159,23	150,12	0,02306	
5,440	-0,9737	159,19	150,11	0,02304	
5,460	-0,9737	159,16	150,12	0,02297	
5,480	-0,9737	159,19	150,12	0,02282	
5,500	-0,9737	159,20	150,12	0,02279	
5,520	-0,9737	159,17	150,11	0,02286	
5,540	-0,9737	159,12	150,11	0,02299	
5,560	-0,9737	159,08	150,11	0,02307	
5,580	-0,9737	159,10	150,12	0,02312	
5,600	-0,9737	159,15	150,12	0,02312	
5,620	-0,9737	159,17	150,12	0,02306	
5,640	-0,9737	159,15	150,11	0,02298	
5,660	-0,9737	159,09	150,12	0,02288	
5,680	-0,9737	159,06	150,12	0,02286	
5,700	-0,9737	159,04	150,12	0,02291	
5,720	-0,9737	159,03	150,11	0,02296	
5,740	-0,9737	159,10	150,11	0,02296	
5,760	-0,9737	159,19	150,12	0,02299	
5,780	-0,9737	159,23	150,12	0,02299	
5,800	-0,9737	159,20	150,12	0,02290	
5,820	-0,9737	159,19	150,11	0,02283	
5,840	-0,9737	159,18	150,11	0,02282	
5,860	-0,9737	159,18	150,11	0,02283	
5,880	-0,9737	159,17	150,12	0,02292	
5,900	-0,9737	159,12	150,12	0,02299	
5,920	-0,9737	159,10	150,12	0,02308	
5,940	-0,9737	159,11	150,11	0,02313	
5,960	-0,9737	159,15	150,12	0,02307	
5,980	-0,9737	159,20	150,12	0,02288	
6,000	-0,9737	159,27	150,12	0,02277	
6,020	-0,9737	159,27	150,11	0,02276	
6,040	-0,9737	159,30	150,11	0,02288	
6,060	-0,9737	159,26	150,12	0,02299	
6,080	-0,9737	159,19	150,12	0,02303	
6,100	-0,9737	159,16	150,12	0,02303	
6,120	-0,9737	159,15	150,11	0,02306	
6,140	-0,9737	159,15	150,11	0,02299	
6,160	-0,9737	159,10	150,12	0,02288	
6,180	-0,9737	159,10	150,12	0,02288	
6,200	-0,9737	159,12	150,12	0,02292	
6,220	-0,9737	159,17	150,11	0,02292	
6,240	-0,9737	159,17	150,12	0,02298	
6,260	-0,9737	159,14	150,12	0,02306	
6,280	-0,9737	159,11	150,12	0,02312	
6,300	-0,9737	159,14	150,11	0,02309	
6,320	-0,9737	159,14	150,11	0,02298	
6,340	-0,9737	159,17	150,12	0,02287	
6,360	-0,9737	159,18	150,12	0,02281	
6,380	-0,9737	159,18	150,12	0,02282	
6,400	-0,9737	159,24	150,11	0,02285	
6,420	-0,9737	159,28	150,11	0,02289	
6,440	-0,9737	159,31	150,12	0,02294	
6,460	-0,9737	159,26	150,12	0,02301	
6,480	-0,9737	159,24	150,12	0,02300	
6,500	-0,9737	159,25	150,12	0,02287	
6,520	-0,9737	159,18	150,12	0,02279	
6,540	-0,9737	159,10	150,12	0,02281	
6,560	-0,9737	159,07	150,12	0,02288	
6,580	-0,9737	159,07	150,12	0,02299	
6,600	-0,9737	159,16	150,11	0,02307	
6,620	-0,9737	159,27	150,11	0,02309	
6,640	-0,9737	159,35	150,12	0,02304	
6,660	-0,9737	159,32	150,12	0,02286	
6,680	-0,9737	159,26	150,12	0,02278	
6,700	-0,9737	159,21	150,11	0,02281	
6,720	-0,9737	159,26	150,11	0,02288	
6,740	-0,9740	160,78	150,17	0,02294	
6,760	-0,9741	157,80	150,18	0,02210	
6,780	-0,9734	121,36	150,06	0,02139	
6,800	-0,9734	74,18	150,06	0,02164	
6,820	-0,9736	30,94	150,10	0,02197	
6,840	-0,9724	-4,475	150,12	0,02216	
6,860	-0,9683	-25,49	150,12	0,02225	
6,880	-0,9620	-7,401	150,11	0,02228	
6,900	-0,9562	33,49	150,11	0,02236	
6,920	-0,9520	75,78	150,11	0,02250	
6,940	-0,9493	111,67	150,12	0,02257	
6,960	-0,9477	137,68	150,12	0,02256	
6,980	-0,9470	153,94	150,11	0,02245	
7,000	-0,9468	162,21	150,11	0,02235	
7,020	-0,9468	165,39	150,12	0,02234	
7,040	-0,9468	167,22	150,12	0,02242	
7,060	-0,9468	168,58	150,12	0,02245	
7,080	-0,9468	168,58	150,11	0,02249	
7,100	-0,9471	167,21	150,11	0,02261	
7,120	-0,9474	166,20	150,12	0,02267	
7,140	-0,9475	165,82	150,12	0,02257	
7,160	-0,9475	165,79	150,12	0,02240	
7,180	-0,9476	165,87	150,11	0,02232	
7,200	-0,9479	165,91	150,11	0,02232	
7,220	-0,9481	165,91	150,12	0,02241	
7,240	-0,9482	165,91	150,12	0,02249	
7,260	-0,9482	165,79	150,11	0,02260	
7,280	-0,9483	164,60	150,11	0,02271	
7,300	-0,9486	163,23	150,11	0,02266	
7,320	-0,9488	162,64	150,12	0,02251	
7,340	-0,9489	162,55	150,12	0,02241	
7,360	-0,9489	162,51	150,12	0,02238	
7,380	-0,9489	162,45	150,11	0,02243	
7,400	-0,9489	162,50	150,11	0,02253	
7,420	-0,9489	162,56	150,12	0,02260	
7,440	-0,9488	162,59	150,12	0,02264	
7,460	-0,9489	162,71	150,12	0,02265	
7,480	-0,9490	162,67	150,11	0,02260	
7,500	-0,9493	162,57	150,11	0,02245	
7,520	-0,9495	162,52	150,12	0,02235	
7,540	-0,9495	162,46	150,12	0,02237	
7,560	-0,9495	162,50	150,12	0,02248	
7,580	-0,9495	162,50	150,11	0,02261	
7,600	-0,9495	162,42	150,11	0,02263	
7,620	-0,9495	162,42	150,12	0,02262	
7,640	-0,9496	162,45	150,12	0,02254	
7,660	-0,9496	162,50	150,11	0,02242	
7,680	-0,9495	162,52	150,11	0,02235	
7,700	-0,9495	162,57	150,11	0,02236	
7,720	-0,9495	162,57	150,12	0,02245	
7,740	-0,9496	162,56	150,12	0,02255	
7,760	-0,9496	162,59	150,11	0,02262	
7,780	-0,9495	162,56	150,11	0,02272	
7,800	-0,9495	162,55	150,11	0,02270	
7,820	-0,9495	162,60	150,11	0,02252	
7,840	-0,9495	162,59	150,12	0,02235	
7,860	-0,9496	162,61	150,12	0,02228	
7,880	-0,9500	162,66	150,11	0,02234	
7,900	-0,9502	162,04	150,11	0,02246	
7,920	-0,9502	161,05	150,11	0,02254	
7,940	-0,9502	161,57	150,12	0,02261	
7,960	-0,9502	161,72	150,12	0,02266	
7,980	-0,9502	160,58	150,11	0,02263	
8,000	-0,9502	160,79	150,11	0,02253	
8,020	-0,9502	161,37	150,11	0,02238	
8,040	-0,9502	160,58	150,12	0,02229	
8,060	-0,9502	160,91	150,12	0,02244	
8,080	-0,9502	161,41	150,11	0,02257	
8,100	-0,9502	160,52	150,11	0,02266	
8,120	-0,9502	160,72	150,11	0,02271	
8,140	-0,9502	161,27	150,12	0,02267	
8,160	-0,9502	160,59	150,12	0,02252	
8,180	-0,9502	160,89	150,11	0,02235	
8,200	-0,9502	161,80	150,11	0,02228	
8,220	-0,9502	161,72	150,11	0,02238	
8,240	-0,9502	161,94	150,11	0,02250	
8,260	-0,9502	162,25	150,12	0,02268	
8,280	-0,9502	161,84	150,12	0,02278	
8,300	-0,9502	162,00	150,11	0,02272	
8,320	-0,9502	162,41	150,11	0,02259	
8,340	-0,9502	162,60	150,12	0,02247	
8,360	-0,9502	162,58	150,12	0,02243	
8,380	-0,9502	161,95	150,12	0,02242	
8,400	-0,9502	161,06	150,11	0,02246	
8,420	-0,9502	161,54	150,12	0,02259	
8,440	-0,9502	161,64	150,12	0,02271	
8,460	-0,9502	160,97	150,12	0,02282	
8,480	-0,9503	161,54	150,12	0,02283	
8,500	-0,9506	162,29	150,11	0,02265	
8,520	-0,9508	162,52	150,11	0,02250	
8,540	-0,9509	162,54	150,12	0,02241	
8,560	-0,9509	162,56	150,12	0,02241	
8,580	-0,9509	162,68	150,11	0,02252	
8,600	-0,9509	162,77	150,11	0,02268	
8,620	-0,9509	162,19	150,11	0,02277	
8,640	-0,9509	160,77	150,11	0,02276	
8,660	-0,9509	160,79	150,12	0,02267	
8,680	-0,9509	160,76	150,12	0,02253	
8,700	-0,9509	161,14	150,11	0,02247	
8,720	-0,9509	162,05	150,11	0,02247	
8,740	-0,9509	162,49	150,12	0,02254	
8,760	-0,9509	162,55	150,12	0,02266	
8,780	-0,9509	162,45	150,12	0,02269	
8,800	-0,9509	161,28	150,11	0,02266	
8,820	-0,9509	160,02	150,11	0,02258	
8,840	-0,9509	160,44	150,12	0,02244	
8,860	-0,9509	160,60	150,12	0,02243	
8,880	-0,9509	159,90	150,12	0,02245	
8,900	-0,9509	159,38	150,12	0,02253	
8,920	-0,9509	159,18	150,12	0,02263	
8,940	-0,9509	159,21	150,12	0,02272	
8,960	-0,9509	159,27	150,12	0,02274	
8,980	-0,9509	159,27	150,11	0,02273	
9,000	-0,9509	159,27	150,11	0,02264	
9,020	-0,9509	159,67	150,12	0,02251	
9,040	-0,9509	159,96	150,12	0,02247	
9,060	-0,9509	160,17	150,12	0,02249	
9,080	-0,9509	161,22	150,11	0,02252	
9,100	-0,9509	161,48	150,11	0,02257	
9,120	-0,9509	161,86	150,11	0,02265	
9,140	-0,9509	162,34	150,12	0,02273	
9,160	-0,9509	162,58	150,12	0,02274	
9,180	-0,9510	162,64	150,12	0,02262	
9,200	-0,9513	162,56	150,11	0,02248	
9,220	-0,9515	161,43	150,11	0,02242	
9,240	-0,9515	160,04	150,12	0,02242	
9,260	-0,9516	159,96	150,12	0,02252	
9,280	-0,9515	160,96	150,11	0,02274	
9,300	-0,9515	161,73	150,11	0,02288	
9,320	-0,9515	161,82	150,11	0,02283	
9,340	-0,9515	160,54	150,12	0,02269	
9,360	-0,9515	159,52	150,12	0,02255	
9,380	-0,9515	159,28	150,12	0,02247	
9,400	-0,9516	159,30	150,11	0,02249	
9,420	-0,9516	159,93	150,12	0,02260	
9,440	-0,9515	160,85	150,12	0,02265	
9,460	-0,9515	160,39	150,12	0,02271	
9,480	-0,9516	160,80	150,12	0,02279	
9,500	-0,9515	161,80	150,12	0,02277	
9,520	-0,9516	161,25	150,12	0,02263	
9,540	-0,9516	160,51	150,12	0,02250	
9,560	-0,9516	160,80	150,11	0,02242	
9,580	-0,9516	160,20	150,11	0,02249	
9,600	-0,9516	159,48	150,11	0,02267	
9,620	-0,9515	159,18	150,12	0,02282	
9,640	-0,9515	159,12	150,12	0,02286	
9,660	-0,9515	159,10	150,12	0,02277	
9,680	-0,9516	159,07	150,11	0,02263	
9,700	-0,9516	159,13	150,12	0,02249	
9,720	-0,9516	159,76	150,12	0,02245	
9,740	-0,9516	160,69	150,12	0,02251	
9,760	-0,9515	160,74	150,11	0,02260	
9,780	-0,9516	161,51	150,11	0,02266	
9,800	-0,9516	162,09	150,12	0,02269	
9,820	-0,9515	161,25	150,12	0,02273	
9,840	-0,9516	161,07	150,12	0,02268	
9,860	-0,9516	161,85	150,12	0,02250	
9,880	-0,9515	161,23	150,12	0,02241	
9,900	-0,9515	160,49	150,12	0,02240	
9,920	-0,9515	161,22	150,12	0,02250	
9,940	-0,9515	160,93	150,12	0,02264	
9,960	-0,9515	160,00	150,11	0,02274	
9,980	-0,9515	160,49	150,12	0,02275	
10,00	-0,9518	160,77	150,12	0,02272	
10,02	-0,9521	161,19	150,12	0,02260	
10,04	-0,9522	161,49	150,11	0,02246	
10,06	-0,9522	160,44	150,11	0,02247	
10,08	-0,9522	160,12	150,12	0,02259	
10,10	-0,9522	160,87	150,12	0,02273	
10,12	-0,9522	160,38	150,12	0,02282	
10,14	-0,9522	160,14	150,12	0,02280	
10,16	-0,9522	161,35	150,12	0,02266	
10,18	-0,9522	162,32	150,12	0,02256	
10,20	-0,9522	162,59	150,12	0,02245	
10,22	-0,9522	162,09	150,12	0,02236	
10,24	-0,9523	160,60	150,11	0,02246	
10,26	-0,9523	159,62	150,12	0,02260	
10,28	-0,9522	159,30	150,12	0,02266	
10,30	-0,9522	159,82	150,12	0,02274	
10,32	-0,9522	161,32	150,11	0,02277	
10,34	-0,9523	162,30	150,11	0,02267	
10,36	-0,9522	162,56	150,11	0,02245	
10,38	-0,9522	162,64	150,12	0,02240	
10,40	-0,9522	162,13	150,12	0,02254	
10,42	-0,9522	160,59	150,11	0,02260	
10,44	-0,9522	159,50	150,11	0,02262	
10,46	-0,9522	159,20	150,11	0,02269	
10,48	-0,9522	159,18	150,12	0,02274	
10,50	-0,9522	159,23	150,12	0,02270	
10,52	-0,9522	159,25	150,12	0,02255	
10,54	-0,9522	159,24	150,11	0,02242	
10,56	-0,9522	159,17	150,11	0,02244	
10,58	-0,9522	159,08	150,12	0,02253	
10,60	-0,9522	159,20	150,12	0,02261	
10,62	-0,9522	160,45	150,12	0,02268	
10,64	-0,9522	161,37	150,11	0,02271	
10,66	-0,9522	161,02	150,12	0,02266	
10,68	-0,9522	161,48	150,12	0,02255	
10,70	-0,9522	161,05	150,12	0,02246	
10,72	-0,9522	159,91	150,11	0,02242	
10,74	-0,9522	159,38	150,11	0,02248	
10,76	-0,9522	159,29	150,12	0,02256	
10,78	-0,9522	159,25	150,12	0,02270	
10,80	-0,9522	159,23	150,12	0,02281	
10,82	-0,9522	159,21	150,11	0,02283	
10,84	-0,9522	159,23	150,11	0,02274	
10,86	-0,9522	159,27	150,12	0,02255	
10,88	-0,9522	159,24	150,12	0,02242	
10,90	-0,9522	159,75	150,12	0,02242	
10,92	-0,9522	161,26	150,11	0,02246	
10,94	-0,9522	161,71	150,11	0,02252	
10,96	-0,9523	160,58	150,12	0,02265	
10,98	-0,9526	160,66	150,12	0,02272	
11,00	-0,9528	160,60	150,12	0,02266	
11,02	-0,9529	159,80	150,11	0,02259	
11,04	-0,9529	159,31	150,12	0,02253	
11,06	-0,9529	159,19	150,12	0,02250	
11,08	-0,9529	159,23	150,12	0,02253	
11,10	-0,9529	159,82	150,12	0,02263	
11,12	-0,9529	160,75	150,11	0,02273	
11,14	-0,9529	160,38	150,11	0,02275	
11,16	-0,9529	159,73	150,12	0,02273	
11,18	-0,9529	159,33	150,12	0,02257	
11,20	-0,9529	159,23	150,11	0,02239	
11,22	-0,9529	159,26	150,11	0,02234	
11,24	-0,9529	159,21	150,11	0,02250	
11,26	-0,9529	159,77	150,12	0,02266	
11,28	-0,9529	161,18	150,12	0,02271	
11,30	-0,9529	161,06	150,11	0,02273	
11,32	-0,9529	160,47	150,11	0,02273	
11,34	-0,9529	161,26	150,11	0,02266	
11,36	-0,9529	161,06	150,12	0,02257	
11,38	-0,9529	160,04	150,12	0,02249	
11,40	-0,9529	160,48	150,12	0,02250	
11,42	-0,9529	160,61	150,11	0,02259	
11,44	-0,9529	159,86	150,11	0,02267	
11,46	-0,9529	159,36	150,12	0,02273	
11,48	-0,9529	159,17	150,12	0,02278	
11,50	-0,9529	159,17	150,12	0,02277	
11,52	-0,9529	159,18	150,11	0,02269	
11,54	-0,9529	159,14	150,11	0,02258	
11,56	-0,9529	159,23	150,12	0,02248	
11,58	-0,9529	160,23	150,12	0,02255	
11,60	-0,9529	160,51	150,11	0,02264	
11,62	-0,9529	160,30	150,11	0,02274	
11,64	-0,9529	161,31	150,11	0,02280	
11,66	-0,9529	162,27	150,12	0,02278	
11,68	-0,9529	162,59	150,12	0,02274	
11,70	-0,9529	162,69	150,11	0,02265	
11,72	-0,9529	162,69	150,11	0,02253	
11,74	-0,9529	162,64	150,11	0,02249	
11,76	-0,9529	162,09	150,12	0,02257	
11,78	-0,9529	160,61	150,12	0,02264	
11,80	-0,9529	159,58	150,11	0,02273	
11,82	-0,9529	159,25	150,11	0,02282	
11,84	-0,9529	159,21	150,12	0,02276	
11,86	-0,9529	159,21	150,12	0,02258	
11,88	-0,9529	159,18	150,12	0,02252	
11,90	-0,9529	159,16	150,11	0,02252	
11,92	-0,9529	159,17	150,11	0,02254	
11,94	-0,9529	159,19	150,12	0,02257	
11,96	-0,9529	159,16	150,12	0,02264	
11,98	-0,9531	159,17	150,12	0,02276	
12,00	-0,9534	159,20	150,11	0,02278	
12,02	-0,9535	159,18	150,11	0,02271	
12,04	-0,9536	159,25	150,11	0,02260	
12,06	-0,9536	159,32	150,11	0,02253	
12,08	-0,9535	159,32	150,12	0,02251	
12,10	-0,9535	159,33	150,11	0,02255	
12,12	-0,9535	159,30	150,11	0,02267	
12,14	-0,9535	159,26	150,11	0,02276	
12,16	-0,9535	159,29	150,11	0,02277	
12,18	-0,9535	159,26	150,12	0,02271	
12,20	-0,9535	159,17	150,12	0,02256	
12,22	-0,9535	159,73	150,11	0,02251	
12,24	-0,9535	161,27	150,11	0,02255	
12,26	-0,9535	162,31	150,11	0,02258	
12,28	-0,9535	162,56	150,12	0,02265	
12,30	-0,9536	162,53	150,12	0,02274	
12,32	-0,9535	162,00	150,12	0,02278	
12,34	-0,9536	161,08	150,11	0,02272	
12,36	-0,9535	161,04	150,12	0,02261	
12,38	-0,9535	160,32	150,12	0,02249	
12,40	-0,9535	160,11	150,12	0,02250	
12,42	-0,9535	160,80	150,12	0,02257	
12,44	-0,9535	160,32	150,11	0,02266	
12,46	-0,9535	160,09	150,11	0,02272	
12,48	-0,9535	160,81	150,12	0,02283	
12,50	-0,9535	160,43	150,12	0,02292	
12,52	-0,9535	160,79	150,11	0,02277	
12,54	-0,9535	161,89	150,11	0,02259	
12,56	-0,9535	162,02	150,11	0,02255	
12,58	-0,9535	161,77	150,12	0,02256	
12,60	-0,9535	161,62	150,12	0,02255	
12,62	-0,9535	160,49	150,12	0,02261	
12,64	-0,9535	159,70	150,11	0,02275	
12,66	-0,9536	160,03	150,12	0,02285	
12,68	-0,9535	159,93	150,12	0,02281	
12,70	-0,9535	159,98	150,12	0,02262	
12,72	-0,9535	160,76	150,12	0,02255	
12,74	-0,9535	160,41	150,11	0,02258	
12,76	-0,9535	160,80	150,11	0,02265	
12,78	-0,9535	161,44	150,12	0,02272	
12,80	-0,9535	160,58	150,12	0,02276	
12,82	-0,9535	160,19	150,12	0,02285	
12,84	-0,9535	160,87	150,11	0,02286	
12,86	-0,9536	160,46	150,11	0,02281	
12,88	-0,9536	160,75	150,12	0,02273	
12,90	-0,9536	161,39	150,12	0,02262	
12,92	-0,9536	160,55	150,12	0,02262	
12,94	-0,9536	160,12	150,11	0,02269	
12,96	-0,9536	160,22	150,11	0,02275	
12,98	-0,9535	159,82	150,12	0,02284	
13,00	-0,9536	159,51	150,12	0,02290	
13,02	-0,9536	159,37	150,12	0,02279	
13,04	-0,9536	159,25	150,11	0,02260	
13,06	-0,9536	159,71	150,11	0,02250	
13,08	-0,9536	160,16	150,11	0,02255	
13,10	-0,9535	159,86	150,12	0,02266	
13,12	-0,9535	159,61	150,12	0,02273	
13,14	-0,9535	159,47	150,11	0,02279	
13,16	-0,9536	159,30	150,11	0,02280	
13,18	-0,9536	159,33	150,12	0,02278	
13,20	-0,9535	159,35	150,12	0,02273	
13,22	-0,9535	159,29	150,12	0,02263	
13,24	-0,9535	159,79	150,11	0,02261	
13,26	-0,9535	161,36	150,11	0,02269	
13,28	-0,9535	162,40	150,11	0,02275	
13,30	-0,9536	162,63	150,12	0,02280	
13,32	-0,9538	162,58	150,12	0,02284	
13,34	-0,9541	162,58	150,11	0,02282	
13,36	-0,9542	162,71	150,11	0,02274	
13,38	-0,9542	162,19	150,11	0,02265	
13,40	-0,9542	160,67	150,12	0,02262	
13,42	-0,9542	160,12	150,12	0,02267	
13,44	-0,9542	160,81	150,11	0,02272	
13,46	-0,9542	160,30	150,11	0,02276	
13,48	-0,9542	159,62	150,12	0,02276	
13,50	-0,9542	159,37	150,12	0,02279	
13,52	-0,9542	159,33	150,12	0,02277	
13,54	-0,9542	159,39	150,11	0,02269	
13,56	-0,9542	159,41	150,11	0,02259	
13,58	-0,9542	159,43	150,11	0,02246	
13,60	-0,9542	159,48	150,12	0,02247	
13,62	-0,9542	159,45	150,12	0,02258	
13,64	-0,9542	159,40	150,11	0,02273	
13,66	-0,9542	159,35	150,11	0,02285	
13,68	-0,9542	159,34	150,11	0,02287	
13,70	-0,9542	159,37	150,12	0,02276	
13,72	-0,9542	159,41	150,12	0,02265	
13,74	-0,9542	159,34	150,12	0,02256	
13,76	-0,9542	159,37	150,11	0,02261	
13,78	-0,9542	159,53	150,12	0,02269	
13,80	-0,9542	159,52	150,12	0,02277	
13,82	-0,9542	159,93	150,11	0,02286	
13,84	-0,9542	161,37	150,11	0,02283	
13,86	-0,9542	162,39	150,11	0,02273	
13,88	-0,9542	162,67	150,12	0,02262	
13,90	-0,9542	162,73	150,12	0,02255	
13,92	-0,9542	162,25	150,12	0,02255	
13,94	-0,9542	161,26	150,11	0,02261	
13,96	-0,9542	161,61	150,11	0,02269	
13,98	-0,9542	161,85	150,11	0,02277	
14,00	-0,9542	160,66	150,12	0,02284	
14,02	-0,9542	160,03	150,12	0,02281	
14,04	-0,9542	160,14	150,12	0,02266	
14,06	-0,9542	159,81	150,11	0,02256	
14,08	-0,9542	159,52	150,11	0,02257	
14,10	-0,9542	159,38	150,12	0,02262	
14,12	-0,9542	159,36	150,12	0,02267	
14,14	-0,9542	159,39	150,12	0,02273	
14,16	-0,9542	159,42	150,12	0,02276	
14,18	-0,9542	159,40	150,12	0,02276	
14,20	-0,9542	159,78	150,12	0,02272	
14,22	-0,9542	160,13	150,12	0,02261	
14,24	-0,9542	159,84	150,11	0,02252	
14,26	-0,9544	160,37	150,14	0,02249	
14,28	-0,9544	157,67	150,14	0,02231	
14,30	-0,9543	147,84	150,12	0,02215	
14,32	-0,9542	135,37	150,11	0,02219	
14,34	-0,9542	123,00	150,11	0,02228	
14,36	-0,9540	109,79	150,11	0,02231	
14,38	-0,9534	97,64	150,11	0,02231	
14,40	-0,9523	91,70	150,11	0,02224	
14,42	-0,9510	88,04	150,11	0,02210	
14,44	-0,9497	83,90	150,11	0,02204	
14,46	-0,9481	80,43	150,11	0,02211	
14,48	-0,9465	79,28	150,12	0,02221	
14,50	-0,9449	80,90	150,12	0,02234	
14,52	-0,9432	84,09	150,11	0,02244	
14,54	-0,9417	88,18	150,11	0,02246	
14,56	-0,9400	92,21	150,12	0,02234	
14,58	-0,9386	94,76	150,12	0,02224	
14,60	-0,9375	96,10	150,11	0,02224	
14,62	-0,9362	96,07	150,11	0,02231	
14,64	-0,9349	95,62	150,11	0,02232	
14,66	-0,9336	95,36	150,11	0,02228	
14,68	-0,9322	95,34	150,12	0,02238	
14,70	-0,9309	95,36	150,12	0,02255	
14,72	-0,9295	94,26	150,11	0,02246	
14,74	-0,9282	92,83	150,11	0,02223	
14,76	-0,9268	92,67	150,11	0,02218	
14,78	-0,9255	94,02	150,12	0,02219	
14,80	-0,9241	95,12	150,12	0,02220	
14,82	-0,9228	95,44	150,11	0,02230	
14,84	-0,9214	94,96	150,11	0,02239	
14,86	-0,9201	93,46	150,11	0,02249	
14,88	-0,9188	92,37	150,12	0,02246	
14,90	-0,9174	92,04	150,12	0,02234	
14,92	-0,9161	92,07	150,12	0,02218	
14,94	-0,9147	92,11	150,11	0,02208	
14,96	-0,9134	92,11	150,12	0,02214	
14,98	-0,9120	92,06	150,12	0,02227	
15,00	-0,9107	92,01	150,12	0,02243	
15,02	-0,9094	91,99	150,11	0,02252	
15,04	-0,9080	91,99	150,11	0,02251	
15,06	-0,9067	92,01	150,11	0,02241	
15,08	-0,9053	92,13	150,12	0,02225	
15,10	-0,9040	92,18	150,12	0,02213	
15,12	-0,9027	92,12	150,11	0,02207	
15,14	-0,9013	92,05	150,11	0,02212	
15,16	-0,9000	92,04	150,11	0,02225	
15,18	-0,8986	92,07	150,12	0,02241	
15,20	-0,8971	92,08	150,12	0,02246	
15,22	-0,8954	92,09	150,11	0,02235	
15,24	-0,8940	92,10	150,11	0,02218	
15,26	-0,8926	92,10	150,11	0,02212	
15,28	-0,8913	92,09	150,12	0,02215	
15,30	-0,8899	92,12	150,12	0,02216	
15,32	-0,8886	92,07	150,11	0,02224	
15,34	-0,8873	92,02	150,11	0,02236	
15,36	-0,8859	91,92	150,11	0,02248	
15,38	-0,8845	90,89	150,11	0,02254	
15,40	-0,8828	89,46	150,12	0,02249	
15,42	-0,8813	88,76	150,12	0,02229	
15,44	-0,8798	88,63	150,11	0,02214	
15,46	-0,8785	88,67	150,11	0,02214	
15,48	-0,8772	88,64	150,11	0,02220	
15,50	-0,8758	88,57	150,11	0,02227	
15,52	-0,8745	88,59	150,12	0,02227	
15,54	-0,8729	88,66	150,12	0,02232	
15,56	-0,8713	88,60	150,11	0,02237	
15,58	-0,8698	88,11	150,11	0,02230	
15,60	-0,8684	86,62	150,11	0,02220	
15,62	-0,8671	85,51	150,12	0,02213	
15,64	-0,8658	85,24	150,12	0,02217	
15,66	-0,8642	85,31	150,11	0,02227	
15,68	-0,8625	85,35	150,11	0,02240	
15,70	-0,8611	85,39	150,11	0,02246	
15,72	-0,8597	85,43	150,12	0,02247	
15,74	-0,8581	85,40	150,12	0,02240	
15,76	-0,8565	85,42	150,11	0,02229	
15,78	-0,8550	85,41	150,11	0,02218	
15,80	-0,8537	85,32	150,11	0,02214	
15,82	-0,8523	85,29	150,11	0,02225	
15,84	-0,8506	85,32	150,12	0,02234	
15,86	-0,8490	85,32	150,12	0,02240	
15,88	-0,8476	85,36	150,11	0,02248	
15,90	-0,8463	85,38	150,11	0,02248	
15,92	-0,8447	85,38	150,11	0,02236	
15,94	-0,8431	85,44	150,12	0,02225	
15,96	-0,8416	85,44	150,12	0,02215	
15,98	-0,8401	85,34	150,11	0,02216	
16,00	-0,8385	85,29	150,11	0,02224	
16,02	-0,8369	85,25	150,11	0,02228	
16,04	-0,8355	85,29	150,11	0,02234	
16,06	-0,8339	85,40	150,12	0,02239	
16,08	-0,8323	85,41	150,12	0,02229	
16,10	-0,8308	84,30	150,11	0,02219	
16,12	-0,8292	83,24	150,11	0,02213	
16,14	-0,8276	84,02	150,11	0,02211	
16,16	-0,8261	85,01	150,11	0,02218	
16,18	-0,8245	85,42	150,12	0,02233	
16,20	-0,8229	85,45	150,11	0,02245	
16,22	-0,8213	85,37	150,11	0,02244	
16,24	-0,8197	85,36	150,11	0,02245	
16,26	-0,8181	84,89	150,12	0,02230	
16,28	-0,8166	83,37	150,36	0,02215	
16,30	-0,8150	82,29	151,40	0,02216	
16,32	-0,8134	81,95	153,03	0,02222	
16,34	-0,8119	81,87	154,65	0,02221	
16,36	-0,8103	81,91	156,04	0,02225	
16,38	-0,8087	81,97	157,36	0,02237	
16,40	-0,8071	81,93	159,10	0,02243	
16,42	-0,8055	81,82	160,74	0,02237	
16,44	-0,8040	80,81	161,94	0,02225	
16,46	-0,8024	79,46	163,62	0,02220	
16,48	-0,8008	78,79	165,62	0,02225	
16,50	-0,7992	78,66	167,56	0,02232	
16,52	-0,7975	78,70	169,16	0,02242	
16,54	-0,7959	78,71	170,70	0,02251	
16,56	-0,7942	78,67	172,38	0,02256	
16,58	-0,7925	78,67	174,27	0,02247	
16,60	-0,7908	78,72	176,09	0,02229	
16,62	-0,7892	78,77	177,62	0,02215	
16,64	-0,7875	78,83	178,76	0,02216	
16,66	-0,7859	78,82	179,80	0,02223	
16,68	-0,7843	78,77	181,24	0,02225	
16,70	-0,7826	78,77	182,94	0,02237	
16,72	-0,7809	78,81	184,54	0,02244	
16,74	-0,7793	78,80	185,94	0,02241	
16,76	-0,7776	77,73	187,42	0,02230	
16,78	-0,7759	76,28	188,96	0,02218	
16,80	-0,7742	75,61	190,54	0,02212	
16,82	-0,7725	75,43	192,14	0,02217	
16,84	-0,7709	75,40	193,62	0,02225	
16,86	-0,7691	75,41	194,98	0,02231	
16,88	-0,7673	75,38	196,36	0,02240	
16,90	-0,7657	75,37	197,76	0,02245	
16,92	-0,7639	75,39	199,10	0,02243	
16,94	-0,7622	75,40	200,54	0,02230	
16,96	-0,7604	75,41	202,14	0,02218	
16,98	-0,7586	75,41	203,69	0,02221	
17,00	-0,7569	75,37	205,17	0,02229	
17,02	-0,7552	75,36	206,61	0,02232	
17,04	-0,7535	75,36	208,04	0,02231	
17,06	-0,7517	75,34	209,47	0,02235	
17,08	-0,7499	75,30	210,83	0,02244	
17,10	-0,7481	74,22	212,16	0,02239	
17,12	-0,7464	72,74	213,55	0,02224	
17,14	-0,7446	71,81	215,02	0,02220	
17,16	-0,7427	71,48	216,56	0,02230	
17,18	-0,7410	76,16	217,98	0,02245	
17,20	-0,7393	86,85	219,14	0,02251	
17,22	-0,7375	100,18	220,04	0,02254	
17,24	-0,7358	113,82	220,76	0,02253	
17,26	-0,7345	126,69	221,40	0,02244	
17,28	-0,7338	135,46	221,88	0,02241	
17,30	-0,7334	139,23	222,19	0,02247	
17,32	-0,7331	141,26	222,40	0,02257	
17,34	-0,7327	143,85	222,58	0,02266	
17,36	-0,7322	148,27	222,69	0,02271	
17,38	-0,7319	153,09	222,75	0,02270	
17,40	-0,7315	157,58	222,77	0,02261	
17,42	-0,7313	161,41	222,78	0,02253	
17,44	-0,7312	164,36	222,80	0,02249	
17,46	-0,7312	166,11	222,82	0,02251	
17,48	-0,7314	168,33	222,85	0,02255	
17,50	-0,7316	167,99	222,87	0,02256	
17,52	-0,7318	166,76	222,90	0,02261	
17,54	-0,7320	167,98	223,02	0,02266	
17,56	-0,7320	165,07	223,23	0,02258	
17,58	-0,7318	157,09	223,56	0,02245	
17,60	-0,7321	152,81	223,91	0,02234	
17,62	-0,7324	148,16	224,17	0,02229	
17,64	-0,7322	137,10	224,43	0,02229	
17,66	-0,7321	128,92	224,74	0,02239	
17,68	-0,7320	124,28	225,13	0,02244	
17,70	-0,7317	114,31	225,60	0,02250	
17,72	-0,7311	102,08	226,23	0,02252	
17,74	-0,7305	92,48	227,03	0,02250	
17,76	-0,7299	84,63	227,95	0,02245	
17,78	-0,7292	82,62	228,79	0,02240	
17,80	-0,7284	87,23	229,48	0,02237	
17,82	-0,7274	94,27	230,06	0,02252	
17,84	-0,7266	102,34	230,52	0,02267	
17,86	-0,7258	110,13	230,88	0,02272	
17,88	-0,7253	114,99	231,20	0,02283	
17,90	-0,7248	118,17	231,45	0,02290	
17,92	-0,7244	122,30	231,61	0,02279	
17,94	-0,7240	127,61	231,75	0,02263	
17,96	-0,7237	132,09	231,85	0,02249	
17,98	-0,7234	130,81	231,95	0,02241	
18,00	-0,7230	124,50	232,19	0,02237	
18,02	-0,7227	116,71	232,69	0,02238	
18,04	-0,7224	106,77	233,37	0,02241	
18,06	-0,7220	95,86	234,12	0,02247	
18,08	-0,7213	90,09	234,88	0,02254	
18,10	-0,7207	90,12	235,60	0,02253	
18,12	-0,7200	93,46	236,24	0,02247	
18,14	-0,7194	98,41	236,76	0,02247	
18,16	-0,7188	104,55	237,16	0,02248	
18,18	-0,7183	110,10	237,46	0,02253	
18,20	-0,7179	113,90	237,69	0,02267	
18,22	-0,7176	115,91	237,89	0,02278	
18,24	-0,7174	118,86	238,06	0,02278	
18,26	-0,7170	120,74	238,20	0,02258	
18,28	-0,7165	116,03	238,45	0,02238	
18,30	-0,7161	107,79	238,92	0,02229	
18,32	-0,7159	98,52	239,53	0,02226	
18,34	-0,7155	86,44	240,24	0,02231	
18,36	-0,7149	76,48	241,07	0,02247	
18,38	-0,7143	75,47	241,88	0,02262	
18,40	-0,7137	79,55	242,56	0,02275	
18,42	-0,7131	83,92	243,07	0,02271	
18,44	-0,7125	89,47	243,48	0,02253	
18,46	-0,7121	95,41	243,81	0,02249	
18,48	-0,7116	99,53	244,07	0,02252	
18,50	-0,7112	101,72	244,24	0,02257	
18,52	-0,7107	103,80	244,39	0,02264	
18,54	-0,7104	108,90	244,64	0,02272	
18,56	-0,7100	110,42	244,86	0,02267	
18,58	-0,7096	106,27	245,07	0,02258	
18,60	-0,7093	101,03	245,40	0,02250	
18,62	-0,7089	94,23	245,89	0,02233	
18,64	-0,7085	83,85	246,55	0,02220	
18,66	-0,7080	73,59	247,36	0,02218	
18,68	-0,7073	63,74	248,27	0,02224	
18,70	-0,7067	57,13	249,17	0,02240	
18,72	-0,7062	56,04	249,99	0,02256	
18,74	-0,7056	57,95	250,72	0,02262	
18,76	-0,7048	61,81	251,34	0,02257	
18,78	-0,7041	67,45	251,83	0,02249	
18,80	-0,7036	72,52	252,18	0,02245	
18,82	-0,7030	75,28	252,44	0,02248	
18,84	-0,7025	78,65	252,63	0,02257	
18,86	-0,7020	83,15	252,78	0,02265	
18,88	-0,7016	88,69	252,94	0,02272	
18,90	-0,7012	93,85	253,08	0,02273	
18,92	-0,7006	97,12	253,19	0,02260	
18,94	-0,7003	102,43	253,33	0,02249	
18,96	-0,7000	107,24	253,50	0,02240	
18,98	-0,6996	104,42	253,72	0,02238	
19,00	-0,6992	96,54	254,10	0,02237	
19,02	-0,6989	87,59	254,67	0,02240	
19,04	-0,6986	75,28	255,39	0,02244	
19,06	-0,6982	59,47	256,25	0,02245	
19,08	-0,6975	46,16	257,26	0,02247	
19,10	-0,6969	35,57	258,34	0,02248	
19,12	-0,6964	29,74	259,37	0,02246	
19,14	-0,6957	28,19	260,25	0,02241	
19,16	-0,6950	29,66	260,98	0,02251	
19,18	-0,6943	34,37	261,57	0,02270	
19,20	-0,6936	41,25	262,03	0,02278	
19,22	-0,6929	46,50	262,37	0,02278	
19,24	-0,6923	49,87	262,69	0,02271	
19,26	-0,6916	54,50	262,97	0,02260	
19,28	-0,6909	60,66	263,14	0,02250	
19,30	-0,6904	67,81	263,24	0,02245	
19,32	-0,6899	76,02	263,33	0,02253	
19,34	-0,6895	84,03	263,41	0,02267	
19,36	-0,6890	91,45	263,50	0,02267	
19,38	-0,6884	94,29	263,59	0,02265	
19,40	-0,6880	95,67	263,74	0,02271	
19,42	-0,6879	99,71	263,91	0,02267	
19,44	-0,6875	99,18	264,11	0,02243	
19,46	-0,6871	91,78	264,45	0,02221	
19,48	-0,6867	83,48	265,08	0,02216	
19,50	-0,6862	72,93	266,46	0,02224	
19,52	-0,6858	59,33	268,29	0,02238	
19,54	-0,6854	52,12	269,75	0,02251	
19,56	-0,6850	52,70	270,45	0,02265	
19,58	-0,6845	56,11	270,62	0,02264	
19,60	-0,6841	61,21	270,60	0,02252	
19,62	-0,6836	66,59	270,51	0,02249	
19,64	-0,6833	70,11	270,34	0,02253	
19,66	-0,6829	71,14	270,24	0,02250	
19,68	-0,6823	66,40	270,57	0,02249	
19,70	-0,6819	63,58	271,11	0,02255	
19,72	-0,6816	65,28	271,47	0,02266	
19,74	-0,6812	67,58	271,57	0,02269	
19,76	-0,6808	72,01	271,55	0,02257	
19,78	-0,6804	79,51	271,93	0,02239	
19,80	-0,6797	77,63	272,97	0,02229	
19,82	-0,6795	72,32	273,78	0,02230	
19,84	-0,6794	69,15	274,09	0,02243	
19,86	-0,6791	65,64	274,12	0,02261	
19,88	-0,6788	64,69	274,07	0,02271	
19,90	-0,6785	67,94	274,48	0,02264	
19,92	-0,6780	64,79	275,48	0,02249	
19,94	-0,6777	58,73	276,25	0,02236	
19,96	-0,6775	54,54	276,56	0,02229	
19,98	-0,6771	49,39	276,70	0,02232	
20,00	-0,6768	47,50	276,85	0,02234	
20,02	-0,6764	48,17	277,38	0,02234	
20,04	-0,6758	45,50	278,16	0,02251	
20,06	-0,6755	43,16	278,66	0,02265	
20,08	-0,6752	43,82	278,82	0,02263	
20,10	-0,6748	41,65	279,08	0,02252	
20,12	-0,6745	41,51	279,45	0,02241	
20,14	-0,6740	42,96	280,08	0,02238	
20,16	-0,6735	38,87	280,78	0,02242	
20,18	-0,6731	34,58	281,35	0,02244	
20,20	-0,6727	31,95	281,83	0,02252	
20,22	-0,6723	31,67	282,08	0,02266	
20,24	-0,6720	34,03	282,25	0,02267	
20,26	-0,6715	34,10	282,74	0,02260	
20,28	-0,6710	29,25	283,52	0,02248	
20,30	-0,6706	27,28	284,09	0,02242	
20,32	-0,6702	26,30	284,36	0,02247	
20,34	-0,6698	23,90	284,48	0,02254	
20,36	-0,6694	24,81	284,83	0,02259	
20,38	-0,6688	25,02	285,62	0,02256	
20,40	-0,6683	22,58	286,33	0,02259	
20,42	-0,6680	22,51	286,71	0,02258	
20,44	-0,6675	21,27	286,98	0,02251	
20,46	-0,6671	20,38	287,20	0,02242	
20,48	-0,6665	22,97	287,61	0,02234	
20,50	-0,6659	22,73	288,34	0,02236	
20,52	-0,6655	21,25	288,85	0,02246	
20,54	-0,6651	21,65	289,20	0,02261	
20,56	-0,6645	18,81	289,61	0,02268	
20,58	-0,6641	18,11	289,89	0,02268	
20,60	-0,6638	21,65	290,27	0,02259	
20,62	-0,6631	18,86	291,07	0,02241	
20,64	-0,6626	14,17	291,79	0,02237	
20,66	-0,6622	15,11	292,09	0,02244	
20,68	-0,6618	14,75	292,27	0,02258	
20,70	-0,6614	14,44	292,49	0,02270	
20,72	-0,6607	16,86	292,97	0,02274	
20,74	-0,6600	16,87	293,49	0,02274	
20,76	-0,6597	16,84	293,85	0,02265	
20,78	-0,6593	16,90	294,35	0,02241	
20,80	-0,6587	12,67	295,07	0,02234	
20,82	-0,6582	12,10	295,58	0,02239	
20,84	-0,6577	14,55	295,92	0,02244	
20,86	-0,6571	14,19	296,22	0,02262	
20,88	-0,6567	15,49	296,50	0,02277	
20,90	-0,6562	17,08	297,05	0,02273	
20,92	-0,6557	14,74	297,70	0,02259	
20,94	-0,6553	13,31	298,19	0,02246	
20,96	-0,6547	12,99	298,59	0,02243	
20,98	-0,6542	12,34	298,85	0,02245	
21,00	-0,6538	14,56	299,12	0,02249	
21,02	-0,6531	16,27	299,75	0,02247	
21,04	-0,6526	14,19	300,38	0,02257	
21,06	-0,6523	13,96	300,83	0,02269	
21,08	-0,6518	13,59	301,12	0,02270	
21,10	-0,6512	12,76	301,32	0,02269	
21,12	-0,6508	15,95	301,67	0,02256	
21,14	-0,6502	17,31	302,36	0,02240	
21,16	-0,6497	14,05	303,13	0,02239	
21,18	-0,6492	13,75	303,60	0,02247	
21,20	-0,6486	13,45	303,87	0,02258	
21,22	-0,6483	13,50	304,03	0,02270	
21,24	-0,6479	16,60	304,37	0,02268	
21,26	-0,6472	15,94	305,14	0,02260	
21,28	-0,6466	12,29	305,88	0,02251	
21,30	-0,6462	11,83	306,31	0,02241	
21,32	-0,6457	11,78	306,49	0,02237	
21,34	-0,6453	13,59	306,58	0,02244	
21,36	-0,6448	17,08	306,93	0,02246	
21,38	-0,6441	16,16	307,78	0,02250	
21,40	-0,6436	12,57	308,60	0,02263	
21,42	-0,6433	12,13	308,96	0,02269	
21,44	-0,6428	12,04	309,08	0,02260	
21,46	-0,6423	14,04	309,23	0,02248	
21,48	-0,6417	17,58	309,74	0,02238	
21,50	-0,6410	16,76	310,54	0,02238	
21,52	-0,6406	15,38	311,10	0,02249	
21,54	-0,6402	14,69	311,46	0,02256	
21,56	-0,6396	11,61	311,83	0,02264	
21,58	-0,6392	13,02	312,13	0,02269	
21,60	-0,6387	16,80	312,61	0,02268	
21,62	-0,6381	15,57	313,24	0,02258	
21,64	-0,6378	15,69	313,69	0,02246	
21,66	-0,6373	16,58	314,13	0,02241	
21,68	-0,6367	14,50	314,50	0,02247	
21,70	-0,6362	16,23	314,78	0,02253	
21,72	-0,6355	18,29	315,31	0,02256	
21,74	-0,6349	15,84	315,87	0,02264	
21,76	-0,6346	16,11	316,29	0,02273	
21,78	-0,6341	16,90	316,73	0,02269	
21,80	-0,6336	15,83	317,13	0,02259	
21,82	-0,6332	18,35	317,49	0,02252	
21,84	-0,6326	19,40	318,06	0,02250	
21,86	-0,6320	17,59	318,57	0,02252	
21,88	-0,6316	19,16	318,93	0,02256	
21,90	-0,6309	18,09	319,40	0,02260	
21,92	-0,6305	15,31	319,80	0,02268	
21,94	-0,6302	17,73	320,20	0,02265	
21,96	-0,6296	17,72	320,81	0,02259	
21,98	-0,6291	15,33	321,28	0,02253	
22,00	-0,6286	17,16	321,68	0,02243	
22,02	-0,6280	16,05	322,29	0,02237	
22,04	-0,6275	14,44	322,78	0,02246	
22,06	-0,6270	17,36	323,20	0,02259	
22,08	-0,6264	17,62	323,65	0,02276	
22,10	-0,6261	17,55	323,90	0,02281	
22,12	-0,6255	20,57	324,31	0,02265	
22,14	-0,6249	19,08	324,98	0,02252	
22,16	-0,6245	17,60	325,42	0,02254	
22,18	-0,6241	19,14	325,77	0,02252	
22,20	-0,6235	17,44	326,17	0,02257	
22,22	-0,6231	17,47	326,47	0,02268	
22,24	-0,6226	21,00	326,94	0,02265	
22,26	-0,6219	19,91	327,52	0,02263	
22,28	-0,6215	20,37	327,90	0,02258	
22,30	-0,6209	21,20	328,41	0,02250	
22,32	-0,6204	17,96	329,01	0,02247	
22,34	-0,6200	17,98	329,38	0,02250	
22,36	-0,6194	20,35	329,72	0,02247	
22,38	-0,6188	19,86	330,08	0,02254	
22,40	-0,6184	22,63	330,35	0,02265	
22,42	-0,6178	24,80	330,87	0,02266	
22,44	-0,6172	21,67	331,54	0,02264	
22,46	-0,6169	22,67	331,98	0,02260	
22,48	-0,6164	23,95	332,44	0,02251	
22,50	-0,6159	21,29	332,83	0,02245	
22,52	-0,6157	23,10	333,12	0,02242	
22,54	-0,6151	25,70	333,70	0,02247	
22,56	-0,6145	24,26	334,27	0,02261	
22,58	-0,6141	25,54	334,65	0,02273	
22,60	-0,6135	25,36	335,10	0,02274	
22,62	-0,6130	22,74	335,42	0,02273	
22,64	-0,6127	24,93	335,70	0,02263	
22,66	-0,6120	25,76	336,40	0,02250	
22,68	-0,6115	22,53	337,02	0,02251	
22,70	-0,6112	22,74	337,41	0,02248	
22,72	-0,6107	22,41	337,85	0,02246	
22,74	-0,6103	20,92	338,18	0,02260	
22,76	-0,6098	23,03	338,57	0,02274	
22,78	-0,6092	23,33	339,16	0,02276	
22,80	-0,6088	23,20	339,60	0,02272	
22,82	-0,6085	25,38	339,97	0,02260	
22,84	-0,6079	23,01	340,44	0,02243	
22,86	-0,6075	22,04	340,78	0,02240	
22,88	-0,6071	26,30	341,21	0,02246	
22,90	-0,6065	24,83	341,89	0,02255	
22,92	-0,6061	22,96	342,32	0,02267	
22,94	-0,6056	25,70	342,67	0,02273	
22,96	-0,6050	24,43	343,09	0,02276	
22,98	-0,6047	23,78	343,41	0,02271	
23,00	-0,6042	26,86	343,90	0,02254	
23,02	-0,6036	25,81	344,54	0,02241	
23,04	-0,6033	25,22	344,95	0,02245	
23,06	-0,6028	27,14	345,26	0,02252	
23,08	-0,6023	25,45	345,65	0,02259	
23,10	-0,6020	25,32	346,01	0,02269	
23,12	-0,6015	27,01	346,56	0,02266	
23,14	-0,6009	25,60	347,08	0,02260	
23,16	-0,6006	26,86	347,41	0,02254	
23,18	-0,6001	27,94	347,99	0,02248	
23,20	-0,5996	24,96	348,62	0,02252	
23,22	-0,5993	26,05	348,98	0,02259	
23,24	-0,5988	27,79	349,33	0,02259	
23,26	-0,5983	25,87	349,64	0,02263	
23,28	-0,5980	28,41	349,94	0,02268	
23,30	-0,5974	30,02	350,63	0,02267	
23,32	-0,5969	27,16	351,29	0,02257	
23,34	-0,5966	28,12	351,68	0,02246	
23,36	-0,5960	27,80	352,10	0,02242	
23,38	-0,5956	24,99	352,45	0,02251	
23,40	-0,5953	27,77	352,76	0,02255	
23,42	-0,5947	29,19	353,38	0,02249	
23,44	-0,5942	26,52	353,97	0,02259	
23,46	-0,5939	28,02	354,31	0,02271	
23,48	-0,5933	28,84	354,65	0,02265	
23,50	-0,5929	27,49	354,90	0,02254	
23,52	-0,5926	30,14	355,31	0,02247	
23,54	-0,5920	30,63	356,09	0,02242	
23,56	-0,5916	29,19	356,64	0,02253	
23,58	-0,5912	31,13	356,96	0,02262	
23,60	-0,5907	30,58	357,33	0,02265	
23,62	-0,5903	29,59	357,60	0,02271	
23,64	-0,5899	32,76	358,05	0,02267	
23,66	-0,5893	32,05	358,79	0,02249	
23,68	-0,5889	30,48	359,30	0,02234	
23,70	-0,5885	32,28	359,62	0,02235	
23,72	-0,5879	31,61	359,88	0,02249	
23,74	-0,5876	31,49	360,09	0,02264	
23,76	-0,5872	35,39	360,63	0,02265	
23,78	-0,5866	33,71	361,45	0,02262	
23,80	-0,5862	31,97	361,97	0,02258	
23,82	-0,5858	33,73	362,25	0,02251	
23,84	-0,5853	33,34	362,52	0,02245	
23,86	-0,5850	34,35	362,75	0,02248	
23,88	-0,5845	37,96	363,33	0,02245	
23,90	-0,5840	36,48	364,12	0,02250	
23,92	-0,5838	35,23	364,60	0,02265	
23,94	-0,5833	35,61	364,98	0,02268	
23,96	-0,5828	34,27	365,29	0,02269	
23,98	-0,5825	35,70	365,56	0,02267	
24,00	-0,5820	37,61	366,27	0,02255	
24,02	-0,5814	35,81	367,05	0,02244	
24,04	-0,5811	36,73	367,43	0,02251	
24,06	-0,5808	38,16	367,65	0,02254	
24,08	-0,5804	37,13	367,86	0,02260	
24,10	-0,5801	40,01	368,13	0,02272	
24,12	-0,5795	42,25	368,77	0,02274	
24,14	-0,5790	40,90	369,38	0,02272	
24,16	-0,5787	42,32	369,75	0,02263	
24,18	-0,5782	42,01	370,22	0,02253	
24,20	-0,5778	39,29	370,67	0,02254	
24,22	-0,5776	41,72	371,04	0,02254	
24,24	-0,5770	43,66	371,65	0,02253	
24,26	-0,5765	42,40	372,17	0,02266	
24,28	-0,5763	44,28	372,51	0,02273	
24,30	-0,5758	44,87	372,90	0,02269	
24,32	-0,5755	43,82	373,22	0,02267	
24,34	-0,5751	46,48	373,67	0,02255	
24,36	-0,5745	46,13	374,50	0,02241	
24,38	-0,5740	43,91	375,13	0,02239	
24,40	-0,5737	46,26	375,35	0,02249	
24,42	-0,5733	48,81	375,41	0,02263	
24,44	-0,5731	50,52	375,50	0,02282	
24,46	-0,5727	55,38	376,04	0,02278	
24,48	-0,5721	55,05	377,12	0,02272	
24,50	-0,5717	51,46	377,90	0,02267	
24,52	-0,5715	50,45	378,18	0,02259	
24,54	-0,5711	50,01	378,24	0,02255	
24,56	-0,5709	51,11	378,35	0,02256	
24,58	-0,5704	55,50	379,06	0,02252	
24,60	-0,5698	53,93	380,18	0,02258	
24,62	-0,5694	50,86	380,85	0,02276	
24,64	-0,5691	50,53	381,04	0,02284	
24,66	-0,5687	51,20	381,06	0,02279	
24,68	-0,5685	53,67	381,20	0,02269	
24,70	-0,5680	56,44	381,82	0,02255	
24,72	-0,5675	55,50	382,56	0,02251	
24,74	-0,5673	55,71	382,97	0,02257	
24,76	-0,5669	56,06	383,20	0,02263	
24,78	-0,5665	55,84	383,41	0,02270	
24,80	-0,5663	60,72	383,67	0,02270	
24,82	-0,5658	63,85	384,39	0,02265	
24,84	-0,5654	61,55	385,18	0,02260	
24,86	-0,5651	62,02	385,61	0,02248	
24,88	-0,5647	63,40	385,82	0,02242	
24,90	-0,5644	63,83	385,98	0,02248	
24,92	-0,5642	68,32	386,31	0,02249	
24,94	-0,5636	69,74	387,26	0,02245	
24,96	-0,5632	65,84	388,17	0,02253	
24,98	-0,5630	64,95	388,59	0,02269	
25,00	-0,5627	66,00	388,72	0,02273	
25,02	-0,5625	66,30	388,78	0,02261	
25,04	-0,5622	69,52	389,14	0,02250	
25,06	-0,5615	69,93	390,00	0,02247	
25,08	-0,5612	67,33	390,71	0,02256	
25,10	-0,5610	67,13	391,04	0,02267	
25,12	-0,5607	67,84	391,15	0,02272	
25,14	-0,5605	69,35	391,26	0,02277	
25,16	-0,5602	74,28	391,78	0,02277	
25,18	-0,5597	74,40	392,92	0,02265	
25,20	-0,5593	70,77	393,80	0,02252	
25,22	-0,5590	69,23	394,15	0,02250	
25,24	-0,5587	68,97	394,26	0,02256	
25,26	-0,5585	69,89	394,38	0,02259	
25,28	-0,5581	73,18	394,85	0,02256	
25,30	-0,5577	73,53	395,58	0,02262	
25,32	-0,5573	72,62	396,06	0,02275	
25,34	-0,5572	73,54	396,27	0,02278	
25,36	-0,5569	74,79	396,38	0,02263	
25,38	-0,5567	77,84	396,52	0,02251	
25,40	-0,5563	82,38	397,15	0,02243	
25,42	-0,5559	80,87	398,09	0,02238	
25,44	-0,5556	78,87	398,69	0,02251	
25,46	-0,5554	79,92	398,91	0,02274	
25,48	-0,5550	81,28	399,00	0,02287	
25,50	-0,5549	84,00	399,19	0,02284	
25,52	-0,5546	87,87	400,09	0,02268	
25,54	-0,5541	85,14	401,29	0,02258	
25,56	-0,5539	80,57	401,98	0,02256	
25,58	-0,5536	79,20	402,23	0,02250	
25,60	-0,5534	78,77	402,36	0,02250	
25,62	-0,5531	79,78	402,53	0,02257	
25,64	-0,5527	82,77	402,99	0,02264	
25,66	-0,5524	84,21	403,50	0,02278	
25,68	-0,5522	84,97	403,78	0,02287	
25,70	-0,5519	86,15	403,91	0,02279	
25,72	-0,5517	87,77	404,02	0,02267	
25,74	-0,5515	92,41	404,40	0,02253	
25,76	-0,5511	92,97	405,54	0,02249	
25,78	-0,5507	88,72	406,62	0,02255	
25,80	-0,5505	87,33	407,14	0,02262	
25,82	-0,5504	87,73	407,32	0,02272	
25,84	-0,5502	86,90	407,42	0,02275	
25,86	-0,5500	88,90	407,76	0,02269	
25,88	-0,5495	90,09	408,52	0,02253	
25,90	-0,5492	89,04	409,15	0,02247	
25,92	-0,5491	88,47	409,44	0,02247	
25,94	-0,5488	88,50	409,57	0,02254	
25,96	-0,5487	89,43	409,67	0,02258	
25,98	-0,5485	92,91	410,20	0,02259	
26,00	-0,5480	92,40	411,31	0,02262	
26,02	-0,5477	89,74	412,12	0,02270	
26,04	-0,5476	88,53	412,47	0,02270	
26,06	-0,5473	88,43	412,61	0,02258	
26,08	-0,5472	88,94	412,74	0,02250	
26,10	-0,5469	91,89	413,07	0,02243	
26,12	-0,5465	93,73	413,56	0,02244	
26,14	-0,5464	95,06	413,91	0,02255	
26,16	-0,5462	97,04	414,14	0,02267	
26,18	-0,5459	98,07	414,38	0,02275	
26,20	-0,5457	101,07	414,63	0,02276	
26,22	-0,5454	104,57	415,49	0,02264	
26,24	-0,5451	100,77	416,76	0,02245	
26,26	-0,5450	96,50	417,57	0,02246	
26,28	-0,5448	95,68	417,87	0,02251	
26,30	-0,5446	94,87	417,99	0,02260	
26,32	-0,5444	93,79	418,13	0,02268	
26,34	-0,5440	96,12	418,37	0,02274	
26,36	-0,5438	97,81	418,68	0,02274	
26,38	-0,5438	99,98	418,94	0,02267	
26,40	-0,5435	100,70	419,51	0,02253	
26,42	-0,5431	98,37	420,23	0,02245	
26,44	-0,5430	98,11	420,69	0,02251	
26,46	-0,5428	100,72	420,88	0,02260	
26,48	-0,5426	102,35	421,01	0,02266	
26,50	-0,5426	104,65	421,34	0,02270	
26,52	-0,5421	104,22	422,22	0,02269	
26,54	-0,5418	100,82	423,08	0,02270	
26,56	-0,5418	98,99	423,50	0,02266	
26,58	-0,5417	98,46	423,67	0,02256	
26,60	-0,5414	98,62	423,82	0,02248	
26,62	-0,5413	103,10	424,21	0,02249	
26,64	-0,5410	103,69	425,36	0,02253	
26,66	-0,5406	98,82	426,45	0,02262	
26,68	-0,5405	95,72	426,94	0,02271	
26,70	-0,5404	94,25	427,11	0,02278	
26,72	-0,5403	92,17	427,23	0,02278	
26,74	-0,5400	93,78	427,36	0,02268	
26,76	-0,5397	96,92	427,58	0,02258	
26,78	-0,5394	98,53	427,81	0,02256	
26,80	-0,5393	99,90	428,26	0,02254	
26,82	-0,5390	97,37	429,16	0,02257	
26,84	-0,5387	94,54	429,87	0,02268	
26,86	-0,5385	95,93	430,19	0,02273	
26,88	-0,5384	98,21	430,30	0,02272	
26,90	-0,5384	99,92	430,43	0,02260	
26,92	-0,5381	101,72	431,15	0,02249	
26,94	-0,5377	98,26	432,36	0,02240	
26,96	-0,5375	93,76	433,14	0,02244	
26,98	-0,5372	91,94	433,44	0,02259	
27,00	-0,5371	90,91	433,57	0,02274	
27,02	-0,5370	91,14	433,68	0,02283	
27,04	-0,5366	95,19	433,95	0,02280	
27,06	-0,5364	97,02	434,34	0,02274	
27,08	-0,5362	98,15	434,64	0,02261	
27,10	-0,5359	98,60	434,98	0,02252	
27,12	-0,5357	96,95	435,39	0,02253	
27,14	-0,5358	98,57	435,74	0,02263	
27,16	-0,5354	100,38	436,26	0,02268	
27,18	-0,5351	98,29	436,83	0,02277	
27,20	-0,5350	98,57	437,22	0,02284	
27,22	-0,5347	99,51	437,69	0,02278	
27,24	-0,5344	97,62	438,18	0,02266	
27,26	-0,5345	99,06	438,54	0,02254	
27,28	-0,5342	100,44	439,11	0,02251	
27,30	-0,5339	97,96	439,69	0,02260	
27,32	-0,5338	97,24	440,03	0,02266	
27,34	-0,5337	98,01	440,29	0,02266	
27,36	-0,5334	97,16	440,54	0,02278	
27,38	-0,5333	99,31	440,95	0,02279	
27,40	-0,5330	98,52	442,04	0,02264	
27,42	-0,5326	92,92	443,07	0,02256	
27,44	-0,5324	90,07	443,52	0,02255	
27,46	-0,5323	89,82	443,65	0,02259	
27,48	-0,5321	88,74	443,74	0,02266	
27,50	-0,5319	90,32	444,09	0,02265	
27,52	-0,5316	90,98	444,94	0,02266	
27,54	-0,5313	88,41	445,62	0,02276	
27,56	-0,5311	87,41	445,89	0,02278	
27,58	-0,5310	87,96	445,97	0,02268	
27,60	-0,5308	88,77	446,06	0,02261	
27,62	-0,5306	90,79	446,68	0,02253	
27,64	-0,5301	88,43	447,87	0,02244	
27,66	-0,5298	84,90	448,67	0,02251	
27,68	-0,5297	82,89	448,94	0,02266	
27,70	-0,5295	82,04	449,01	0,02278	
27,72	-0,5293	82,97	449,10	0,02283	
27,74	-0,5291	86,47	449,58	0,02266	
27,76	-0,5286	85,33	450,36	0,02249	
27,78	-0,5284	82,99	450,85	0,02253	
27,80	-0,5283	83,38	451,02	0,02263	
27,82	-0,5280	84,61	451,08	0,02275	
27,84	-0,5279	87,08	451,22	0,02286	
27,86	-0,5274	89,21	452,01	0,02279	
27,88	-0,5270	86,73	453,03	0,02273	
27,90	-0,5269	84,75	453,57	0,02271	
27,92	-0,5268	84,38	453,74	0,02262	
27,94	-0,5265	83,42	453,80	0,02246	
27,96	-0,5263	85,44	453,98	0,02244	
27,98	-0,5259	87,18	454,72	0,02245	
28,00	-0,5256	84,98	455,54	0,02258	
28,02	-0,5254	84,19	455,95	0,02275	
28,04	-0,5252	84,40	456,08	0,02286	
28,06	-0,5250	83,71	456,14	0,02283	
28,08	-0,5248	87,69	456,43	0,02268	
28,10	-0,5244	89,12	457,58	0,02245	
28,12	-0,5241	85,03	458,75	0,02237	
28,14	-0,5238	82,18	459,26	0,02246	
28,16	-0,5237	80,73	459,35	0,02260	
28,18	-0,5235	78,81	459,37	0,02268	
28,20	-0,5233	80,30	459,75	0,02272	
28,22	-0,5228	79,92	460,88	0,02275	
28,24	-0,5224	75,49	461,81	0,02271	
28,26	-0,5223	72,40	462,14	0,02261	
28,28	-0,5221	71,52	462,20	0,02254	
28,30	-0,5218	71,28	462,22	0,02260	
28,32	-0,5214	74,80	462,43	0,02261	
28,34	-0,5210	77,41	463,03	0,02256	
28,36	-0,5207	77,38	463,50	0,02264	
28,38	-0,5205	77,83	463,68	0,02275	
28,40	-0,5203	78,52	463,71	0,02277	
28,42	-0,5200	80,84	463,73	0,02267	
28,44	-0,5199	85,30	464,28	0,02248	
28,46	-0,5194	83,91	465,55	0,02232	
28,48	-0,5191	80,28	466,46	0,02235	
28,50	-0,5190	78,67	466,75	0,02251	
28,52	-0,5188	77,38	466,78	0,02268	
28,54	-0,5186	77,51	466,84	0,02281	
28,56	-0,5182	80,19	467,60	0,02277	
28,58	-0,5177	77,27	468,89	0,02262	
28,60	-0,5175	73,19	469,66	0,02252	
28,62	-0,5173	71,43	469,85	0,02252	
28,64	-0,5170	69,77	469,85	0,02255	
28,66	-0,5168	69,50	469,95	0,02259	
28,68	-0,5164	70,98	470,79	0,02255	
28,70	-0,5160	68,59	471,85	0,02264	
28,72	-0,5157	65,90	472,35	0,02277	
28,74	-0,5154	65,00	472,44	0,02282	
28,76	-0,5151	65,06	472,41	0,02277	
28,78	-0,5150	68,26	472,55	0,02261	
28,80	-0,5145	69,81	473,47	0,02244	
28,82	-0,5142	67,21	474,47	0,02243	
28,84	-0,5139	65,34	474,89	0,02259	
28,86	-0,5136	64,99	474,93	0,02276	
28,88	-0,5133	65,22	474,89	0,02283	
28,90	-0,5131	69,51	475,09	0,02280	
28,92	-0,5126	70,82	476,10	0,02267	
28,94	-0,5122	66,30	477,08	0,02257	
28,96	-0,5119	63,23	477,44	0,02253	
28,98	-0,5116	62,13	477,45	0,02250	
29,00	-0,5115	62,25	477,41	0,02254	
29,02	-0,5112	66,49	477,76	0,02261	
29,04	-0,5106	67,52	478,84	0,02267	
29,06	-0,5102	64,23	479,69	0,02271	
29,08	-0,5100	62,04	479,96	0,02273	
29,10	-0,5098	61,70	479,95	0,02258	
29,12	-0,5095	62,10	479,90	0,02242	
29,14	-0,5092	65,19	480,35	0,02237	
29,16	-0,5085	64,34	481,51	0,02238	
29,18	-0,5082	61,66	482,33	0,02253	
29,20	-0,5080	60,28	482,53	0,02270	
29,22	-0,5077	59,22	482,47	0,02274	
29,24	-0,5074	60,47	482,42	0,02269	
29,26	-0,5070	64,86	482,89	0,02262	
29,28	-0,5065	64,01	483,78	0,02256	
29,30	-0,5063	62,16	484,34	0,02253	
29,32	-0,5061	61,40	484,60	0,02246	
29,34	-0,5056	59,92	484,80	0,02245	
29,36	-0,5053	61,27	484,93	0,02255	
29,38	-0,5050	65,53	485,48	0,02270	
29,40	-0,5044	64,03	486,40	0,02278	
29,42	-0,5042	62,00	486,95	0,02276	
29,44	-0,5038	62,26	487,18	0,02260	
29,46	-0,5035	60,61	487,32	0,02250	
29,48	-0,5033	61,39	487,46	0,02253	
29,50	-0,5029	63,86	488,15	0,02250	
29,52	-0,5024	60,92	489,12	0,02258	
29,54	-0,5021	58,42	489,63	0,02270	
29,56	-0,5017	57,47	489,89	0,02277	
29,58	-0,5013	56,06	490,05	0,02276	
29,60	-0,5011	58,29	490,25	0,02266	
29,62	-0,5005	60,07	491,00	0,02251	
29,64	-0,5001	56,57	491,84	0,02251	
29,66	-0,4998	55,58	492,22	0,02253	
29,68	-0,4995	55,10	492,45	0,02256	
29,70	-0,4991	53,29	492,61	0,02267	
29,72	-0,4988	55,66	492,85	0,02279	
29,74	-0,4983	56,64	493,71	0,02270	
29,76	-0,4979	52,52	494,55	0,02262	
29,78	-0,4977	50,99	494,91	0,02256	
29,80	-0,4973	50,10	495,13	0,02248	
29,82	-0,4969	48,04	495,24	0,02243	
29,84	-0,4966	50,63	495,51	0,02245	
29,86	-0,4961	51,92	496,42	0,02250	
29,88	-0,4957	49,01	497,21	0,02258	
29,90	-0,4954	48,03	497,55	0,02267	
29,92	-0,4949	46,67	497,76	0,02277	
29,94	-0,4945	46,03	497,84	0,02274	
29,96	-0,4942	49,24	498,18	0,02262	
29,98	-0,4936	48,61	499,18	0,02250	
30,00	-0,4932	45,40	499,94	0,02246	
30,02	-0,4929	45,10	500,21	0,02254	
30,04	-0,4926	43,79	500,29	0,02264	
30,06	-0,4920	43,01	500,24	0,02274	
30,08	-0,4916	47,65	500,09	0,02284	
30,10	-0,4912	54,32	499,93	0,02281	
30,12	-0,4909	59,45	499,77	0,02267	
30,14	-0,4905	64,65	499,64	0,02255	
30,16	-0,4901	67,79	499,63	0,02249	
30,18	-0,4897	69,23	499,72	0,02247	
30,20	-0,4894	71,77	499,75	0,02259	
30,22	-0,4891	77,02	499,66	0,02278	
30,24	-0,4888	82,66	499,61	0,02287	
30,26	-0,4884	86,61	499,70	0,02280	
30,28	-0,4881	90,59	499,79	0,02273	
30,30	-0,4879	95,61	499,75	0,02264	
30,32	-0,4878	100,41	499,64	0,02255	
30,34	-0,4875	103,64	499,63	0,02253	
30,36	-0,4871	105,70	499,72	0,02261	
30,38	-0,4868	108,38	499,74	0,02272	
30,40	-0,4868	112,10	499,64	0,02281	
30,42	-0,4867	114,11	499,59	0,02277	
30,44	-0,4864	113,90	499,74	0,02269	
30,46	-0,4860	115,42	499,88	0,02259	
30,48	-0,4860	119,12	499,85	0,02247	
30,50	-0,4860	122,94	499,70	0,02252	
30,52	-0,4858	125,68	499,68	0,02268	
30,54	-0,4854	127,22	499,76	0,02282	
30,56	-0,4853	129,88	499,74	0,02292	
30,58	-0,4854	132,23	499,64	0,02296	
30,60	-0,4853	131,79	499,65	0,02290	
30,62	-0,4850	130,50	499,71	0,02274	
30,64	-0,4848	132,53	499,67	0,02264	
30,66	-0,4847	134,89	499,62	0,02263	
30,68	-0,4847	134,13	499,70	0,02259	
30,70	-0,4846	133,63	499,82	0,02256	
30,72	-0,4846	136,41	499,80	0,02267	
30,74	-0,4847	140,46	499,67	0,02279	
30,76	-0,4844	141,53	499,66	0,02285	
30,78	-0,4840	141,08	499,74	0,02280	
30,80	-0,4840	143,20	499,71	0,02270	
30,82	-0,4841	145,06	499,61	0,02261	
30,84	-0,4840	142,54	499,64	0,02254	
30,86	-0,4839	139,15	499,79	0,02257	
30,88	-0,4839	139,98	499,84	0,02265	
30,90	-0,4840	143,24	499,72	0,02276	
30,92	-0,4839	144,85	499,62	0,02283	
30,94	-0,4835	144,09	499,69	0,02279	
30,96	-0,4833	144,15	499,78	0,02271	
30,98	-0,4833	145,27	499,72	0,02263	
31,00	-0,4834	145,92	499,60	0,02257	
31,02	-0,4834	144,37	499,63	0,02252	
31,04	-0,4833	142,70	499,79	0,02253	
31,06	-0,4832	143,56	499,84	0,02265	
31,08	-0,4833	145,45	499,71	0,02279	
31,10	-0,4834	146,17	499,64	0,02283	
31,12	-0,4831	145,10	499,73	0,02274	
31,14	-0,4828	145,83	499,77	0,02259	
31,16	-0,4827	148,16	499,66	0,02247	
31,18	-0,4827	147,68	499,60	0,02241	
31,20	-0,4826	143,73	499,72	0,02247	
31,22	-0,4825	142,30	499,84	0,02261	
31,24	-0,4826	144,06	499,79	0,02278	
31,26	-0,4827	145,89	499,65	0,02291	
31,28	-0,4827	146,18	499,63	0,02284	
31,30	-0,4826	145,81	499,76	0,02269	
31,32	-0,4826	147,06	499,79	0,02260	
31,34	-0,4827	148,98	499,67	0,02256	
31,36	-0,4825	147,94	499,63	0,02253	
31,38	-0,4822	145,36	499,71	0,02259	
31,40	-0,4819	145,73	499,73	0,02272	
31,42	-0,4820	148,17	499,64	0,02280	
31,44	-0,4820	148,41	499,61	0,02281	
31,46	-0,4819	145,92	499,75	0,02282	
31,48	-0,4819	145,16	499,87	0,02279	
31,50	-0,4819	146,98	499,80	0,02269	
31,52	-0,4820	149,11	499,66	0,02256	
31,54	-0,4820	148,85	499,66	0,02249	
31,56	-0,4819	148,22	499,73	0,02261	
31,58	-0,4818	148,83	499,67	0,02278	
31,60	-0,4816	148,69	499,60	0,02282	
31,62	-0,4813	145,82	499,68	0,02278	
31,64	-0,4812	143,22	499,82	0,02274	
31,66	-0,4812	144,85	499,82	0,02265	
31,68	-0,4813	148,07	499,69	0,02259	
31,70	-0,4813	148,54	499,64	0,02255	
31,72	-0,4813	147,60	499,69	0,02253	
31,74	-0,4813	148,93	499,66	0,02262	
31,76	-0,4814	149,73	499,62	0,02274	
31,78	-0,4813	147,03	499,71	0,02274	
31,80	-0,4812	144,75	499,80	0,02266	
31,82	-0,4812	146,50	499,73	0,02263	
31,84	-0,4811	148,64	499,62	0,02258	
31,86	-0,4808	147,72	499,65	0,02254	
31,88	-0,4806	146,11	499,80	0,02254	
31,90	-0,4806	146,94	499,83	0,02262	
31,92	-0,4807	148,76	499,71	0,02281	
31,94	-0,4807	148,73	499,65	0,02283	
31,96	-0,4806	146,98	499,72	0,02273	
31,98	-0,4806	147,49	499,72	0,02261	
32,00	-0,4807	149,59	499,62	0,02249	
32,02	-0,4807	148,88	499,61	0,02245	
32,04	-0,4806	144,83	499,75	0,02251	
32,06	-0,4806	143,83	499,84	0,02266	
32,08	-0,4806	146,65	499,75	0,02277	
32,10	-0,4804	148,88	499,61	0,02280	
32,12	-0,4801	147,79	499,65	0,02282	
32,14	-0,4799	146,20	499,80	0,02280	
32,16	-0,4799	147,08	499,82	0,02273	
32,18	-0,4800	148,67	499,69	0,02259	
32,20	-0,4800	147,46	499,61	0,02251	
32,22	-0,4800	145,53	499,72	0,02259	
32,24	-0,4799	145,33	499,82	0,02271	
32,26	-0,4800	146,50	499,74	0,02281	
32,28	-0,4801	146,69	499,62	0,02283	
32,30	-0,4800	145,20	499,66	0,02272	
32,32	-0,4796	144,12	499,80	0,02261	
32,34	-0,4793	145,54	499,81	0,02258	
32,36	-0,4794	147,42	499,68	0,02258	
32,38	-0,4794	146,52	499,63	0,02253	
32,40	-0,4793	145,38	499,72	0,02259	
32,42	-0,4792	146,77	499,74	0,02268	
32,44	-0,4793	148,64	499,63	0,02273	
32,46	-0,4794	147,20	499,60	0,02274	
32,48	-0,4793	143,84	499,74	0,02270	
32,50	-0,4792	142,90	499,85	0,02265	
32,52	-0,4793	144,54	499,77	0,02264	
32,54	-0,4794	146,19	499,65	0,02257	
32,56	-0,4792	146,13	499,67	0,02255	
32,58	-0,4788	146,52	499,72	0,02266	
32,60	-0,4787	147,99	499,66	0,02275	
32,62	-0,4787	147,51	499,60	0,02281	
32,64	-0,4787	143,87	499,71	0,02280	
32,66	-0,4786	141,19	499,85	0,02269	
32,68	-0,4786	142,81	499,81	0,02257	
32,70	-0,4787	145,44	499,68	0,02245	
32,72	-0,4787	145,55	499,64	0,02235	
32,74	-0,4786	145,01	499,69	0,02232	
32,76	-0,4786	145,32	499,68	0,02236	
32,78	-0,4787	145,15	499,62	0,02252	
32,80	-0,4785	142,81	499,69	0,02267	
32,82	-0,4781	140,82	499,81	0,02279	
32,84	-0,4779	142,14	499,80	0,02278	
32,86	-0,4780	144,99	499,66	0,02259	
32,88	-0,4780	145,30	499,64	0,02227	
32,90	-0,4779	143,65	499,74	0,02188	
32,92	-0,4779	144,02	499,75	0,02161	
32,94	-0,4780	145,44	499,65	0,02135	
32,96	-0,4780	143,94	499,60	0,02093	
32,98	-0,4779	141,41	499,73	0,02029	
33,00	-0,4779	141,50	499,83	0,01962	
33,02	-0,4778	143,87	499,75	0,01906	
33,04	-0,4776	145,63	499,62	0,01878	
33,06	-0,4774	144,51	499,64	0,01862	
33,08	-0,4772	142,91	499,77	0,01854	
33,10	-0,4772	143,86	499,78	0,01855	
33,12	-0,4774	145,52	499,66	0,01846	
33,14	-0,4773	144,09	499,62	0,01844	
33,16	-0,4772	141,61	499,73	0,01899	
33,18	-0,4772	142,00	499,78	0,01941	
33,20	-0,4773	143,86	499,68	0,01935	
33,22	-0,4773	143,17	499,59	0,01905	
33,24	-0,4770	140,64	499,67	0,01877	
33,26	-0,4766	139,71	499,83	0,01855	
33,28	-0,4765	141,11	499,83	0,01835	
33,30	-0,4767	142,69	499,68	0,01818	
33,32	-0,4767	142,24	499,61	0,01797	
33,34	-0,4766	140,87	499,71	0,01761	
33,36	-0,4765	141,12	499,77	0,01725	
33,38	-0,4766	142,24	499,68	0,01655	
33,40	-0,4767	141,91	499,58	0,01526	
33,42	-0,4765	139,45	499,69	0,01422	
33,44	-0,4761	138,58	499,86	0,01359	
33,46	-0,4759	140,22	499,85	0,01292	
33,48	-0,4760	142,33	499,68	0,01176	
33,50	-0,4760	142,15	499,63	0,01082	
33,52	-0,4759	140,29	499,72	0,01009	
33,54	-0,4759	140,63	499,73	0,00866	
33,56	-0,4760	142,00	499,63	0,00606	
33,58	-0,4760	140,97	499,61	0,00395	
33,60	-0,4758	138,01	499,76	0,00300	
33,62	-0,4755	138,11	499,87	0,00273	
33,64	-0,4753	140,81	499,78	0,00259	
33,66	-0,4754	142,61	499,64	0,00235	
33,68	-0,4753	141,23	499,66	0,00199	
33,70	-0,4752	140,22	499,73	0,00171	
33,72	-0,4753	141,47	499,68	0,00154	
33,74	-0,4753	141,66	499,60	0,00146	
33,76	-0,4753	138,70	499,68	0,00149	
33,78	-0,4752	136,76	499,82	0,00159	
33,80	-0,4752	138,41	499,80	0,00170	
33,82	-0,4750	141,50	499,66	0,00165	
33,84	-0,4748	142,00	499,61	0,00153	
33,86	-0,4746	140,32	499,72	0,00138	
33,88	-0,4745	140,39	499,80	0,00123	
33,90	-0,4746	141,82	499,71	0,00121	
33,92	-0,4747	141,86	499,59	0,00127	
33,94	-0,4746	139,56	499,66	0,00134	
33,96	-0,4745	138,52	499,80	0,00129	
33,98	-0,4745	140,09	499,80	0,00127	
34,00	-0,4746	141,41	499,66	0,00121	
34,02	-0,4744	139,91	499,61	0,00105	
34,04	-0,4740	138,32	499,73	0,00096	
34,06	-0,4739	138,25	499,82	0,00092	
34,08	-0,4740	138,96	499,73	0,00098	
34,10	-0,4740	139,29	499,60	0,00108	
34,12	-0,4740	138,22	499,64	0,00111	
34,14	-0,4739	137,22	499,81	0,00111	
34,16	-0,4739	137,91	499,85	0,00106	
34,18	-0,4740	139,10	499,72	0,00099	
34,20	-0,4739	139,68	499,62	0,00088	
34,22	-0,4735	139,33	499,70	0,00075	
34,24	-0,4733	140,21	499,77	0,00078	
34,26	-0,4733	141,92	499,69	0,00090	
34,28	-0,4734	141,81	499,60	0,00095	
34,30	-0,4733	138,86	499,69	0,00100	
34,32	-0,4732	137,76	499,80	0,00105	
34,34	-0,4732	139,89	499,76	0,00095	
34,36	-0,4733	142,02	499,63	0,00083	
34,38	-0,4733	141,20	499,62	0,00079	
34,40	-0,4729	139,37	499,75	0,00079	
34,42	-0,4726	139,49	499,79	0,00084	
34,44	-0,4726	141,34	499,68	0,00096	
34,46	-0,4727	140,68	499,59	0,00106	
34,48	-0,4726	138,32	499,68	0,00104	
34,50	-0,4725	137,54	499,83	0,00093	
34,52	-0,4726	138,85	499,83	0,00081	
34,54	-0,4727	140,05	499,68	0,00072	
34,56	-0,4727	140,47	499,62	0,00066	
34,58	-0,4726	139,99	499,74	0,00066	
34,60	-0,4725	140,61	499,78	0,00072	
34,62	-0,4723	142,19	499,67	0,00088	
34,64	-0,4721	141,28	499,61	0,00094	
34,66	-0,4719	138,02	499,71	0,00094	
34,68	-0,4719	137,46	499,79	0,00088	
34,70	-0,4719	140,06	499,71	0,00074	
34,72	-0,4720	141,39	499,60	0,00065	
34,74	-0,4720	139,48	499,64	0,00059	
34,76	-0,4719	137,74	499,78	0,00064	
34,78	-0,4719	138,10	499,79	0,00080	
34,80	-0,4719	139,29	499,66	0,00090	
34,82	-0,4717	139,16	499,60	0,00088	
34,84	-0,4714	137,85	499,72	0,00082	
34,86	-0,4712	137,67	499,82	0,00075	
34,88	-0,4712	138,70	499,75	0,00061	
34,90	-0,4713	139,39	499,61	0,00053	
34,92	-0,4713	138,47	499,65	0,00053	
34,94	-0,4712	137,46	499,79	0,00061	
34,96	-0,4712	137,98	499,80	0,00075	
34,98	-0,4713	139,12	499,68	0,00082	
35,00	-0,4712	138,85	499,63	0,00086	
35,02	-0,4708	138,21	499,70	0,00081	
35,04	-0,4706	139,24	499,73	0,00070	
35,06	-0,4707	141,33	499,63	0,00064	
35,08	-0,4707	140,27	499,59	0,00061	
35,10	-0,4706	136,53	499,77	0,00061	
35,12	-0,4706	135,70	499,92	0,00068	
35,14	-0,4706	137,55	499,86	0,00080	
35,16	-0,4707	139,51	499,69	0,00085	
35,18	-0,4705	140,20	499,65	0,00080	
35,20	-0,4701	139,63	499,73	0,00065	
35,22	-0,4700	140,71	499,69	0,00052	
35,24	-0,4700	141,35	499,60	0,00051	
35,26	-0,4699	138,02	499,64	0,00060	
35,28	-0,4698	134,46	499,82	0,00069	
35,30	-0,4698	135,13	499,87	0,00080	
35,32	-0,4699	137,85	499,74	0,00086	
35,34	-0,4700	139,14	499,64	0,00089	
35,36	-0,4699	138,26	499,71	0,00081	
35,38	-0,4697	138,94	499,74	0,00062	
35,40	-0,4695	141,18	499,64	0,00049	
35,42	-0,4693	140,35	499,59	0,00050	
35,44	-0,4692	136,62	499,71	0,00059	
35,46	-0,4691	134,83	499,84	0,00067	
35,48	-0,4692	136,54	499,78	0,00075	
35,50	-0,4693	138,60	499,64	0,00084	
35,52	-0,4693	137,70	499,64	0,00076	
35,54	-0,4692	136,70	499,74	0,00058	
35,56	-0,4692	137,78	499,73	0,00046	
35,58	-0,4692	138,99	499,62	0,00045	
35,60	-0,4690	137,73	499,61	0,00053	
35,62	-0,4686	135,22	499,76	0,00069	
35,64	-0,4685	135,42	499,84	0,00083	
35,66	-0,4686	137,74	499,74	0,00089	
35,68	-0,4686	139,17	499,64	0,00087	
35,70	-0,4686	137,79	499,69	0,00075	
35,72	-0,4685	138,21	499,73	0,00067	
35,74	-0,4686	140,78	499,64	0,00061	
35,76	-0,4686	140,13	499,60	0,00051	
35,78	-0,4684	135,44	499,72	0,00047	
35,80	-0,4680	133,70	499,83	0,00061	
35,82	-0,4679	136,20	499,77	0,00076	
35,84	-0,4680	138,72	499,65	0,00074	
35,86	-0,4679	137,76	499,68	0,00067	
35,88	-0,4679	137,02	499,74	0,00056	
35,90	-0,4679	139,46	499,67	0,00049	
35,92	-0,4680	139,91	499,59	0,00045	
35,94	-0,4679	136,61	499,68	0,00051	
35,96	-0,4677	134,13	499,83	0,00068	
35,98	-0,4674	135,90	499,81	0,00077	
36,00	-0,4673	138,73	499,68	0,00077	
36,02	-0,4673	138,64	499,66	0,00070	
36,04	-0,4672	137,61	499,72	0,00057	
36,06	-0,4673	139,46	499,67	0,00039	
36,08	-0,4673	140,33	499,59	0,00029	
36,10	-0,4673	137,18	499,68	0,00033	
36,12	-0,4672	133,61	499,84	0,00051	
36,14	-0,4672	134,72	499,86	0,00065	
36,16	-0,4671	137,92	499,71	0,00074	
36,18	-0,4669	139,34	499,63	0,00076	
36,20	-0,4666	138,38	499,73	0,00066	
36,22	-0,4665	138,78	499,79	0,00058	
36,24	-0,4666	139,91	499,69	0,00052	
36,26	-0,4666	139,10	499,60	0,00046	
36,28	-0,4666	135,16	499,69	0,00041	
36,30	-0,4665	133,77	499,79	0,00045	
36,32	-0,4666	136,39	499,74	0,00059	
36,34	-0,4666	138,05	499,63	0,00064	
36,36	-0,4663	136,41	499,64	0,00057	
36,38	-0,4659	135,40	499,76	0,00047	
36,40	-0,4658	136,85	499,77	0,00040	
36,42	-0,4659	138,97	499,65	0,00033	
36,44	-0,4660	138,98	499,59	0,00028	
36,46	-0,4659	136,92	499,72	0,00033	
36,48	-0,4658	136,34	499,85	0,00044	
36,50	-0,4658	137,85	499,80	0,00085	
36,52	-0,4659	139,46	499,65	0,00583	
36,54	-0,4657	138,88	499,64	0,02212	
36,56	-0,4653	137,52	499,73	0,03718	
36,58	-0,4652	138,70	499,71	0,04456	
36,60	-0,4653	139,90	499,61	0,04664	
36,62	-0,4653	137,63	499,63	0,04670	
36,64	-0,4652	134,58	499,81	0,04842	
36,66	-0,4652	135,24	499,90	0,05043	
36,68	-0,4652	137,73	499,79	0,05117	
36,70	-0,4653	139,47	499,65	0,05114	
36,72	-0,4650	139,40	499,69	0,05092	
36,74	-0,4646	139,79	499,74	0,05071	
36,76	-0,4646	141,77	499,66	0,05048	
36,78	-0,4647	142,09	499,59	0,05018	
36,80	-0,4646	138,21	499,70	0,04998	
36,82	-0,4645	134,88	499,84	0,04993	
36,84	-0,4645	136,18	499,83	0,04992	
36,86	-0,4646	138,77	499,68	0,04969	
36,88	-0,4646	139,57	499,65	0,04920	
36,90	-0,4644	139,30	499,74	0,04884	
36,92	-0,4641	140,51	499,73	0,04855	
36,94	-0,4640	142,17	499,61	0,04830	
36,96	-0,4639	140,36	499,61	0,04806	
36,98	-0,4638	136,52	499,76	0,04801	
37,00	-0,4638	136,64	499,82	0,04795	
37,02	-0,4639	139,21	499,71	0,04773	
37,04	-0,4640	139,94	499,60	0,04752	
37,06	-0,4639	138,12	499,68	0,04771	
37,08	-0,4639	137,36	499,83	0,04814	
37,10	-0,4638	138,24	499,84	0,04854	
37,12	-0,4639	139,31	499,70	0,04898	
37,14	-0,4637	140,19	499,63	0,04939	
37,16	-0,4633	139,95	499,72	0,04992	
37,18	-0,4632	140,71	499,74	0,05048	
37,20	-0,4633	142,09	499,63	0,05085	
37,22	-0,4633	141,23	499,60	0,05088	
37,24	-0,4632	137,79	499,74	0,05077	
37,26	-0,4631	136,99	499,83	0,05077	
37,28	-0,4632	139,88	499,75	0,05082	
37,30	-0,4633	142,38	499,63	0,05082	
37,32	-0,4633	141,40	499,65	0,05076	
37,34	-0,4630	140,30	499,74	0,05080	
37,36	-0,4628	141,38	499,71	0,05089	
37,38	-0,4627	142,57	499,61	0,05086	
37,40	-0,4626	140,84	499,64	0,05055	
37,42	-0,4625	138,08	499,80	0,05006	
37,44	-0,4625	138,34	499,85	0,04987	
37,46	-0,4625	141,01	499,73	0,04986	
37,48	-0,4626	142,63	499,63	0,04970	
37,50	-0,4625	141,29	499,70	0,04943	
37,52	-0,4625	140,88	499,75	0,04917	
37,54	-0,4626	142,14	499,67	0,04893	
37,56	-0,4626	142,00	499,59	0,04867	
37,58	-0,4624	138,49	499,68	0,04836	
37,60	-0,4620	137,04	499,81	0,04811	
37,62	-0,4618	139,50	499,78	0,04811	
37,64	-0,4619	142,09	499,65	0,04819	
37,66	-0,4619	141,39	499,65	0,04817	
37,68	-0,4618	140,29	499,73	0,04813	
37,70	-0,4618	141,29	499,71	0,04823	
37,72	-0,4619	142,53	499,61	0,04854	
37,74	-0,4619	140,72	499,62	0,04886	
37,76	-0,4618	137,94	499,79	0,04923	
37,78	-0,4618	138,62	499,86	0,04967	
37,80	-0,4618	141,19	499,75	0,05014	
37,82	-0,4617	142,75	499,61	0,05058	
37,84	-0,4614	141,56	499,65	0,05094	
37,86	-0,4612	140,99	499,75	0,05133	
37,88	-0,4612	141,95	499,71	0,05158	
37,90	-0,4612	141,98	499,61	0,05159	
37,92	-0,4612	139,27	499,65	0,05136	
37,94	-0,4611	137,94	499,78	0,05109	
37,96	-0,4611	139,80	499,79	0,05094	
37,98	-0,4612	142,27	499,66	0,05089	
38,00	-0,4613	142,27	499,63	0,05082	
38,02	-0,4610	140,44	499,73	0,05089	
38,04	-0,4607	140,62	499,77	0,05111	
38,06	-0,4606	142,24	499,66	0,05117	
38,08	-0,4606	142,23	499,59	0,05081	
38,10	-0,4605	139,72	499,69	0,05024	
38,12	-0,4605	139,15	499,82	0,04983	
38,14	-0,4605	141,05	499,78	0,04967	
38,16	-0,4606	142,60	499,65	0,04941	
38,18	-0,4606	141,39	499,65	0,04905	
38,20	-0,4605	140,29	499,73	0,04875	
38,22	-0,4605	141,87	499,71	0,04848	
38,24	-0,4606	143,24	499,61	0,04828	
38,26	-0,4604	141,02	499,63	0,04807	
38,28	-0,4600	138,21	499,79	0,04780	
38,30	-0,4598	139,38	499,85	0,04760	
38,32	-0,4599	141,75	499,74	0,04763	
38,34	-0,4600	143,14	499,61	0,04766	
38,36	-0,4599	142,93	499,65	0,04770	
38,38	-0,4598	142,30	499,78	0,04789	
38,40	-0,4598	142,39	499,75	0,04821	
38,42	-0,4599	142,75	499,63	0,04850	
38,44	-0,4599	141,38	499,63	0,04873	
38,46	-0,4598	139,66	499,75	0,04912	
38,48	-0,4598	140,26	499,78	0,04969	
38,50	-0,4598	142,11	499,66	0,05031	
38,52	-0,4596	142,57	499,58	0,05060	
38,54	-0,4593	141,42	499,69	0,05066	
38,56	-0,4591	141,10	499,85	0,05063	
38,58	-0,4591	141,96	499,83	0,05066	
38,60	-0,4593	142,93	499,68	0,05082	
38,62	-0,4593	143,04	499,64	0,05075	
38,64	-0,4591	142,68	499,71	0,05039	
38,66	-0,4591	143,95	499,69	0,04990	
38,68	-0,4592	144,83	499,61	0,04944	
38,70	-0,4592	142,27	499,66	0,04907	
38,72	-0,4591	139,10	499,79	0,04885	
38,74	-0,4588	139,90	499,80	0,04871	
38,76	-0,4586	143,35	499,68	0,04849	
38,78	-0,4586	144,42	499,60	0,04815	
38,80	-0,4585	142,60	499,70	0,04791	
38,82	-0,4584	141,69	499,80	0,04785	
38,84	-0,4585	143,02	499,73	0,04797	
38,86	-0,4586	143,54	499,60	0,04818	
38,88	-0,4585	142,22	499,63	0,04829	
38,90	-0,4584	140,95	499,77	0,04861	
38,92	-0,4584	141,41	499,81	0,04925	
38,94	-0,4585	142,60	499,69	0,04982	
38,96	-0,4586	142,56	499,61	0,05008	
38,98	-0,4582	141,31	499,71	0,05025	
39,00	-0,4579	141,29	499,81	0,05056	
39,02	-0,4579	143,56	499,73	0,05106	
39,04	-0,4579	144,33	499,61	0,05136	
39,06	-0,4579	141,88	499,67	0,05174	
39,08	-0,4578	140,17	499,79	0,05231	
39,10	-0,4578	141,22	499,76	0,05270	
39,12	-0,4579	142,65	499,63	0,05243	
39,14	-0,4579	141,65	499,62	0,05148	
39,16	-0,4578	139,74	499,78	0,05047	
39,18	-0,4577	140,21	499,86	0,05006	
39,20	-0,4578	141,98	499,75	0,05023	
39,22	-0,4578	142,86	499,63	0,05023	
39,24	-0,4574	141,50	499,67	0,04998	
39,26	-0,4571	140,91	499,76	0,04984	
39,28	-0,4571	141,93	499,72	0,04977	
39,30	-0,4573	142,83	499,61	0,04968	
39,32	-0,4572	141,50	499,63	0,04963	
39,34	-0,4571	139,62	499,80	0,04960	
39,36	-0,4571	140,47	499,85	0,04954	
39,38	-0,4572	142,94	499,73	0,04960	
39,40	-0,4573	143,62	499,62	0,05002	
39,42	-0,4571	142,90	499,67	0,05042	
39,44	-0,4567	142,98	499,75	0,05058	
39,46	-0,4566	144,17	499,69	0,05061	
39,48	-0,4566	143,83	499,61	0,05050	
39,50	-0,4565	141,52	499,67	0,05034	
39,52	-0,4564	140,06	499,80	0,05019	
39,54	-0,4565	141,74	499,79	0,05017	
39,56	-0,4566	144,66	499,66	0,05013	
39,58	-0,4566	144,79	499,60	0,05009	
39,60	-0,4565	143,14	499,72	0,05011	
39,62	-0,4564	142,19	499,83	0,05015	
39,64	-0,4565	142,34	499,76	0,05012	
39,66	-0,4566	143,04	499,62	0,05008	
39,68	-0,4563	142,98	499,63	0,05007	
39,70	-0,4559	142,42	499,75	0,05016	
39,72	-0,4558	142,30	499,78	0,05028	
39,74	-0,4559	142,86	499,66	0,05036	
39,76	-0,4559	142,33	499,59	0,05038	
39,78	-0,4558	140,42	499,70	0,05052	
39,80	-0,4557	140,30	499,80	0,05072	
39,82	-0,4558	141,73	499,74	0,05060	
39,84	-0,4559	142,82	499,61	0,05060	
39,86	-0,4559	141,96	499,64	0,05049	
39,88	-0,4557	140,86	499,79	0,05047	
39,90	-0,4557	141,43	499,82	0,05057	
39,92	-0,4557	142,62	499,70	0,05075	
39,94	-0,4555	142,52	499,59	0,05082	
39,96	-0,4552	141,78	499,68	0,05062	
39,98	-0,4551	141,69	499,81	0,05054	
40,00	-0,4551	142,16	499,78	0,05042	
40,02	-0,4552	142,68	499,65	0,05043	
40,04	-0,4552	141,92	499,62	0,05037	
40,06	-0,4551	140,87	499,75	0,05044	
40,08	-0,4551	141,28	499,79	0,05057	
40,10	-0,4552	142,51	499,68	0,05070	
40,12	-0,4552	142,28	499,61	0,05074	
40,14	-0,4550	140,43	499,71	0,05063	
40,16	-0,4546	140,29	499,81	0,05049	
40,18	-0,4545	141,63	499,74	0,05044	
40,20	-0,4546	142,53	499,63	0,05053	
40,22	-0,4545	141,89	499,63	0,05049	
40,24	-0,4545	141,75	499,72	0,05049	
40,26	-0,4545	143,34	499,71	0,05060	
40,28	-0,4545	143,99	499,62	0,05069	
40,30	-0,4545	141,83	499,66	0,05063	
40,32	-0,4544	139,58	499,81	0,05059	
40,34	-0,4544	140,86	499,85	0,05057	
40,36	-0,4545	144,07	499,72	0,05054	
40,38	-0,4544	144,46	499,64	0,05043	
40,40	-0,4540	142,27	499,71	0,05032	
40,42	-0,4538	142,31	499,75	0,05051	
40,44	-0,4538	144,55	499,65	0,05069	
40,46	-0,4539	143,87	499,59	0,05075	
40,48	-0,4538	139,58	499,72	0,05071	
40,50	-0,4537	138,23	499,86	0,05063	
40,52	-0,4538	140,45	499,81	0,05057	
40,54	-0,4539	142,59	499,66	0,05049	
40,56	-0,4539	142,94	499,62	0,05040	
40,58	-0,4538	142,65	499,69	0,05036	
40,60	-0,4538	143,08	499,73	0,05050	
40,62	-0,4539	143,37	499,64	0,05065	
40,64	-0,4539	142,42	499,62	0,05070	
40,66	-0,4535	140,32	499,76	0,05065	
40,68	-0,4532	140,59	499,83	0,05065	
40,70	-0,4532	143,50	499,72	0,05059	
40,72	-0,4532	145,17	499,60	0,05043	
40,74	-0,4532	143,92	499,66	0,05031	
40,76	-0,4531	142,60	499,78	0,05035	
40,78	-0,4531	142,92	499,77	0,05053	
40,80	-0,4532	143,40	499,64	0,05060	
40,82	-0,4532	142,45	499,59	0,05053	
40,84	-0,4531	140,24	499,74	0,05045	
40,86	-0,4531	140,24	499,86	0,05043	
40,88	-0,4531	141,72	499,79	0,05042	
40,90	-0,4531	142,92	499,64	0,05038	
40,92	-0,4528	142,84	499,63	0,05032	
40,94	-0,4525	142,20	499,75	0,05038	
40,96	-0,4524	142,06	499,78	0,05053	
40,98	-0,4525	142,71	499,66	0,05061	
41,00	-0,4525	141,81	499,61	0,05060	
41,02	-0,4524	139,57	499,72	0,05050	
41,04	-0,4524	139,32	499,79	0,05042	
41,06	-0,4524	141,33	499,70	0,05038	
41,08	-0,4525	142,19	499,60	0,05031	
41,10	-0,4525	140,58	499,66	0,05030	
41,12	-0,4521	139,08	499,83	0,05042	
41,14	-0,4518	140,08	499,84	0,05058	
41,16	-0,4518	142,11	499,70	0,05067	
41,18	-0,4519	142,21	499,64	0,05059	
41,20	-0,4518	140,98	499,71	0,05041	
41,22	-0,4518	142,03	499,70	0,05036	
41,24	-0,4518	143,32	499,61	0,05041	
41,26	-0,4518	140,93	499,65	0,05041	
41,28	-0,4517	136,74	499,80	0,05044	
41,30	-0,4517	137,18	499,83	0,05053	
41,32	-0,4518	140,75	499,71	0,05060	
41,34	-0,4517	142,21	499,59	0,05055	
41,36	-0,4514	140,73	499,66	0,05044	
41,38	-0,4511	140,40	499,79	0,05036	
41,40	-0,4511	141,61	499,77	0,05035	
41,42	-0,4512	142,75	499,64	0,05039	
41,44	-0,4512	141,76	499,60	0,05038	
41,46	-0,4511	139,85	499,76	0,05039	
41,48	-0,4510	140,26	499,87	0,05050	
41,50	-0,4511	141,79	499,79	0,05063	
41,52	-0,4512	143,04	499,64	0,05053	
41,54	-0,4512	142,36	499,66	0,05034	
41,56	-0,4503	141,54	499,75	0,05030	
41,58	-0,3617	142,14	499,71	0,05041	
41,60	-0,1575	142,83	499,60	0,05042	
41,62	-0,02734	140,85	499,63	0,05039	
41,64	0,00508	138,05	499,79	0,05039	
41,66	0,00365	139,16	499,82	0,05047	
41,68	0,00120	141,85	499,69	0,05042	
41,70	0,00120	142,35	499,60	0,05031	
41,72	0,00160	140,47	499,70	0,05023	
41,74	0,00168	140,30	499,80	0,05027	
41,76	0,00159	141,90	499,72	0,05037	
41,78	0,00152	142,25	499,60	0,05039	
41,80	0,00185	139,79	499,66	0,05036	
41,82	0,00219	138,50	499,81	0,05039	
41,84	0,00222	140,10	499,79	0,05043	
41,86	0,00214	142,20	499,65	0,05031	
41,88	0,00220	141,75	499,62	0,05012	
41,90	0,00244	141,12	499,75	0,05000	
41,92	0,00281	143,62	499,83	0,05001	
41,94	0,00320	149,32	499,72	0,05011	
41,96	0,00353	154,52	499,60	0,05003	
41,98	0,00400	158,24	499,67	0,04987	
42,00	0,00457	164,28	499,82	0,04973	
42,02	0,00526	173,30	499,81	0,04957	
42,04	0,00595	183,34	499,67	0,04936	
42,06	0,00671	192,49	499,63	0,04914	
42,08	0,00776	201,82	499,75	0,04893	
42,10	0,00877	214,72	499,78	0,04878	
42,12	0,00974	229,88	499,68	0,04869	
42,14	0,01094	243,56	499,60	0,04856	
42,16	0,01236	255,82	499,70	0,04833	
42,18	0,01379	271,34	499,82	0,04805	
42,20	0,01510	290,62	499,77	0,04770	
42,22	0,01630	310,92	499,62	0,04739	
42,24	0,01777	329,47	499,63	0,04708	
42,26	0,01954	348,08	499,78	0,04676	
42,28	0,02125	369,82	499,82	0,04656	
42,30	0,02298	393,49	499,70	0,04643	
42,32	0,02490	415,58	499,61	0,04619	
42,34	0,02688	437,60	499,68	0,04582	
42,36	0,02891	462,34	499,74	0,04537	
42,38	0,03098	489,35	499,67	0,04496	
42,40	0,03314	516,03	499,59	0,04457	
42,42	0,03550	541,57	499,72	0,04416	
42,44	0,03794	569,20	499,90	0,04381	
42,46	0,04025	600,26	499,86	0,04356	
42,48	0,04260	632,76	499,68	0,04321	
42,50	0,04525	663,66	499,65	0,04281	
42,52	0,04802	693,77	499,72	0,04239	
42,54	0,05070	726,94	499,69	0,04188	
42,56	0,05334	761,35	499,60	0,04133	
42,58	0,05631	793,16	499,66	0,04078	
42,60	0,05939	824,58	499,84	0,04025	
42,62	0,06246	861,59	499,85	0,03983	
42,64	0,06556	901,88	499,68	0,03949	
42,66	0,06874	939,86	499,63	0,03906	
42,68	0,07209	975,84	499,73	0,03845	
42,70	0,07547	1014,9	499,77	0,03777	
42,72	0,07889	1056,4	499,67	0,03706	
42,74	0,08245	1096,1	499,59	0,03634	
42,76	0,08624	1134,2	499,71	0,03559	
42,78	0,09000	1175,0	499,83	0,03494	
42,80	0,09380	1218,5	499,77	0,03442	
42,82	0,09766	1261,7	499,62	0,03378	
42,84	0,1017	1302,4	499,64	0,03297	
42,86	0,1056	1342,7	499,79	0,03212	
42,88	0,1094	1384,9	499,82	0,03118	
42,90	0,1132	1427,1	499,68	0,03027	
42,92	0,1172	1466,4	499,60	0,02946	
42,94	0,1213	1504,0	499,70	0,02866	
42,96	0,1254	1543,0	499,77	0,02790	
42,98	0,1293	1581,9	499,69	0,02709	
43,00	0,1333	1618,6	499,58	0,02619	
43,02	0,1373	1651,9	499,68	0,02517	
43,04	0,1415	1685,1	499,86	0,02402	
43,06	0,1455	1721,1	499,87	0,02290	
43,08	0,1494	1756,5	499,70	0,02187	
43,10	0,1534	1789,2	499,59	0,02088	
43,12	0,1575	1819,5	499,69	0,01980	
43,14	0,1616	1849,2	499,82	0,01871	
43,16	0,1656	1879,0	499,76	0,01766	
43,18	0,1695	1908,4	499,62	0,01658	
43,20	0,1736	1934,1	499,69	0,01530	
43,22	0,1777	1959,5	499,84	0,01395	
43,24	0,1817	1986,9	499,81	0,01271	
43,26	0,1855	2013,7	499,66	0,01146	
43,28	0,1893	2036,2	499,64	0,01019	
43,30	0,1932	2056,7	499,75	0,00889	
43,32	0,1972	2078,7	499,74	0,00759	
43,34	0,2011	2100,6	499,62	0,00625	
43,36	0,2051	2119,0	499,63	0,00479	
43,38	0,2093	2135,1	499,78	0,00325	
43,40	0,2133	2154,8	499,83	0,00167	
43,42	0,2172	2175,1	499,70	0,00016	
43,44	0,2212	2192,2	499,62	-0,00136	
43,46	0,2254	2206,7	499,71	-0,00298	
43,48	0,2295	2221,9	499,77	-0,00446	
43,50	0,2334	2238,2	499,67	-0,00585	
43,52	0,2373	2252,1	499,57	-0,00732	
43,54	0,2414	2263,3	499,68	-0,00901	
43,56	0,2456	2275,0	499,90	-0,01082	
43,58	0,2496	2289,3	499,91	-0,01252	
43,60	0,2535	2303,6	499,74	-0,01415	
43,62	0,2575	2315,8	499,63	-0,01584	
43,64	0,2616	2326,7	499,68	-0,01748	
43,66	0,2657	2338,7	499,71	-0,01913	
43,68	0,2697	2350,2	499,64	-0,02089	
43,70	0,2736	2358,9	499,62	-0,02268	
43,72	0,2778	2366,1	499,78	-0,02461	
43,74	0,2818	2376,1	499,88	-0,02652	
43,76	0,2858	2388,9	499,77	-0,02826	
43,78	0,2896	2400,8	499,62	-0,03000	
43,80	0,2934	2409,1	499,65	-0,03186	
43,82	0,2973	2416,2	499,79	-0,03372	
43,84	0,3013	2425,7	499,80	-0,03543	
43,86	0,3052	2435,5	499,67	-0,03718	
43,88	0,3092	2442,8	499,59	-0,03913	
43,90	0,3133	2448,8	499,72	-0,04117	
43,92	0,3174	2456,7	499,86	-0,04312	
43,94	0,3214	2465,3	499,81	-0,04493	
43,96	0,3253	2473,4	499,66	-0,04667	
43,98	0,3294	2480,1	499,64	-0,04841	
44,00	0,3335	2486,9	499,74	-0,05026	
44,02	0,3375	2495,4	499,75	-0,05211	
44,04	0,3414	2504,0	499,64	-0,05407	
44,06	0,3454	2510,1	499,60	-0,05611	
44,08	0,3496	2514,6	499,74	-0,05812	
44,10	0,3536	2521,2	499,83	-0,06007	
44,12	0,3576	2529,4	499,76	-0,06190	
44,14	0,3615	2537,0	499,64	-0,06375	
44,16	0,3656	2542,9	499,65	-0,06563	
44,18	0,3697	2549,3	499,72	-0,06761	
44,20	0,3738	2556,6	499,69	-0,06963	
44,22	0,3777	2563,1	499,63	-0,07165	
44,24	0,3815	2566,9	499,69	-0,07366	
44,26	0,3853	2571,4	499,78	-0,07565	
44,28	0,3892	2578,9	499,73	-0,07751	
44,30	0,3932	2586,9	499,63	-0,07931	
44,32	0,3972	2592,5	499,64	-0,08119	
44,34	0,4013	2597,4	499,76	-0,08317	
44,36	0,4053	2603,4	499,78	-0,08515	
44,38	0,4093	2610,5	499,67	-0,08708	
44,40	0,4133	2615,6	499,60	-0,08909	
44,42	0,4174	2618,9	499,70	-0,09124	
44,44	0,4215	2623,7	499,83	-0,09332	
44,46	0,4255	2630,1	499,83	-0,09516	
44,48	0,4295	2636,0	499,72	-0,09688	
44,50	0,4334	2642,0	499,64	-0,09875	
44,52	0,4376	2647,4	499,71	-0,1008	
44,54	0,4416	2653,4	499,77	-0,1029	
44,56	0,4456	2659,2	499,72	-0,1049	
44,58	0,4496	2664,3	499,63	-0,1069	
44,60	0,4536	2667,8	499,64	-0,1090	
44,62	0,4577	2672,3	499,72	-0,1109	
44,64	0,4618	2678,0	499,74	-0,1129	
44,66	0,4657	2684,5	499,67	-0,1148	
44,68	0,4697	2690,1	499,61	-0,1167	
44,70	0,4738	2694,5	499,68	-0,1188	
44,72	0,4776	2698,8	499,79	-0,1210	
44,74	0,4814	2704,4	499,79	-0,1230	
44,76	0,4852	2710,1	499,69	-0,1250	
44,78	0,4892	2715,4	499,66	-0,1270	
44,80	0,4933	2719,8	499,76	-0,1290	
44,82	0,4974	2724,9	499,80	-0,1310	
44,84	0,5014	2730,6	499,73	-0,1329	
44,86	0,5053	2736,1	499,64	-0,1347	
44,88	0,5094	2740,0	499,68	-0,1368	
44,90	0,5134	2743,7	499,77	-0,1389	
44,92	0,5175	2748,6	499,77	-0,1409	
44,94	0,5214	2753,9	499,67	-0,1428	
44,96	0,5255	2758,0	499,66	-0,1447	
44,98	0,5296	2761,3	499,76	-0,1465	
45,00	0,5336	2767,2	499,78	-0,1485	
45,02	0,5376	2773,5	499,70	-0,1506	
45,04	0,5416	2778,5	499,66	-0,1527	
45,06	0,5457	2780,8	499,76	-0,1548	
45,08	0,5497	2784,9	499,80	-0,1569	
45,10	0,5537	2790,1	499,73	-0,1589	
45,12	0,5577	2795,3	499,65	-0,1608	
45,14	0,5617	2798,0	499,69	-0,1626	
45,16	0,5658	2801,6	499,72	-0,1645	
45,18	0,5698	2806,8	499,66	-0,1665	
45,20	0,5738	2810,8	499,61	-0,1686	
45,22	0,5777	2813,2	499,69	-0,1706	
45,24	0,5815	2816,5	499,77	-0,1727	
45,26	0,5853	2821,4	499,73	-0,1747	
45,28	0,5892	2826,2	499,63	-0,1765	
45,30	0,5933	2829,1	499,63	-0,1783	
45,32	0,5974	2832,6	499,72	-0,1803	
45,34	0,6014	2837,3	499,72	-0,1823	
45,36	0,6054	2842,3	499,63	-0,1843	
45,38	0,6094	2845,2	499,63	-0,1865	
45,40	0,6135	2846,2	499,76	-0,1886	
45,42	0,6175	2849,4	499,82	-0,1905	
45,44	0,6215	2855,5	499,72	-0,1923	
45,46	0,6255	2860,6	499,64	-0,1943	
45,48	0,6296	2862,8	499,69	-0,1962	
45,50	0,6336	2866,3	499,73	-0,1981	
45,52	0,6376	2871,7	499,65	-0,2001	
45,54	0,6416	2875,0	499,61	-0,2022	
45,56	0,6457	2874,4	499,74	-0,2044	
45,58	0,6498	2876,0	499,85	-0,2065	
45,60	0,6538	2881,2	499,79	-0,2083	
45,62	0,6574	2886,7	499,66	-0,2102	
45,64	0,6612	2890,3	499,68	-0,2121	
45,66	0,6652	2893,7	499,78	-0,2142	
45,68	0,6692	2898,8	499,73	-0,2163	
45,70	0,6731	2902,2	499,65	-0,2183	
45,72	0,6772	2902,1	499,69	-0,2204	
45,74	0,6813	2903,4	499,70	-0,2224	
45,76	0,6852	2908,2	499,64	-0,2244	
45,78	0,6893	2910,5	499,67	-0,2263	
45,80	0,6934	2910,6	499,78	-0,2282	
45,82	0,6975	2914,6	499,78	-0,2302	
45,84	0,7014	2920,9	499,66	-0,2322	
45,86	0,7054	2924,5	499,63	-0,2343	
45,88	0,7095	2925,8	499,71	-0,2364	
45,90	0,7136	2929,1	499,73	-0,2384	
45,92	0,7175	2933,5	499,63	-0,2404	
45,94	0,7215	2935,4	499,60	-0,2423	
45,96	0,7257	2935,2	499,77	-0,2443	
45,98	0,7297	2937,6	499,90	-0,2462	
46,00	0,7337	2942,9	499,83	-0,2482	
46,02	0,7377	2948,1	499,67	-0,2504	
46,04	0,7417	2951,2	499,65	-0,2525	
46,06	0,7458	2954,2	499,71	-0,2545	
46,08	0,7498	2957,9	499,67	-0,2565	
46,10	0,7538	2959,9	499,62	-0,2585	
46,12	0,7579	2959,4	499,72	-0,2605	
46,14	0,7618	2959,8	499,83	-0,2624	
46,16	0,7657	2964,8	499,76	-0,2644	
46,18	0,7695	2970,2	499,63	-0,2665	
46,20	0,7736	2972,0	499,64	-0,2686	
46,22	0,7776	2972,7	499,77	-0,2707	
46,24	0,7815	2975,2	499,80	-0,2727	
46,26	0,7854	2978,6	499,68	-0,2746	
46,28	0,7894	2980,3	499,61	-0,2765	
46,30	0,7935	2981,3	499,72	-0,2785	
46,32	0,7976	2984,1	499,80	-0,2805	
46,34	0,8015	2988,6	499,72	-0,2826	
46,36	0,8055	2992,4	499,61	-0,2847	
46,38	0,8096	2994,1	499,65	-0,2869	
46,40	0,8137	2995,8	499,79	-0,2890	
46,42	0,8177	2998,8	499,79	-0,2910	
46,44	0,8217	3002,2	499,66	-0,2929	
46,46	0,8256	3003,8	499,60	-0,2948	
46,48	0,8298	3004,8	499,71	-0,2969	
46,50	0,8338	3007,1	499,79	-0,2989	
46,52	0,8378	3010,8	499,70	-0,3010	
46,54	0,8417	3013,3	499,59	-0,3032	
46,56	0,8458	3013,5	499,71	-0,3053	
46,58	0,8499	3014,2	499,91	-0,3073	
46,60	0,8538	3017,8	499,89	-0,3092	
46,62	0,8575	3022,0	499,71	-0,3109	
46,64	0,8613	3023,7	499,65	-0,3130	
46,66	0,8653	3024,2	499,73	-0,3152	
46,68	0,8693	3027,0	499,70	-0,3174	
46,70	0,8733	3030,5	499,60	-0,3196	
46,72	0,8774	3031,1	499,65	-0,3216	
46,74	0,8815	3030,9	499,81	-0,3237	
46,76	0,8855	3033,9	499,84	-0,3257	
46,78	0,8895	3039,0	499,70	-0,3277	
46,80	0,8935	3042,1	499,63	-0,3296	
46,82	0,8976	3042,8	499,70	-0,3317	
46,84	0,9016	3044,9	499,73	-0,3339	
46,86	0,9056	3048,6	499,64	-0,3361	
46,88	0,9096	3049,9	499,62	-0,3382	
46,90	0,9137	3048,8	499,76	-0,3403	
46,92	0,9178	3050,8	499,84	-0,3423	
46,94	0,9217	3055,5	499,74	-0,3442	
46,96	0,9256	3059,0	499,61	-0,3462	
46,98	0,9298	3059,8	499,69	-0,3483	
47,00	0,9339	3061,2	499,79	-0,3505	
47,02	0,9378	3064,3	499,73	-0,3526	
47,04	0,9418	3066,8	499,62	-0,3546	
47,06	0,9457	3066,5	499,67	-0,3567	
47,08	0,9496	3067,3	499,79	-0,3588	
47,10	0,9533	3071,6	499,75	-0,3608	
47,12	0,9572	3075,9	499,62	-0,3627	
47,14	0,9613	3076,2	499,64	-0,3648	
47,16	0,9654	3075,1	499,79	-0,3670	
47,18	0,9695	3077,5	499,82	-0,3692	
47,20	0,9734	3082,0	499,69	-0,3713	
47,22	0,9774	3083,7	499,60	-0,3734	
47,24	0,9815	3083,4	499,70	-0,3754	
47,26	0,9856	3085,0	499,81	-0,3774	
47,28	0,9895	3088,6	499,75	-0,3794	
47,30	0,9935	3090,9	499,61	-0,3815	
47,32	0,9975	3091,6	499,64	-0,3837	
47,34	1,002	3092,5	499,78	-0,3859	
47,36	1,006	3095,2	499,82	-0,3881	
47,38	1,010	3099,1	499,69	-0,3901	
47,40	1,014	3101,0	499,61	-0,3921	
47,42	1,018	3101,0	499,72	-0,3942	
47,44	1,022	3102,3	499,82	-0,3963	
47,46	1,026	3105,5	499,73	-0,3983	
47,48	1,030	3107,7	499,61	-0,4006	
47,50	1,034	3107,7	499,67	-0,4028	
47,52	1,038	3108,4	499,81	-0,4050	
47,54	1,042	3111,1	499,81	-0,4070	
47,56	1,046	3113,9	499,67	-0,4090	
47,58	1,050	3114,7	499,61	-0,4110	
47,60	1,054	3114,7	499,72	-0,4131	
47,62	1,057	3116,4	499,81	-0,4153	
47,64	1,061	3119,5	499,73	-0,4174	
47,66	1,065	3122,6	499,61	-0,4195	
47,68	1,069	3123,9	499,67	-0,4217	
47,70	1,074	3124,6	499,79	-0,4238	
47,72	1,077	3127,6	499,74	-0,4258	
47,74	1,081	3130,4	499,61	-0,4277	
47,76	1,085	3130,1	499,65	-0,4299	
47,78	1,090	3130,1	499,83	-0,4321	
47,80	1,094	3133,5	499,88	-0,4344	
47,82	1,098	3136,9	499,74	-0,4365	
47,84	1,102	3138,3	499,62	-0,4385	
47,86	1,106	3139,2	499,67	-0,4407	
47,88	1,110	3141,2	499,77	-0,4428	
47,90	1,114	3143,5	499,71	-0,4448	
47,92	1,118	3144,7	499,60	-0,4469	
47,94	1,122	3144,6	499,66	-0,4491	
47,96	1,126	3144,7	499,83	-0,4514	
47,98	1,130	3147,4	499,85	-0,4535	
48,00	1,134	3150,6	499,71	-0,4555	
48,02	1,138	3152,4	499,64	-0,4575	
48,04	1,142	3153,1	499,71	-0,4596	
48,06	1,145	3155,7	499,70	-0,4617	
48,08	1,149	3159,0	499,61	-0,4638	
48,10	1,153	3158,7	499,64	-0,4661	
48,12	1,157	3156,6	499,80	-0,4683	
48,14	1,161	3158,3	499,85	-0,4705	
48,16	1,165	3162,5	499,73	-0,4726	
48,18	1,169	3166,1	499,62	-0,4747	
48,20	1,173	3167,4	499,70	-0,4768	
48,22	1,178	3168,9	499,75	-0,4789	
48,24	1,182	3172,0	499,66	-0,4811	
48,26	1,185	3173,1	499,59	-0,4833	
48,28	1,190	3170,7	499,73	-0,4856	
48,30	1,194	3170,0	499,89	-0,4877	
48,32	1,198	3173,0	499,85	-0,4899	
48,34	1,202	3176,8	499,67	-0,4919	
48,36	1,206	3178,4	499,60	-0,4939	
48,38	1,210	3178,6	499,74	-0,4961	
48,40	1,214	3180,3	499,84	-0,4984	
48,42	1,218	3183,2	499,75	-0,5006	
48,44	1,222	3185,0	499,63	-0,5029	
48,46	1,226	3184,3	499,68	-0,5051	
48,48	1,230	3185,3	499,73	-0,5072	
48,50	1,234	3188,7	499,66	-0,5093	
48,52	1,238	3190,7	499,60	-0,5113	
48,54	1,242	3189,0	499,73	-0,5135	
48,56	1,246	3187,9	499,87	-0,5158	
48,58	1,250	3190,8	499,83	-0,5180	
48,60	1,253	3194,5	499,67	-0,5203	
48,62	1,257	3196,0	499,67	-0,5225	
48,64	1,261	3197,2	499,76	-0,5247	
48,66	1,265	3199,8	499,71	-0,5268	
48,68	1,269	3201,7	499,61	-0,5288	
48,70	1,274	3200,6	499,67	-0,5310	
48,72	1,278	3199,6	499,81	-0,5333	
48,74	1,282	3202,5	499,80	-0,5356	
48,76	1,286	3206,8	499,66	-0,5378	
48,78	1,290	3208,2	499,62	-0,5400	
48,80	1,294	3207,6	499,73	-0,5422	
48,82	1,298	3208,9	499,76	-0,5443	
48,84	1,302	3211,1	499,65	-0,5463	
48,86	1,306	3211,4	499,60	-0,5485	
48,88	1,310	3210,1	499,73	-0,5509	
48,90	1,314	3211,5	499,82	-0,5532	
48,92	1,318	3215,2	499,73	-0,5554	
48,94	1,322	3217,5	499,61	-0,5575	
48,96	1,326	3216,9	499,68	-0,5597	
48,98	1,330	3217,4	499,81	-0,5619	
49,00	1,333	3220,2	499,78	-0,5640	
49,02	1,337	3223,6	499,65	-0,5661	
49,04	1,341	3223,8	499,65	-0,5684	
49,06	1,345	3223,9	499,72	-0,5707	
49,08	1,349	3226,8	499,67	-0,5730	
49,10	1,353	3229,1	499,60	-0,5753	
49,12	1,357	3227,7	499,69	-0,5775	
49,14	1,362	3226,7	499,83	-0,5797	
49,16	1,366	3229,1	499,80	-0,5818	
49,18	1,369	3233,3	499,65	-0,5840	
49,20	1,373	3234,5	499,64	-0,5863	
49,22	1,378	3233,4	499,75	-0,5886	
49,24	1,382	3235,0	499,73	-0,5909	
49,26	1,385	3237,6	499,61	-0,5931	
49,28	1,389	3237,5	499,62	-0,5953	
49,30	1,394	3236,0	499,79	-0,5974	
49,32	1,398	3237,1	499,88	-0,5995	
49,34	1,402	3240,1	499,76	-0,6017	
49,36	1,406	3241,9	499,63	-0,6040	
49,38	1,410	3241,8	499,69	-0,6063	
49,40	1,414	3243,0	499,77	-0,6086	
49,42	1,418	3246,2	499,69	-0,6108	
49,44	1,421	3247,9	499,59	-0,6131	
49,46	1,425	3246,5	499,69	-0,6153	
49,48	1,429	3246,6	499,83	-0,6175	
49,50	1,433	3249,6	499,78	-0,6197	
49,52	1,437	3252,9	499,64	-0,6219	
49,54	1,441	3252,7	499,65	-0,6242	
49,56	1,445	3252,0	499,76	-0,6264	
49,58	1,449	3254,6	499,74	-0,6287	
49,60	1,453	3257,7	499,62	-0,6309	
49,62	1,457	3257,0	499,65	-0,6331	
49,64	1,461	3255,3	499,80	-0,6353	
49,66	1,465	3257,6	499,81	-0,6376	
49,68	1,469	3260,8	499,68	-0,6398	
49,70	1,473	3260,9	499,64	-0,6422	
49,72	1,478	3260,3	499,72	-0,6446	
49,74	1,482	3262,7	499,70	-0,6469	
49,76	1,486	3265,9	499,61	-0,6492	
49,78	1,490	3264,9	499,66	-0,6514	
49,80	1,494	3263,0	499,81	-0,6536	
49,82	1,498	3265,3	499,82	-0,6558	
49,84	1,502	3269,7	499,68	-0,6580	
49,86	1,506	3271,4	499,65	-0,6603	
49,88	1,510	3270,5	499,74	-0,6627	
49,90	1,514	3272,1	499,72	-0,6650	
49,92	1,518	3274,6	499,61	-0,6672	
49,94	1,522	3273,7	499,64	-0,6694	
49,96	1,525	3271,3	499,79	-0,6716	
49,98	1,529	3273,1	499,82	-0,6739	
50,00	1,533	3276,9	499,69	-0,6761	
50,02	1,537	3278,5	499,62	-0,6784	
50,04	1,541	3278,0	499,71	-0,6809	
50,06	1,545	3279,2	499,77	-0,6833	
50,08	1,549	3282,6	499,67	-0,6856	
50,10	1,553	3283,4	499,60	-0,6879	
50,12	1,557	3281,0	499,73	-0,6901	
50,14	1,562	3280,9	499,87	-0,6923	
50,16	1,566	3283,4	499,81	-0,6945	
50,18	1,569	3285,5	499,66	-0,6968	
50,20	1,574	3285,6	499,64	-0,6993	
50,22	1,578	3285,5	499,72	-0,7017	
50,24	1,582	3287,0	499,71	-0,7040	
50,26	1,586	3288,5	499,61	-0,7061	
50,28	1,590	3287,6	499,65	-0,7084	
50,30	1,594	3286,2	499,81	-0,7107	
50,32	1,598	3288,1	499,86	-0,7130	
50,34	1,602	3292,2	499,73	-0,7154	
50,36	1,606	3294,5	499,64	-0,7177	
50,38	1,610	3294,6	499,69	-0,7201	
50,40	1,614	3295,9	499,71	-0,7225	
50,42	1,618	3297,9	499,64	-0,7248	
50,44	1,621	3297,5	499,64	-0,7271	
50,46	1,625	3295,1	499,78	-0,7294	
50,48	1,629	3296,1	499,83	-0,7317	
50,50	1,633	3299,9	499,71	-0,7340	
50,52	1,637	3302,1	499,63	-0,7365	
50,54	1,641	3302,0	499,72	-0,7390	
50,56	1,645	3303,4	499,76	-0,7413	
50,58	1,649	3306,4	499,65	-0,7436	
50,60	1,653	3306,3	499,61	-0,7459	
50,62	1,658	3302,9	499,75	-0,7482	
50,64	1,662	3303,0	499,82	-0,7506	
50,66	1,666	3306,5	499,70	-0,7530	
50,68	1,670	3308,3	499,62	-0,7554	
50,70	1,674	3306,8	499,73	-0,7578	
50,72	1,678	3307,0	499,80	-0,7602	
50,74	1,682	3310,1	499,69	-0,7625	
50,76	1,686	3311,7	499,61	-0,7648	
50,78	1,690	3310,6	499,71	-0,7670	
50,80	1,694	3311,1	499,79	-0,7694	
50,82	1,698	3313,9	499,70	-0,7718	
50,84	1,702	3315,1	499,61	-0,7742	
50,86	1,706	3314,0	499,71	-0,7767	
50,88	1,710	3314,4	499,79	-0,7791	
50,90	1,714	3317,6	499,71	-0,7815	
50,92	1,718	3320,3	499,62	-0,7838	
50,94	1,721	3319,2	499,68	-0,7861	
50,96	1,725	3318,7	499,77	-0,7885	
50,98	1,729	3320,6	499,70	-0,7910	
51,00	1,733	3322,2	499,59	-0,7933	
51,02	1,737	3321,3	499,67	-0,7957	
51,04	1,741	3320,5	499,85	-0,7982	
51,06	1,746	3322,5	499,87	-0,8006	
51,08	1,749	3325,1	499,70	-0,8028	
51,10	1,753	3326,1	499,63	-0,8052	
51,12	1,758	3326,1	499,74	-0,8076	
51,14	1,762	3327,8	499,78	-0,8100	
51,16	1,766	3330,8	499,66	-0,8125	
51,18	1,770	3330,7	499,63	-0,8149	
51,20	1,774	3328,2	499,72	-0,8174	
51,22	1,778	3328,8	499,75	-0,8198	
51,24	1,782	3331,4	499,65	-0,8221	
51,26	1,786	3332,2	499,59	-0,8244	
51,28	1,790	3330,4	499,76	-0,8269	
51,30	1,794	3330,5	499,92	-0,8293	
51,32	1,798	3333,4	499,86	-0,8317	
51,34	1,801	3335,8	499,68	-0,8341	
51,36	1,805	3336,2	499,62	-0,8366	
51,38	1,809	3336,1	499,72	-0,8391	
51,40	1,813	3337,4	499,76	-0,8414	
51,42	1,817	3339,1	499,65	-0,8437	
51,44	1,821	3339,3	499,61	-0,8461	
51,46	1,825	3338,3	499,76	-0,8486	
51,48	1,829	3338,8	499,87	-0,8511	
51,50	1,833	3340,9	499,78	-0,8536	
51,52	1,837	3343,0	499,64	-0,8560	
51,54	1,841	3343,4	499,70	-0,8584	
51,56	1,846	3344,1	499,81	-0,8608	
51,58	1,850	3347,0	499,74	-0,8631	
51,60	1,853	3348,6	499,62	-0,8655	
51,62	1,858	3346,3	499,65	-0,8679	
51,64	1,862	3344,4	499,78	-0,8704	
51,66	1,866	3345,9	499,80	-0,8730	
51,68	1,870	3348,5	499,67	-0,8755	
51,70	1,874	3349,0	499,61	-0,8778	
51,72	1,878	3348,2	499,72	-0,8802	
51,74	1,882	3349,6	499,75	-0,8825	
51,76	1,886	3352,9	499,64	-0,8849	
51,78	1,890	3353,7	499,61	-0,8874	
51,80	1,894	3351,4	499,76	-0,8899	
51,82	1,898	3351,5	499,86	-0,8925	
51,84	1,902	3354,0	499,77	-0,8950	
51,86	1,905	3356,0	499,65	-0,8975	
51,88	1,909	3355,4	499,71	-0,9000	
51,90	1,913	3356,5	499,79	-0,9024	
51,92	1,917	3360,2	499,70	-0,9048	
51,94	1,921	3360,8	499,65	-0,9071	
51,96	1,925	3357,5	499,72	-0,9096	
51,98	1,929	3357,0	499,71	-0,9121	
52,00	1,933	3359,7	499,62	-0,9146	
52,02	1,937	3358,9	499,67	-0,9171	
52,04	1,942	3356,4	499,79	-0,9196	
52,06	1,946	3358,1	499,77	-0,9219	
52,08	1,950	3362,0	499,63	-0,9242	
52,10	1,954	3363,6	499,63	-0,9267	
52,12	1,958	3362,9	499,77	-0,9293	
52,14	1,962	3363,5	499,83	-0,9319	
52,16	1,966	3365,4	499,70	-0,9344	
52,18	1,970	3366,0	499,63	-0,9369	
52,20	1,974	3365,1	499,74	-0,9394	
52,22	1,978	3366,8	499,79	-0,9419	
52,24	1,982	3370,5	499,68	-0,9442	
52,26	1,986	3371,0	499,66	-0,9466	
52,28	1,990	3368,6	499,74	-0,9492	
52,30	1,994	3369,4	499,72	-0,9517	
52,32	1,997	3372,0	499,61	-0,9543	
52,34	2,001	3371,2	499,64	-0,9568	
52,36	2,005	3368,8	499,78	-0,9594	
52,38	2,009	3370,4	499,80	-0,9618	
52,40	2,013	3374,3	499,68	-0,9642	
52,42	2,017	3375,7	499,63	-0,9667	
52,44	2,021	3374,6	499,72	-0,9693	
52,46	2,025	3375,3	499,73	-0,9718	
52,48	2,029	3377,6	499,63	-0,9742	
52,50	2,033	3377,0	499,62	-0,9768	
52,52	2,038	3374,7	499,78	-0,9794	
52,54	2,042	3375,0	499,88	-0,9819	
52,56	2,046	3377,6	499,79	-0,9843	
52,58	2,050	3379,6	499,65	-0,9866	
52,60	2,054	3378,9	499,71	-0,9891	
52,62	2,058	3379,7	499,78	-0,9917	
52,64	2,062	3382,5	499,69	-0,9942	
52,66	2,066	3383,2	499,62	-0,9967	
52,68	2,070	3380,6	499,70	-0,9992	
52,70	2,074	3380,2	499,75	-1,002	
52,72	2,078	3383,6	499,65	-1,004	
52,74	2,082	3385,4	499,61	-1,007	
52,76	2,086	3383,4	499,73	-1,009	
52,78	2,090	3383,6	499,83	-1,012	
52,80	2,093	3387,0	499,74	-1,014	
52,82	2,097	3389,4	499,65	-1,017	
52,84	2,101	3388,4	499,72	-1,020	
52,86	2,105	3388,1	499,78	-1,022	
52,88	2,109	3390,7	499,68	-1,024	
52,90	2,113	3391,1	499,60	-1,027	
52,92	2,117	3388,3	499,70	-1,029	
52,94	2,122	3387,3	499,83	-1,032	
52,96	2,126	3389,6	499,79	-1,035	
52,98	2,130	3391,7	499,64	-1,037	
53,00	2,134	3390,3	499,63	-1,040	
53,02	2,138	3389,2	499,75	-1,042	
53,04	2,142	3390,8	499,78	-1,045	
53,06	2,146	3392,7	499,67	-1,047	
53,08	2,150	3392,8	499,62	-1,050	
53,10	2,154	3392,4	499,70	-1,052	
53,12	2,158	3394,5	499,73	-1,055	
53,14	2,162	3397,3	499,64	-1,057	
53,16	2,166	3397,0	499,63	-1,060	
53,18	2,170	3394,6	499,77	-1,063	
53,20	2,174	3395,0	499,85	-1,065	
53,22	2,178	3397,6	499,76	-1,068	
53,24	2,182	3399,6	499,65	-1,070	
53,26	2,186	3399,0	499,69	-1,073	
53,28	2,190	3399,2	499,73	-1,075	
53,30	2,194	3401,4	499,65	-1,078	
53,32	2,197	3401,8	499,60	-1,080	
53,34	2,201	3399,1	499,73	-1,083	
53,36	2,206	3398,2	499,86	-1,086	
53,38	2,210	3400,5	499,80	-1,088	
53,40	2,213	3402,9	499,66	-1,091	
53,42	2,217	3403,1	499,70	-1,093	
53,44	2,222	3403,0	499,80	-1,096	
53,46	2,226	3404,6	499,75	-1,098	
53,48	2,230	3406,1	499,65	-1,101	
53,50	2,234	3403,9	499,68	-1,103	
53,52	2,238	3402,4	499,71	-1,106	
53,54	2,242	3405,0	499,64	-1,109	
53,56	2,246	3406,1	499,63	-1,111	
53,58	2,250	3404,2	499,76	-1,114	
53,60	2,254	3404,3	499,85	-1,116	
53,62	2,258	3407,3	499,76	-1,119	
53,64	2,262	3409,5	499,64	-1,122	
53,66	2,266	3408,5	499,70	-1,124	
53,68	2,270	3408,2	499,76	-1,127	
53,70	2,274	3410,7	499,67	-1,129	
53,72	2,277	3411,2	499,60	-1,132	
53,74	2,281	3408,3	499,70	-1,134	
53,76	2,285	3407,3	499,83	-1,137	
53,78	2,289	3409,6	499,78	-1,139	
53,80	2,293	3412,3	499,64	-1,142	
53,82	2,297	3411,2	499,67	-1,145	
53,84	2,302	3409,7	499,77	-1,147	
53,86	2,305	3411,0	499,73	-1,150	
53,88	2,309	3412,7	499,62	-1,152	
53,90	2,314	3411,5	499,67	-1,155	
53,92	2,318	3410,4	499,79	-1,158	
53,94	2,322	3412,6	499,78	-1,160	
53,96	2,326	3415,6	499,66	-1,163	
53,98	2,330	3415,2	499,65	-1,166	
54,00	2,334	3413,9	499,73	-1,168	
54,02	2,338	3415,3	499,69	-1,171	
54,04	2,342	3417,0	499,61	-1,173	
54,06	2,346	3415,2	499,68	-1,176	
54,08	2,350	3413,0	499,83	-1,179	
54,10	2,354	3415,2	499,82	-1,181	
54,12	2,358	3418,7	499,67	-1,184	
54,14	2,362	3419,4	499,64	-1,186	
54,16	2,366	3418,0	499,75	-1,189	
54,18	2,370	3418,6	499,75	-1,192	
54,20	2,374	3420,2	499,63	-1,194	
54,22	2,377	3419,2	499,62	-1,197	
54,24	2,381	3417,0	499,74	-1,199	
54,26	2,386	3417,1	499,79	-1,202	
54,28	2,390	3419,0	499,69	-1,205	
54,30	2,393	3419,6	499,62	-1,207	
54,32	2,397	3418,8	499,71	-1,210	
54,34	2,402	3419,2	499,78	-1,213	
54,36	2,405	3421,4	499,69	-1,215	
54,38	2,409	3422,6	499,62	-1,218	
54,40	2,414	3421,1	499,71	-1,220	
54,42	2,418	3421,2	499,79	-1,223	
54,44	2,422	3424,1	499,72	-1,226	
54,46	2,426	3425,8	499,62	-1,228	
54,48	2,430	3424,5	499,68	-1,231	
54,50	2,434	3424,0	499,77	-1,234	
54,52	2,438	3425,3	499,72	-1,236	
54,54	2,442	3426,5	499,61	-1,239	
54,56	2,446	3425,3	499,66	-1,242	
54,58	2,450	3423,8	499,81	-1,244	
54,60	2,454	3425,7	499,83	-1,247	
54,62	2,458	3428,7	499,69	-1,249	
54,64	2,462	3429,0	499,68	-1,252	
54,66	2,466	3427,1	499,79	-1,255	
54,68	2,470	3427,7	499,80	-1,257	
54,70	2,473	3429,4	499,66	-1,260	
54,72	2,477	3428,9	499,67	-1,262	
54,74	2,481	3426,5	499,81	-1,265	
54,76	2,486	3428,3	499,80	-1,268	
54,78	2,489	3431,9	499,68	-1,271	
54,80	2,493	3431,5	499,69	-1,273	
54,82	2,498	3429,1	499,77	-1,276	
54,84	2,502	3430,9	499,71	-1,279	
54,86	2,506	3433,0	499,64	-1,281	
54,88	2,510	3431,0	499,71	-1,284	
54,90	2,514	3429,4	499,73	-1,287	
54,92	2,518	3432,2	499,64	-1,289	
54,94	2,522	3433,8	499,61	-1,292	
54,96	2,526	3431,6	499,77	-1,295	
54,98	2,530	3431,2	499,87	-1,297	
55,00	2,534	3434,0	499,78	-1,300	
55,02	2,538	3436,3	499,66	-1,302	
55,04	2,542	3435,3	499,71	-1,305	
55,06	2,546	3435,0	499,76	-1,308	
55,08	2,550	3437,8	499,67	-1,311	
55,10	2,554	3438,1	499,64	-1,313	
55,12	2,558	3435,1	499,73	-1,316	
55,14	2,562	3434,6	499,76	-1,319	
55,16	2,565	3437,5	499,65	-1,321	
55,18	2,569	3438,1	499,62	-1,324	
55,20	2,573	3435,5	499,75	-1,327	
55,22	2,577	3435,3	499,82	-1,329	
55,24	2,581	3437,9	499,71	-1,332	
55,26	2,585	3439,3	499,64	-1,335	
55,28	2,590	3437,7	499,73	-1,338	
55,30	2,594	3437,8	499,78	-1,340	
55,32	2,598	3440,9	499,68	-1,343	
55,34	2,602	3441,3	499,65	-1,346	
55,36	2,606	3438,9	499,73	-1,348	
55,38	2,610	3439,6	499,72	-1,351	
55,40	2,614	3442,1	499,61	-1,354	
55,42	2,618	3441,7	499,64	-1,356	
55,44	2,622	3438,8	499,83	-1,359	
55,46	2,626	3439,3	499,88	-1,362	
55,48	2,630	3442,0	499,75	-1,365	
55,50	2,634	3443,1	499,64	-1,367	
55,52	2,638	3442,4	499,71	-1,370	
55,54	2,642	3442,7	499,76	-1,373	
55,56	2,646	3445,0	499,66	-1,375	
55,58	2,650	3444,9	499,62	-1,378	
55,60	2,654	3441,1	499,76	-1,381	
55,62	2,658	3440,5	499,83	-1,384	
55,64	2,662	3443,9	499,73	-1,386	
55,66	2,666	3445,5	499,63	-1,389	
55,68	2,669	3443,1	499,69	-1,392	
55,70	2,673	3442,4	499,78	-1,394	
55,72	2,677	3444,6	499,70	-1,397	
55,74	2,681	3446,1	499,61	-1,400	
55,76	2,686	3444,5	499,71	-1,403	
55,78	2,690	3443,5	499,84	-1,405	
55,80	2,694	3445,8	499,79	-1,408	
55,82	2,698	3449,0	499,66	-1,411	
55,84	2,702	3448,0	499,69	-1,414	
55,86	2,706	3446,7	499,76	-1,417	
55,88	2,710	3448,2	499,70	-1,419	
55,90	2,714	3449,3	499,62	-1,422	
55,92	2,718	3446,8	499,71	-1,425	
55,94	2,722	3445,2	499,82	-1,427	
55,96	2,726	3447,3	499,76	-1,430	
55,98	2,730	3449,5	499,65	-1,433	
56,00	2,734	3448,6	499,71	-1,436	
56,02	2,738	3448,4	499,74	-1,438	
56,04	2,742	3451,1	499,65	-1,441	
56,06	2,746	3451,4	499,62	-1,444	
56,08	2,750	3447,4	499,76	-1,447	
56,10	2,754	3446,1	499,83	-1,449	
56,12	2,758	3449,5	499,71	-1,452	
56,14	2,761	3451,8	499,64	-1,455	
56,16	2,765	3450,3	499,76	-1,458	
56,18	2,769	3450,8	499,83	-1,461	
56,20	2,773	3453,8	499,71	-1,463	
56,22	2,777	3454,1	499,65	-1,466	
56,24	2,782	3451,2	499,74	-1,469	
56,26	2,786	3451,4	499,77	-1,472	
56,28	2,790	3454,7	499,67	-1,474	
56,30	2,794	3454,9	499,66	-1,477	
56,32	2,798	3452,3	499,77	-1,480	
56,34	2,802	3453,1	499,76	-1,483	
56,36	2,806	3455,3	499,64	-1,486	
56,38	2,810	3453,7	499,66	-1,488	
56,40	2,814	3451,2	499,76	-1,491	
56,42	2,818	3452,7	499,72	-1,494	
56,44	2,822	3455,3	499,62	-1,497	
56,46	2,826	3454,3	499,67	-1,500	
56,48	2,830	3452,8	499,80	-1,502	
56,50	2,834	3454,3	499,77	-1,505	
56,52	2,838	3456,4	499,65	-1,508	
56,54	2,842	3455,6	499,68	-1,511	
56,56	2,846	3454,1	499,78	-1,514	
56,58	2,850	3456,0	499,74	-1,516	
56,60	2,854	3458,5	499,63	-1,519	
56,62	2,858	3456,9	499,67	-1,522	
56,64	2,862	3455,1	499,80	-1,525	
56,66	2,866	3456,5	499,81	-1,528	
56,68	2,869	3458,2	499,67	-1,530	
56,70	2,873	3457,2	499,66	-1,533	
56,72	2,878	3456,0	499,77	-1,536	
56,74	2,882	3458,1	499,75	-1,539	
56,76	2,886	3460,5	499,64	-1,542	
56,78	2,890	3459,0	499,67	-1,544	
56,80	2,894	3456,9	499,74	-1,547	
56,82	2,898	3459,1	499,68	-1,550	
56,84	2,902	3460,9	499,60	-1,553	
56,86	2,906	3458,4	499,73	-1,556	
56,88	2,910	3456,3	499,90	-1,559	
56,90	2,914	3457,7	499,87	-1,561	
56,92	2,918	3459,9	499,71	-1,564	
56,94	2,922	3459,8	499,70	-1,567	
56,96	2,926	3459,4	499,77	-1,570	
56,98	2,930	3461,4	499,70	-1,573	
57,00	2,934	3462,4	499,64	-1,575	
57,02	2,938	3459,2	499,72	-1,578	
57,04	2,942	3457,2	499,75	-1,581	
57,06	2,945	3460,1	499,65	-1,584	
57,08	2,949	3461,4	499,62	-1,587	
57,10	2,953	3459,1	499,81	-1,590	
57,12	2,958	3459,0	499,92	-1,592	
57,14	2,961	3461,4	499,81	-1,595	
57,16	2,965	3463,5	499,67	-1,598	
57,18	2,970	3462,9	499,73	-1,601	
57,20	2,974	3462,8	499,81	-1,604	
57,22	2,978	3465,1	499,72	-1,607	
57,24	2,982	3465,1	499,68	-1,610	
57,26	2,986	3461,8	499,74	-1,612	
57,28	2,990	3461,1	499,69	-1,615	
57,30	2,994	3463,9	499,60	-1,618	
57,32	2,998	3462,9	499,67	-1,621	
57,34	3,002	3459,4	499,81	-1,624	
57,36	3,006	3459,8	499,81	-1,627	
57,38	3,010	3462,5	499,67	-1,629	
57,40	3,014	3462,5	499,65	-1,632	
57,42	3,018	3461,0	499,76	-1,635	
57,44	3,022	3461,9	499,78	-1,638	
57,46	3,026	3463,9	499,66	-1,641	
57,48	3,030	3463,0	499,64	-1,644	
57,50	3,034	3461,1	499,75	-1,647	
57,52	3,037	3462,7	499,75	-1,649	
57,54	3,041	3465,8	499,64	-1,652	
57,56	3,045	3464,8	499,66	-1,655	
57,58	3,049	3462,6	499,77	-1,658	
57,60	3,053	3463,6	499,74	-1,661	
57,62	3,057	3466,1	499,63	-1,664	
57,64	3,061	3465,4	499,67	-1,667	
57,66	3,066	3463,1	499,79	-1,670	
57,68	3,070	3463,9	499,77	-1,673	
57,70	3,074	3466,2	499,65	-1,675	
57,72	3,078	3464,8	499,68	-1,678	
57,74	3,082	3462,9	499,76	-1,681	
57,76	3,086	3464,6	499,70	-1,684	
57,78	3,090	3466,3	499,60	-1,687	
57,80	3,094	3464,6	499,68	-1,690	
57,82	3,098	3462,9	499,82	-1,693	
57,84	3,102	3464,5	499,79	-1,696	
57,86	3,106	3466,7	499,66	-1,699	
57,88	3,110	3465,2	499,70	-1,701	
57,90	3,114	3463,7	499,81	-1,704	
57,92	3,118	3466,0	499,76	-1,707	
57,94	3,122	3468,1	499,66	-1,710	
57,96	3,126	3466,4	499,71	-1,713	
57,98	3,130	3465,5	499,74	-1,716	
58,00	3,134	3468,0	499,64	-1,719	
58,02	3,138	3468,4	499,63	-1,722	
58,04	3,142	3464,8	499,76	-1,725	
58,06	3,145	3463,8	499,80	-1,728	
58,08	3,149	3466,7	499,68	-1,730	
58,10	3,153	3468,0	499,63	-1,733	
58,12	3,158	3466,5	499,74	-1,736	
58,14	3,162	3467,1	499,76	-1,739	
58,16	3,166	3469,2	499,65	-1,742	
58,18	3,170	3468,7	499,62	-1,745	
58,20	3,174	3465,8	499,76	-1,748	
58,22	3,178	3466,3	499,83	-1,751	
58,24	3,182	3469,0	499,71	-1,754	
58,26	3,186	3469,7	499,63	-1,757	
58,28	3,190	3467,5	499,71	-1,760	
58,30	3,194	3467,3	499,77	-1,763	
58,32	3,198	3469,2	499,68	-1,766	
58,34	3,202	3469,1	499,61	-1,769	
58,36	3,206	3466,4	499,72	-1,771	
58,38	3,210	3465,7	499,80	-1,774	
58,40	3,214	3467,9	499,71	-1,777	
58,42	3,218	3469,4	499,62	-1,780	
58,44	3,222	3467,8	499,71	-1,783	
58,46	3,226	3467,8	499,78	-1,786	
58,48	3,230	3471,0	499,70	-1,789	
58,50	3,234	3471,8	499,64	-1,792	
58,52	3,237	3469,0	499,71	-1,795	
58,54	3,241	3468,4	499,75	-1,798	
58,56	3,245	3471,2	499,65	-1,801	
58,58	3,249	3471,9	499,62	-1,804	
58,60	3,254	3469,0	499,76	-1,807	
58,62	3,258	3468,1	499,87	-1,810	
58,64	3,262	3470,4	499,79	-1,813	
58,66	3,266	3471,4	499,66	-1,816	
58,68	3,270	3469,8	499,72	-1,819	
58,70	3,274	3469,5	499,78	-1,822	
58,72	3,278	3471,8	499,70	-1,825	
58,74	3,282	3472,0	499,66	-1,828	
58,76	3,286	3469,0	499,74	-1,831	
58,78	3,290	3469,2	499,72	-1,834	
58,80	3,294	3471,6	499,64	-1,837	
58,82	3,298	3470,3	499,69	-1,840	
58,84	3,302	3468,4	499,78	-1,843	
58,86	3,306	3470,4	499,72	-1,846	
58,88	3,310	3472,6	499,61	-1,849	
58,90	3,314	3470,6	499,67	-1,852	
58,92	3,318	3469,0	499,77	-1,855	
58,94	3,322	3471,0	499,72	-1,858	
58,96	3,326	3472,9	499,62	-1,861	
58,98	3,330	3471,1	499,67	-1,864	
59,00	3,334	3469,8	499,76	-1,867	
59,02	3,338	3471,6	499,71	-1,870	
59,04	3,341	3473,0	499,61	-1,873	
59,06	3,345	3470,6	499,68	-1,876	
59,08	3,350	3468,6	499,80	-1,879	
59,10	3,354	3470,1	499,77	-1,881	
59,12	3,357	3472,7	499,64	-1,884	
59,14	3,362	3471,7	499,67	-1,888	
59,16	3,366	3470,3	499,76	-1,891	
59,18	3,370	3472,8	499,71	-1,894	
59,20	3,374	3474,5	499,64	-1,897	
59,22	3,378	3471,4	499,71	-1,900	
59,24	3,382	3469,2	499,77	-1,903	
59,26	3,386	3471,3	499,69	-1,906	
59,28	3,390	3472,9	499,62	-1,909	
59,30	3,394	3470,9	499,72	-1,912	
59,32	3,398	3469,8	499,80	-1,915	
59,34	3,402	3471,8	499,71	-1,918	
59,36	3,406	3473,0	499,64	-1,921	
59,38	3,410	3471,5	499,72	-1,924	
59,40	3,414	3471,2	499,75	-1,927	
59,42	3,417	3473,4	499,66	-1,930	
59,44	3,421	3473,2	499,63	-1,933	
59,46	3,425	3470,8	499,73	-1,936	
59,48	3,429	3471,6	499,73	-1,939	
59,50	3,433	3474,5	499,63	-1,942	
59,52	3,437	3473,9	499,63	-1,945	
59,54	3,442	3471,2	499,77	-1,948	
59,56	3,446	3470,9	499,81	-1,951	
59,58	3,450	3472,8	499,69	-1,954	
59,60	3,454	3473,3	499,66	-1,957	
59,62	3,458	3471,4	499,82	-1,960	
59,64	3,462	3471,4	499,88	-1,963	
59,66	3,466	3473,6	499,74	-1,966	
59,68	3,470	3473,4	499,68	-1,969	
59,70	3,474	3470,5	499,82	-1,972	
59,72	3,478	3470,8	499,85	-1,975	
59,74	3,482	3473,0	499,71	-1,978	
59,76	3,486	3473,1	499,70	-1,981	
59,78	3,490	3470,5	499,86	-1,984	
59,80	3,494	3471,3	499,87	-1,988	
59,82	3,498	3473,9	499,71	-1,990	
59,84	3,502	3473,5	499,69	-1,994	
59,86	3,506	3470,4	499,83	-1,997	
59,88	3,510	3470,8	499,84	-2,000	
59,90	3,514	3473,0	499,70	-2,003	
59,92	3,518	3472,2	499,69	-2,006	
59,94	3,522	3469,6	499,77	-2,009	
59,96	3,525	3471,1	499,71	-2,012	
59,98	3,529	3473,4	499,63	-2,015	
60,00	3,534	3471,0	499,72	-2,018	
60,02	3,538	3468,5	499,80	-2,021	
60,04	3,542	3470,6	499,72	-2,024	
60,06	3,546	3472,4	499,64	-2,027	
60,08	3,550	3470,1	499,71	-2,030	
60,10	3,554	3469,4	499,76	-2,033	
60,12	3,558	3471,7	499,66	-2,036	
60,14	3,562	3472,0	499,63	-2,039	
60,16	3,566	3469,4	499,74	-2,043	
60,18	3,570	3469,1	499,78	-2,046	
60,20	3,574	3471,7	499,68	-2,049	
60,22	3,578	3472,3	499,65	-2,052	
60,24	3,582	3470,8	499,74	-2,055	
60,26	3,586	3471,3	499,76	-2,058	
60,28	3,590	3474,3	499,65	-2,061	
60,30	3,594	3473,4	499,65	-2,064	
60,32	3,598	3470,3	499,77	-2,067	
60,34	3,602	3470,5	499,77	-2,070	
60,36	3,606	3472,8	499,65	-2,074	
60,38	3,610	3472,3	499,66	-2,077	
60,40	3,614	3470,0	499,77	-2,080	
60,42	3,617	3470,5	499,75	-2,083	
60,44	3,621	3472,3	499,65	-2,086	
60,46	3,625	3470,5	499,70	-2,089	
60,48	3,630	3469,0	499,77	-2,092	
60,50	3,634	3471,2	499,70	-2,095	
60,52	3,638	3472,9	499,63	-2,098	
60,54	3,642	3470,6	499,71	-2,101	
60,56	3,646	3469,0	499,77	-2,104	
60,58	3,650	3471,2	499,67	-2,108	
60,60	3,654	3471,8	499,63	-2,111	
60,62	3,658	3468,9	499,75	-2,114	
60,64	3,662	3468,1	499,82	-2,117	
60,66	3,666	3471,1	499,72	-2,120	
60,68	3,670	3472,6	499,66	-2,123	
60,70	3,674	3470,1	499,78	-2,126	
60,72	3,678	3470,0	499,82	-2,129	
60,74	3,682	3472,4	499,69	-2,132	
60,76	3,686	3472,2	499,65	-2,136	
60,78	3,690	3468,7	499,76	-2,139	
60,80	3,694	3468,4	499,77	-2,142	
60,82	3,698	3470,5	499,65	-2,145	
60,84	3,702	3469,4	499,65	-2,148	
60,86	3,706	3466,3	499,78	-2,151	
60,88	3,710	3467,1	499,78	-2,154	
60,90	3,713	3469,5	499,66	-2,157	
60,92	3,717	3468,9	499,66	-2,161	
60,94	3,722	3467,0	499,76	-2,164	
60,96	3,726	3468,1	499,72	-2,167	
60,98	3,730	3469,5	499,63	-2,170	
61,00	3,734	3467,3	499,69	-2,173	
61,02	3,738	3465,3	499,78	-2,176	
61,04	3,742	3467,0	499,72	-2,180	
61,06	3,746	3468,8	499,63	-2,183	
61,08	3,750	3466,5	499,70	-2,186	
61,10	3,754	3465,2	499,76	-2,189	
61,12	3,758	3467,8	499,67	-2,192	
61,14	3,762	3468,6	499,62	-2,195	
61,16	3,766	3466,0	499,74	-2,199	
61,18	3,770	3465,6	499,82	-2,202	
61,20	3,774	3468,2	499,72	-2,205	
61,22	3,778	3469,5	499,63	-2,208	
61,24	3,782	3466,9	499,72	-2,211	
61,26	3,786	3466,7	499,77	-2,215	
61,28	3,790	3469,1	499,67	-2,218	
61,30	3,794	3469,0	499,62	-2,221	
61,32	3,798	3465,0	499,77	-2,224	
61,34	3,802	3463,8	499,89	-2,227	
61,36	3,806	3465,5	499,79	-2,230	
61,38	3,809	3466,6	499,66	-2,234	
61,40	3,814	3464,2	499,75	-2,237	
61,42	3,818	3463,6	499,83	-2,240	
61,44	3,822	3465,5	499,74	-2,243	
61,46	3,826	3466,5	499,67	-2,246	
61,48	3,830	3463,8	499,79	-2,249	
61,50	3,834	3462,8	499,85	-2,253	
61,52	3,838	3465,2	499,71	-2,256	
61,54	3,842	3466,0	499,69	-2,259	
61,56	3,846	3463,3	499,85	-2,262	
61,58	3,850	3463,2	499,86	-2,266	
61,60	3,854	3465,6	499,71	-2,269	
61,62	3,858	3465,5	499,68	-2,272	
61,64	3,862	3462,9	499,81	-2,275	
61,66	3,866	3463,6	499,82	-2,278	
61,68	3,870	3466,1	499,69	-2,281	
61,70	3,874	3465,0	499,75	-2,285	
61,72	3,878	3461,0	499,91	-2,288	
61,74	3,882	3461,5	499,87	-2,291	
61,76	3,886	3463,6	499,70	-2,294	
61,78	3,889	3462,5	499,68	-2,298	
61,80	3,893	3460,1	499,76	-2,301	
61,82	3,897	3461,3	499,71	-2,304	
61,84	3,901	3462,8	499,63	-2,307	
61,86	3,906	3460,6	499,70	-2,310	
61,88	3,910	3458,9	499,77	-2,314	
61,90	3,914	3461,0	499,69	-2,317	
61,92	3,918	3462,4	499,63	-2,320	
61,94	3,922	3460,0	499,72	-2,323	
61,96	3,926	3459,8	499,77	-2,327	
61,98	3,930	3462,1	499,66	-2,330	
62,00	3,934	3462,1	499,62	-2,333	
62,02	3,938	3459,2	499,75	-2,336	
62,04	3,942	3458,8	499,84	-2,340	
62,06	3,946	3461,4	499,73	-2,343	
62,08	3,950	3461,9	499,65	-2,346	
62,10	3,954	3459,2	499,75	-2,349	
62,12	3,958	3459,4	499,78	-2,353	
62,14	3,962	3462,2	499,65	-2,356	
62,16	3,966	3462,0	499,67	-2,359	
62,18	3,970	3458,4	499,83	-2,362	
62,20	3,974	3458,1	499,83	-2,366	
62,22	3,978	3460,3	499,68	-2,369	
62,24	3,982	3459,3	499,68	-2,372	
62,26	3,986	3456,8	499,80	-2,375	
62,28	3,990	3457,6	499,77	-2,379	
62,30	3,993	3459,2	499,65	-2,382	
62,32	3,997	3456,8	499,68	-2,385	
62,34	4,002	3453,6	499,77	-2,388	
62,36	4,006	3455,1	499,72	-2,392	
62,38	4,009	3456,7	499,61	-2,395	
62,40	4,014	3454,2	499,70	-2,398	
62,42	4,018	3452,1	499,83	-2,401	
62,44	4,022	3454,0	499,79	-2,405	
62,46	4,026	3456,2	499,67	-2,408	
62,48	4,030	3454,9	499,73	-2,411	
62,50	4,034	3454,4	499,80	-2,414	
62,52	4,038	3457,4	499,71	-2,418	
62,54	4,042	3458,4	499,66	-2,421	
62,56	4,046	3454,7	499,75	-2,425	
62,58	4,050	3453,4	499,75	-2,428	
62,60	4,054	3456,6	499,64	-2,431	
62,62	4,058	3456,4	499,67	-2,434	
62,64	4,062	3452,8	499,77	-2,438	
62,66	4,066	3453,0	499,73	-2,441	
62,68	4,070	3455,3	499,62	-2,444	
62,70	4,074	3453,5	499,70	-2,448	
62,72	4,078	3450,4	499,88	-2,451	
62,74	4,082	3451,0	499,88	-2,454	
62,76	4,085	3452,6	499,71	-2,458	
62,78	4,089	3450,8	499,67	-2,461	
62,80	4,093	3449,0	499,71	-2,464	
62,82	4,097	3450,9	499,66	-2,467	
62,84	4,101	3451,6	499,63	-2,471	
62,86	4,106	3448,5	499,76	-2,474	
62,88	4,110	3446,9	499,83	-2,477	
62,90	4,114	3449,6	499,72	-2,481	
62,92	4,118	3451,2	499,66	-2,484	
62,94	4,122	3448,7	499,79	-2,487	
62,96	4,126	3448,0	499,83	-2,491	
62,98	4,130	3450,0	499,70	-2,494	
63,00	4,134	3450,0	499,69	-2,497	
63,02	4,138	3446,7	499,83	-2,501	
63,04	4,142	3446,3	499,85	-2,504	
63,06	4,146	3447,8	499,70	-2,508	
63,08	4,150	3446,1	499,72	-2,511	
63,10	4,154	3442,8	499,89	-2,514	
63,12	4,158	3443,5	499,88	-2,518	
63,14	4,162	3445,6	499,71	-2,521	
63,16	4,166	3444,3	499,71	-2,524	
63,18	4,170	3441,1	499,88	-2,528	
63,20	4,174	3441,8	499,87	-2,531	
63,22	4,177	3443,7	499,71	-2,534	
63,24	4,181	3442,4	499,70	-2,538	
63,26	4,185	3439,4	499,82	-2,541	
63,28	4,189	3440,1	499,78	-2,544	
63,30	4,193	3442,6	499,67	-2,548	
63,32	4,197	3441,2	499,80	-2,551	
63,34	4,201	3438,6	499,96	-2,555	
63,36	4,205	3439,6	499,89	-2,558	
63,38	4,209	3440,9	499,70	-2,561	
63,40	4,213	3438,5	499,70	-2,565	
63,42	4,218	3436,6	499,79	-2,568	
63,44	4,222	3438,1	499,74	-2,571	
63,46	4,226	3439,6	499,66	-2,575	
63,48	4,230	3437,0	499,79	-2,578	
63,50	4,234	3435,3	499,89	-2,582	
63,52	4,238	3437,4	499,77	-2,585	
63,54	4,242	3439,3	499,69	-2,588	
63,56	4,246	3436,4	499,85	-2,592	
63,58	4,250	3434,4	499,93	-2,595	
63,60	4,254	3435,4	499,80	-2,599	
63,62	4,258	3436,3	499,67	-2,602	
63,64	4,262	3433,8	499,75	-2,605	
63,66	4,266	3432,1	499,82	-2,609	
63,68	4,270	3433,9	499,71	-2,612	
63,70	4,274	3434,0	499,69	-2,616	
63,72	4,278	3430,8	499,82	-2,619	
63,74	4,282	3430,4	499,83	-2,622	
63,76	4,285	3433,0	499,69	-2,626	
63,78	4,289	3432,2	499,72	-2,629	
63,80	4,293	3429,5	499,84	-2,633	
63,82	4,297	3430,9	499,79	-2,636	
63,84	4,301	3433,3	499,68	-2,640	
63,86	4,305	3431,3	499,79	-2,643	
63,88	4,310	3429,2	499,88	-2,647	
63,90	4,314	3430,7	499,77	-2,650	
63,92	4,317	3431,5	499,68	-2,653	
63,94	4,322	3427,8	499,80	-2,657	
63,96	4,326	3426,4	499,84	-2,660	
63,98	4,330	3429,0	499,70	-2,664	
64,00	4,334	3429,6	499,67	-2,667	
64,02	4,338	3426,5	499,79	-2,671	
64,04	4,342	3426,2	499,80	-2,674	
64,06	4,346	3428,4	499,66	-2,677	
64,08	4,350	3426,8	499,67	-2,681	
64,10	4,354	3423,0	499,80	-2,684	
64,12	4,358	3423,5	499,78	-2,688	
64,14	4,361	3425,9	499,65	-2,691	
64,16	4,365	3424,7	499,69	-2,695	
64,18	4,369	3422,2	499,79	-2,698	
64,20	4,373	3423,2	499,73	-2,702	
64,22	4,377	3424,4	499,64	-2,705	
64,24	4,381	3421,8	499,69	-2,708	
64,26	4,385	3420,1	499,75	-2,712	
64,28	4,389	3421,7	499,66	-2,715	
64,30	4,393	3422,1	499,62	-2,719	
64,32	4,398	3419,7	499,76	-2,722	
64,34	4,402	3418,9	499,85	-2,726	
64,36	4,405	3421,1	499,73	-2,729	
64,38	4,409	3421,8	499,68	-2,733	
64,40	4,414	3418,7	499,92	-2,736	
64,42	4,418	3417,5	500,04	-2,740	
64,44	4,422	3418,7	499,89	-2,743	
64,46	4,426	3419,1	499,70	-2,747	
64,48	4,430	3416,7	499,69	-2,750	
64,50	4,434	3415,4	499,73	-2,754	
64,52	4,438	3416,1	499,65	-2,757	
64,54	4,442	3415,4	499,63	-2,761	
64,56	4,446	3412,0	499,82	-2,764	
64,58	4,450	3411,1	499,90	-2,768	
64,60	4,454	3414,1	499,76	-2,771	
64,62	4,458	3415,1	499,67	-2,774	
64,64	4,462	3412,6	499,72	-2,778	
64,66	4,466	3412,9	499,70	-2,782	
64,68	4,470	3414,5	499,61	-2,785	
64,70	4,474	3412,8	499,67	-2,789	
64,72	4,477	3409,0	499,87	-2,792	
64,74	4,481	3409,1	499,91	-2,795	
64,76	4,485	3411,5	499,75	-2,799	
64,78	4,489	3411,2	499,67	-2,802	
64,80	4,494	3408,5	499,79	-2,806	
64,82	4,498	3409,0	499,83	-2,810	
64,84	4,501	3410,9	499,70	-2,813	
64,86	4,506	3409,9	499,72	-2,817	
64,88	4,510	3406,5	499,89	-2,820	
64,90	4,514	3406,7	499,90	-2,824	
64,92	4,518	3408,0	499,72	-2,827	
64,94	4,522	3406,7	499,65	-2,831	
64,96	4,526	3403,2	499,73	-2,834	
64,98	4,530	3403,4	499,71	-2,838	
65,00	4,534	3404,7	499,62	-2,841	
65,02	4,538	3402,5	499,68	-2,845	
65,04	4,542	3399,0	499,84	-2,848	
65,06	4,546	3399,7	499,82	-2,852	
65,08	4,550	3402,3	499,68	-2,855	
65,10	4,554	3401,4	499,72	-2,859	
65,12	4,557	3399,7	499,84	-2,863	
65,14	4,561	3400,8	499,79	-2,866	
65,16	4,565	3402,5	499,67	-2,870	
65,18	4,569	3399,5	499,80	-2,873	
65,20	4,573	3396,7	499,93	-2,877	
65,22	4,577	3397,8	499,83	-2,880	
65,24	4,581	3399,3	499,68	-2,884	
65,26	4,585	3397,0	499,74	-2,887	
65,28	4,590	3395,1	499,82	-2,891	
65,30	4,594	3396,2	499,72	-2,895	
65,32	4,597	3396,4	499,70	-2,898	
65,34	4,602	3392,8	499,95	-2,902	
65,36	4,606	3390,8	500,07	-2,905	
65,38	4,610	3391,7	499,94	-2,909	
65,40	4,614	3392,7	499,73	-2,912	
65,42	4,618	3390,9	499,65	-2,916	
65,44	4,622	3389,1	499,71	-2,919	
65,46	4,626	3389,1	499,70	-2,923	
65,48	4,630	3389,4	499,62	-2,927	
65,50	4,634	3387,6	499,68	-2,930	
65,52	4,638	3385,3	499,85	-2,934	
65,54	4,642	3386,2	499,87	-2,937	
65,56	4,646	3388,6	499,72	-2,941	
65,58	4,649	3388,7	499,70	-2,944	
65,60	4,653	3387,2	499,81	-2,948	
65,62	4,657	3387,8	499,78	-2,952	
65,64	4,661	3388,5	499,66	-2,955	
65,66	4,665	3385,2	499,77	-2,959	
65,68	4,669	3381,7	499,91	-2,962	
65,70	4,673	3382,8	499,84	-2,966	
65,72	4,677	3384,8	499,68	-2,970	
65,74	4,681	3382,1	499,78	-2,973	
65,76	4,686	3379,7	499,94	-2,977	
65,78	4,690	3380,6	499,88	-2,980	
65,80	4,693	3381,1	499,71	-2,984	
65,82	4,698	3378,3	499,71	-2,987	
65,84	4,702	3376,2	499,78	-2,991	
65,86	4,706	3377,9	499,70	-2,995	
65,88	4,710	3378,9	499,65	-2,998	
65,90	4,714	3375,9	499,76	-3,002	
65,92	4,718	3374,2	499,79	-3,006	
65,94	4,722	3376,2	499,67	-3,009	
65,96	4,726	3375,8	499,68	-3,013	
65,98	4,730	3372,6	499,80	-3,017	
66,00	4,734	3373,2	499,77	-3,020	
66,02	4,738	3375,6	499,65	-3,024	
66,04	4,742	3374,4	499,70	-3,027	
66,06	4,746	3371,9	499,78	-3,031	
66,08	4,750	3372,8	499,71	-3,035	
66,10	4,753	3373,0	499,65	-3,038	
66,12	4,757	3369,5	499,74	-3,042	
66,14	4,761	3367,8	499,76	-3,046	
66,16	4,765	3370,2	499,66	-3,049	
66,18	4,769	3370,5	499,63	-3,053	
66,20	4,773	3367,7	499,73	-3,056	
66,22	4,777	3366,8	499,76	-3,060	
66,24	4,781	3368,4	499,66	-3,064	
66,26	4,785	3367,6	499,63	-3,067	
66,28	4,790	3364,3	499,75	-3,071	
66,30	4,794	3363,4	499,80	-3,075	
66,32	4,798	3365,2	499,70	-3,078	
66,34	4,802	3364,9	499,66	-3,082	
66,36	4,806	3362,1	499,73	-3,086	
66,38	4,810	3361,8	499,69	-3,089	
66,40	4,814	3363,1	499,61	-3,093	
66,42	4,818	3360,3	499,72	-3,097	
66,44	4,822	3356,5	499,90	-3,100	
66,46	4,826	3356,9	499,89	-3,104	
66,48	4,830	3358,9	499,70	-3,108	
66,50	4,834	3358,7	499,70	-3,111	
66,52	4,838	3356,9	499,86	-3,115	
66,54	4,842	3357,4	499,87	-3,119	
66,56	4,846	3358,8	499,71	-3,122	
66,58	4,849	3357,2	499,73	-3,126	
66,60	4,853	3353,2	499,90	-3,130	
66,62	4,857	3353,1	499,88	-3,133	
66,64	4,861	3354,4	499,71	-3,137	
66,66	4,865	3352,4	499,67	-3,141	
66,68	4,870	3348,8	499,77	-3,144	
66,70	4,874	3349,4	499,74	-3,148	
66,72	4,877	3350,6	499,65	-3,152	
66,74	4,882	3347,9	499,72	-3,155	
66,76	4,886	3345,5	499,78	-3,159	
66,78	4,890	3347,0	499,69	-3,163	
66,80	4,894	3347,4	499,68	-3,166	
66,82	4,898	3344,1	499,78	-3,170	
66,84	4,902	3343,2	499,75	-3,174	
66,86	4,906	3345,6	499,64	-3,178	
66,88	4,910	3344,3	499,70	-3,181	
66,90	4,914	3341,8	499,79	-3,185	
66,92	4,918	3343,2	499,71	-3,188	
66,94	4,922	3344,2	499,63	-3,189	
66,96	4,926	3340,6	499,75	-3,191	
66,98	4,930	3338,0	499,83	-3,195	
67,00	4,934	3339,7	499,72	-3,198	
67,02	4,938	3339,9	499,66	-3,202	
67,04	4,942	3336,3	499,77	-3,206	
67,06	4,946	3335,5	499,81	-3,209	
67,08	4,949	3337,0	499,68	-3,213	
67,10	4,953	3335,5	499,70	-3,217	
67,12	4,957	3331,1	499,90	-3,221	
67,14	4,961	3330,1	499,93	-3,224	
67,16	4,965	3331,7	499,77	-3,230	
67,18	4,969	3332,1	499,71	-3,236	
67,20	4,974	3329,2	499,84	-3,241	
67,22	4,978	3328,0	499,85	-3,245	
67,24	4,982	3329,0	499,70	-3,248	
67,26	4,986	3327,9	499,73	-3,252	
67,28	4,990	3323,6	499,90	-3,256	
67,30	4,994	3323,1	499,89	-3,259	
67,32	4,998	3325,1	499,72	-3,263	
67,34	5,002	3324,5	499,74	-3,267	
67,36	5,006	3320,9	499,92	-3,271	
67,38	5,010	3320,4	499,92	-3,274	
67,40	5,014	3321,7	499,75	-3,278	
67,42	5,018	3320,3	499,69	-3,282	
67,44	5,022	3316,9	499,75	-3,285	
67,46	5,026	3317,1	499,69	-3,289	
67,48	5,029	3318,2	499,64	-3,293	
67,50	5,033	3315,6	499,71	-3,297	
67,52	5,037	3314,2	499,72	-3,300	
67,54	5,041	3316,2	499,63	-3,304	
67,56	5,045	3315,6	499,65	-3,308	
67,58	5,049	3311,9	499,79	-3,312	
67,60	5,053	3311,0	499,82	-3,315	
67,62	5,057	3312,7	499,69	-3,319	
67,64	5,061	3311,8	499,69	-3,323	
67,66	5,066	3308,9	499,80	-3,327	
67,68	5,070	3309,1	499,79	-3,330	
67,70	5,073	3310,6	499,67	-3,334	
67,72	5,078	3308,0	499,77	-3,338	
67,74	5,082	3304,1	499,95	-3,341	
67,76	5,086	3303,8	499,90	-3,345	
67,78	5,090	3305,1	499,73	-3,349	
67,80	5,094	3302,8	499,72	-3,353	
67,82	5,098	3300,0	499,76	-3,356	
67,84	5,102	3300,9	499,68	-3,360	
67,86	5,106	3300,9	499,65	-3,364	
67,88	5,110	3297,9	499,76	-3,368	
67,90	5,114	3296,9	499,78	-3,372	
67,92	5,118	3299,5	499,66	-3,375	
67,94	5,122	3298,9	499,66	-3,379	
67,96	5,126	3295,2	499,78	-3,383	
67,98	5,130	3294,7	499,78	-3,387	
68,00	5,133	3296,1	499,66	-3,390	
68,02	5,137	3294,3	499,70	-3,394	
68,04	5,141	3291,5	499,81	-3,398	
68,06	5,145	3291,9	499,76	-3,402	
68,08	5,149	3292,8	499,65	-3,405	
68,10	5,153	3289,7	499,73	-3,409	
68,12	5,158	3286,7	499,81	-3,413	
68,14	5,161	3287,6	499,72	-3,417	
68,16	5,165	3287,7	499,67	-3,420	
68,18	5,170	3284,1	499,81	-3,424	
68,20	5,174	3282,6	499,86	-3,428	
68,22	5,178	3284,5	499,73	-3,432	
68,24	5,182	3284,2	499,71	-3,435	
68,26	5,186	3280,2	499,85	-3,439	
68,28	5,190	3279,5	499,86	-3,443	
68,30	5,194	3281,6	499,71	-3,447	
68,32	5,198	3280,9	499,75	-3,451	
68,34	5,202	3276,7	499,92	-3,455	
68,36	5,206	3276,1	499,91	-3,458	
68,38	5,210	3277,2	499,73	-3,462	
68,40	5,214	3275,4	499,68	-3,466	
68,42	5,218	3271,9	499,79	-3,470	
68,44	5,222	3272,1	499,77	-3,474	
68,46	5,225	3273,3	499,65	-3,477	
68,48	5,229	3270,9	499,78	-3,481	
68,50	5,233	3267,4	499,96	-3,485	
68,52	5,237	3267,7	499,92	-3,489	
68,54	5,241	3269,3	499,74	-3,492	
68,56	5,245	3267,6	499,71	-3,496	
68,58	5,249	3264,7	499,79	-3,500	
68,60	5,253	3264,5	499,74	-3,504	
68,62	5,257	3265,2	499,65	-3,507	
68,64	5,261	3262,5	499,80	-3,511	
68,66	5,266	3259,2	499,91	-3,515	
68,68	5,270	3259,8	499,80	-3,519	
68,70	5,273	3261,5	499,68	-3,523	
68,72	5,278	3258,8	499,82	-3,527	
68,74	5,282	3256,5	499,92	-3,531	
68,76	5,286	3257,1	499,81	-3,534	
68,78	5,290	3256,9	499,68	-3,538	
68,80	5,294	3253,3	499,78	-3,542	
68,82	5,298	3251,4	499,85	-3,546	
68,84	5,302	3252,7	499,74	-3,550	
68,86	5,306	3252,5	499,69	-3,553	
68,88	5,310	3249,0	499,88	-3,557	
68,90	5,314	3247,9	499,95	-3,561	
68,92	5,318	3249,1	499,81	-3,565	
68,94	5,321	3248,4	499,68	-3,569	
68,96	5,325	3244,4	499,75	-3,573	
68,98	5,329	3243,1	499,78	-3,577	
69,00	5,333	3244,5	499,68	-3,580	
69,02	5,337	3242,6	499,70	-3,584	
69,04	5,341	3238,5	499,80	-3,588	
69,06	5,345	3238,4	499,75	-3,592	
69,08	5,349	3239,7	499,66	-3,596	
69,10	5,353	3236,8	499,73	-3,599	
69,12	5,358	3234,0	499,78	-3,603	
69,14	5,361	3235,0	499,68	-3,607	
69,16	5,366	3234,9	499,64	-3,611	
69,18	5,370	3231,6	499,74	-3,615	
69,20	5,374	3230,4	499,78	-3,619	
69,22	5,378	3231,6	499,67	-3,623	
69,24	5,382	3230,9	499,67	-3,626	
69,26	5,386	3227,8	499,80	-3,630	
69,28	5,390	3227,0	499,80	-3,634	
69,30	5,394	3228,3	499,67	-3,638	
69,32	5,398	3226,6	499,72	-3,642	
69,34	5,402	3222,9	499,83	-3,646	
69,36	5,406	3222,9	499,77	-3,650	
69,38	5,410	3224,0	499,67	-3,654	
69,40	5,414	3221,0	499,83	-3,657	
69,42	5,418	3217,7	499,98	-3,661	
69,44	5,421	3217,2	499,89	-3,665	
69,46	5,425	3217,1	499,70	-3,669	
69,48	5,429	3214,1	499,71	-3,673	
69,50	5,433	3211,0	499,81	-3,677	
69,52	5,437	3211,0	499,74	-3,680	
69,54	5,441	3211,4	499,66	-3,684	
69,56	5,445	3208,4	499,78	-3,688	
69,58	5,450	3206,7	499,85	-3,692	
69,60	5,453	3208,2	499,74	-3,696	
69,62	5,457	3208,5	499,68	-3,700	
69,64	5,462	3204,7	499,81	-3,704	
69,66	5,466	3203,1	499,85	-3,707	
69,68	5,470	3204,3	499,72	-3,711	
69,70	5,474	3203,9	499,71	-3,715	
69,72	5,478	3199,5	499,91	-3,719	
69,74	5,482	3197,9	499,97	-3,723	
69,76	5,486	3198,6	499,81	-3,727	
69,78	5,490	3197,5	499,69	-3,731	
69,80	5,494	3193,1	499,75	-3,735	
69,82	5,498	3191,9	499,76	-3,739	
69,84	5,501	3192,6	499,66	-3,742	
69,86	5,505	3190,3	499,74	-3,746	
69,88	5,509	3186,7	499,89	-3,750	
69,90	5,513	3186,3	499,85	-3,754	
69,92	5,517	3187,6	499,68	-3,758	
69,94	5,521	3185,5	499,71	-3,762	
69,96	5,525	3182,1	499,84	-3,766	
69,98	5,529	3182,2	499,81	-3,770	
70,00	5,533	3183,0	499,67	-3,773	
70,02	5,537	3180,3	499,78	-3,777	
70,04	5,542	3177,2	499,94	-3,781	
70,06	5,546	3177,0	499,89	-3,785	
70,08	5,549	3177,2	499,71	-3,789	
70,10	5,553	3174,9	499,67	-3,793	
70,12	5,558	3171,4	499,77	-3,797	
70,14	5,562	3170,7	499,73	-3,801	
70,16	5,566	3171,3	499,64	-3,805	
70,18	5,570	3168,7	499,72	-3,809	
70,20	5,574	3165,3	499,80	-3,813	
70,22	5,578	3166,0	499,71	-3,816	
70,24	5,582	3166,5	499,66	-3,820	
70,26	5,586	3163,1	499,75	-3,824	
70,28	5,590	3161,1	499,76	-3,828	
70,30	5,594	3161,7	499,66	-3,832	
70,32	5,598	3159,0	499,70	-3,836	
70,34	5,602	3155,3	499,75	-3,840	
70,36	5,605	3155,8	499,67	-3,844	
70,38	5,609	3155,8	499,62	-3,848	
70,40	5,614	3151,3	499,74	-3,852	
70,42	5,618	3147,5	499,85	-3,855	
70,44	5,621	3148,3	499,77	-3,859	
70,46	5,625	3149,1	499,64	-3,863	
70,48	5,629	3146,0	499,72	-3,867	
70,50	5,634	3143,2	499,86	-3,871	
70,52	5,638	3143,1	499,81	-3,875	
70,54	5,641	3143,0	499,69	-3,879	
70,56	5,646	3139,4	499,85	-3,883	
70,58	5,650	3136,1	500,03	-3,887	
70,60	5,654	3136,2	499,97	-3,891	
70,62	5,658	3135,9	499,76	-3,895	
70,64	5,662	3132,4	499,70	-3,899	
70,66	5,666	3129,0	499,73	-3,903	
70,68	5,670	3129,4	499,66	-3,907	
70,70	5,674	3128,2	499,62	-3,910	
70,72	5,678	3124,0	499,75	-3,914	
70,74	5,682	3122,1	499,82	-3,918	
70,76	5,686	3123,3	499,71	-3,922	
70,78	5,690	3123,2	499,64	-3,926	
70,80	5,693	3119,5	499,78	-3,930	
70,82	5,697	3118,2	499,86	-3,934	
70,84	5,701	3119,0	499,74	-3,938	
70,86	5,705	3117,5	499,69	-3,942	
70,88	5,709	3112,3	499,87	-3,946	
70,90	5,713	3110,7	499,96	-3,950	
70,92	5,717	3111,9	499,83	-3,954	
70,94	5,721	3111,0	499,68	-3,958	
70,96	5,725	3106,8	499,74	-3,961	
70,98	5,730	3105,2	499,79	-3,966	
71,00	5,733	3106,0	499,69	-3,969	
71,02	5,737	3104,3	499,71	-3,973	
71,04	5,742	3100,2	499,87	-3,977	
71,06	5,746	3098,6	499,88	-3,981	
71,08	5,750	3099,8	499,72	-3,985	
71,10	5,754	3098,2	499,70	-3,989	
71,12	5,758	3094,0	499,82	-3,993	
71,14	5,762	3092,6	499,80	-3,997	
71,16	5,766	3093,0	499,67	-4,001	
71,18	5,770	3090,1	499,74	-4,005	
71,20	5,774	3086,1	499,89	-4,009	
71,22	5,778	3085,4	499,86	-4,013	
71,24	5,782	3085,6	499,70	-4,017	
71,26	5,786	3083,0	499,73	-4,021	
71,28	5,790	3079,8	499,87	-4,025	
71,30	5,793	3079,3	499,83	-4,029	
71,32	5,797	3079,2	499,70	-4,033	
71,34	5,801	3076,2	499,80	-4,037	
71,36	5,805	3073,2	499,94	-4,041	
71,38	5,809	3072,8	499,86	-4,045	
71,40	5,813	3072,5	499,69	-4,048	
71,42	5,817	3069,3	499,71	-4,052	
71,44	5,822	3065,6	499,81	-4,056	
71,46	5,826	3065,6	499,75	-4,060	
71,48	5,829	3065,4	499,67	-4,064	
71,50	5,834	3061,0	499,83	-4,068	
71,52	5,838	3057,6	499,94	-4,072	
71,54	5,842	3058,3	499,83	-4,076	
71,56	5,846	3058,6	499,67	-4,080	
71,58	5,850	3055,2	499,73	-4,084	
71,60	5,854	3052,4	499,84	-4,088	
71,62	5,858	3051,9	499,77	-4,092	
71,64	5,862	3051,4	499,67	-4,096	
71,66	5,866	3047,4	499,77	-4,100	
71,68	5,870	3044,2	499,86	-4,104	
71,70	5,874	3044,6	499,77	-4,108	
71,72	5,878	3043,6	499,70	-4,112	
71,74	5,882	3038,4	499,85	-4,116	
71,76	5,886	3035,3	499,89	-4,120	
71,78	5,890	3036,0	499,75	-4,124	
71,80	5,893	3034,6	499,67	-4,128	
71,82	5,897	3030,3	499,77	-4,132	
71,84	5,901	3029,0	499,79	-4,136	
71,86	5,905	3029,9	499,68	-4,140	
71,88	5,909	3027,8	499,73	-4,143	
71,90	5,914	3023,4	499,86	-4,148	
71,92	5,918	3022,2	499,83	-4,152	
71,94	5,921	3023,3	499,67	-4,156	
71,96	5,926	3020,6	499,72	-4,160	
71,98	5,930	3016,5	499,86	-4,164	
72,00	5,934	3015,8	499,82	-4,168	
72,02	5,938	3016,1	499,68	-4,172	
72,04	5,942	3012,8	499,77	-4,176	
72,06	5,946	3008,7	499,90	-4,180	
72,08	5,950	3008,3	499,82	-4,184	
72,10	5,954	3008,3	499,69	-4,187	
72,12	5,958	3004,1	499,81	-4,191	
72,14	5,962	2999,8	499,93	-4,195	
72,16	5,966	2999,1	499,82	-4,199	
72,18	5,970	2998,5	499,67	-4,203	
72,20	5,974	2994,8	499,73	-4,207	
72,22	5,977	2991,4	499,81	-4,211	
72,24	5,981	2992,0	499,73	-4,215	
72,26	5,985	2991,5	499,67	-4,219	
72,28	5,989	2987,3	499,75	-4,223	
72,30	5,993	2984,9	499,75	-4,227	
72,32	5,997	2985,7	499,65	-4,231	
72,34	6,001	2983,3	499,72	-4,235	
72,36	6,005	2979,1	499,83	-4,239	
72,38	6,009	2978,3	499,77	-4,243	
72,40	6,013	2978,7	499,67	-4,247	
72,42	6,017	2974,4	499,83	-4,251	
72,44	6,022	2969,8	499,97	-4,255	
72,46	6,026	2968,8	499,88	-4,259	
72,48	6,029	2968,3	499,70	-4,263	
72,50	6,034	2964,0	499,72	-4,267	
72,52	6,038	2959,6	499,79	-4,271	
72,54	6,042	2959,1	499,72	-4,275	
72,56	6,046	2958,7	499,66	-4,279	
72,58	6,050	2954,2	499,83	-4,283	
72,60	6,054	2951,3	499,91	-4,287	
72,62	6,058	2951,9	499,78	-4,291	
72,64	6,062	2950,5	499,69	-4,295	
72,66	6,066	2944,9	499,79	-4,299	
72,68	6,070	2942,1	499,80	-4,303	
72,70	6,074	2942,6	499,68	-4,307	
72,72	6,078	2939,7	499,80	-4,311	
72,74	6,082	2934,2	500,01	-4,315	
72,76	6,086	2932,6	499,98	-4,320	
72,78	6,089	2932,6	499,76	-4,324	
72,80	6,093	2929,4	499,69	-4,328	
72,82	6,097	2924,3	499,79	-4,332	
72,84	6,101	2922,5	499,77	-4,336	
72,86	6,105	2922,2	499,66	-4,340	
72,88	6,110	2918,1	499,80	-4,344	
72,90	6,114	2913,7	499,95	-4,348	
72,92	6,118	2913,0	499,86	-4,352	
72,94	6,121	2912,6	499,71	-4,356	
72,96	6,126	2908,4	499,80	-4,360	
72,98	6,130	2905,0	499,91	-4,364	
73,00	6,134	2904,1	499,81	-4,368	
73,02	6,138	2902,2	499,68	-4,372	
73,04	6,142	2897,0	499,82	-4,376	
73,06	6,146	2893,0	499,93	-4,380	
73,08	6,150	2892,5	499,83	-4,384	
73,10	6,154	2892,1	499,69	-4,388	
73,12	6,158	2888,0	499,79	-4,392	
73,14	6,162	2884,6	499,87	-4,396	
73,16	6,166	2884,2	499,75	-4,400	
73,18	6,169	2882,5	499,71	-4,404	
73,20	6,173	2877,1	499,90	-4,408	
73,22	6,177	2874,0	499,96	-4,412	
73,24	6,181	2873,8	499,80	-4,416	
73,26	6,185	2871,5	499,69	-4,420	
73,28	6,189	2866,1	499,78	-4,425	
73,30	6,193	2863,9	499,79	-4,429	
73,32	6,197	2864,5	499,67	-4,433	
73,34	6,201	2861,7	499,71	-4,437	
73,36	6,206	2856,4	499,86	-4,441	
73,38	6,210	2854,3	499,81	-4,445	
73,40	6,213	2853,8	499,68	-4,449	
73,42	6,218	2849,5	499,80	-4,453	
73,44	6,222	2843,8	499,94	-4,457	
73,46	6,226	2841,6	499,86	-4,461	
73,48	6,230	2840,7	499,68	-4,465	
73,50	6,234	2836,2	499,71	-4,469	
73,52	6,238	2831,1	499,81	-4,473	
73,54	6,242	2830,0	499,75	-4,477	
73,56	6,246	2828,5	499,67	-4,481	
73,58	6,250	2823,2	499,74	-4,485	
73,60	6,254	2819,5	499,77	-4,489	
73,62	6,258	2820,3	499,66	-4,493	
73,64	6,261	2818,5	499,73	-4,497	
73,66	6,265	2813,0	499,95	-4,502	
73,68	6,269	2810,6	499,97	-4,506	
73,70	6,273	2809,8	499,79	-4,510	
73,72	6,277	2806,6	499,69	-4,514	
73,74	6,281	2800,9	499,79	-4,518	
73,76	6,285	2797,9	499,81	-4,522	
73,78	6,289	2796,6	499,68	-4,526	
73,80	6,293	2793,2	499,72	-4,530	
73,82	6,298	2787,6	499,92	-4,534	
73,84	6,302	2784,6	499,94	-4,538	
73,86	6,306	2783,9	499,77	-4,542	
73,88	6,310	2781,7	499,68	-4,546	
73,90	6,314	2776,5	499,76	-4,550	
73,92	6,318	2773,9	499,76	-4,554	
73,94	6,322	2773,0	499,65	-4,558	
73,96	6,326	2768,8	499,70	-4,562	
73,98	6,330	2762,4	499,82	-4,567	
74,00	6,334	2760,2	499,78	-4,571	
74,02	6,338	2760,2	499,66	-4,575	
74,04	6,342	2756,7	499,70	-4,579	
74,06	6,346	2752,2	499,76	-4,583	
74,08	6,350	2751,1	499,68	-4,587	
74,10	6,354	2748,2	499,65	-4,591	
74,12	6,358	2741,8	499,74	-4,595	
74,14	6,362	2738,0	499,74	-4,599	
74,16	6,365	2736,9	499,64	-4,603	
74,18	6,369	2733,3	499,65	-4,608	
74,20	6,373	2727,8	499,79	-4,612	
74,22	6,377	2725,0	499,81	-4,616	
74,24	6,381	2724,1	499,67	-4,620	
74,26	6,385	2720,9	499,66	-4,624	
74,28	6,390	2715,4	499,79	-4,628	
74,30	6,394	2712,6	499,81	-4,632	
74,32	6,398	2711,2	499,68	-4,636	
74,34	6,402	2706,9	499,67	-4,640	
74,36	6,406	2701,2	499,78	-4,645	
74,38	6,410	2698,1	499,76	-4,649	
74,40	6,414	2696,1	499,66	-4,653	
74,42	6,418	2691,0	499,71	-4,657	
74,44	6,422	2685,4	499,78	-4,661	
74,46	6,426	2683,8	499,70	-4,665	
74,48	6,430	2681,8	499,66	-4,669	
74,50	6,434	2675,4	499,78	-4,673	
74,52	6,438	2671,1	499,83	-4,678	
74,54	6,442	2669,9	499,71	-4,682	
74,56	6,446	2667,4	499,70	-4,686	
74,58	6,450	2660,8	499,94	-4,690	
74,60	6,454	2656,7	500,02	-4,694	
74,62	6,458	2654,4	499,86	-4,698	
74,64	6,461	2650,7	499,70	-4,703	
74,66	6,465	2644,5	499,73	-4,707	
74,68	6,469	2640,0	499,74	-4,711	
74,70	6,473	2637,5	499,66	-4,715	
74,72	6,477	2632,0	499,71	-4,719	
74,74	6,482	2624,9	499,82	-4,723	
74,76	6,486	2621,2	499,76	-4,727	
74,78	6,489	2619,9	499,65	-4,732	
74,80	6,494	2614,9	499,77	-4,736	
74,82	6,498	2608,8	499,88	-4,740	
74,84	6,502	2605,8	499,78	-4,744	
74,86	6,506	2602,3	499,68	-4,748	
74,88	6,510	2594,9	499,82	-4,752	
74,90	6,514	2589,5	499,91	-4,757	
74,92	6,518	2587,1	499,79	-4,761	
74,94	6,522	2584,2	499,68	-4,765	
74,96	6,526	2577,7	499,78	-4,769	
74,98	6,530	2572,1	499,84	-4,774	
75,00	6,534	2569,5	499,73	-4,778	
75,02	6,538	2565,5	499,69	-4,782	
75,04	6,542	2558,1	499,86	-4,786	
75,06	6,546	2553,4	499,90	-4,790	
75,08	6,550	2550,7	499,75	-4,795	
75,10	6,554	2545,9	499,67	-4,799	
75,12	6,558	2538,1	499,79	-4,803	
75,14	6,562	2532,9	499,82	-4,807	
75,16	6,565	2530,1	499,70	-4,812	
75,18	6,569	2524,7	499,72	-4,816	
75,20	6,573	2516,3	499,86	-4,820	
75,22	6,578	2511,6	499,85	-4,824	
75,24	6,581	2508,3	499,69	-4,828	
75,26	6,586	2501,9	499,71	-4,833	
75,28	6,590	2494,1	499,89	-4,837	
75,30	6,594	2489,3	499,88	-4,841	
75,32	6,598	2486,0	499,72	-4,846	
75,34	6,602	2480,5	499,71	-4,850	
75,36	6,606	2472,4	499,85	-4,854	
75,38	6,610	2467,3	499,84	-4,858	
75,40	6,614	2464,1	499,69	-4,863	
75,42	6,618	2457,9	499,73	-4,867	
75,44	6,622	2449,1	499,91	-4,871	
75,46	6,626	2442,9	499,91	-4,876	
75,48	6,630	2438,3	499,74	-4,880	
75,50	6,634	2431,2	499,71	-4,884	
75,52	6,638	2422,3	499,80	-4,889	
75,54	6,641	2416,9	499,76	-4,893	
75,56	6,645	2413,5	499,67	-4,897	
75,58	6,649	2405,8	499,77	-4,902	
75,60	6,653	2397,2	499,86	-4,906	
75,62	6,657	2392,2	499,76	-4,910	
75,64	6,661	2387,5	499,70	-4,915	
75,66	6,665	2378,4	499,89	-4,919	
75,68	6,669	2369,7	500,00	-4,924	
75,70	6,673	2363,4	499,88	-4,928	
75,72	6,677	2356,7	499,70	-4,933	
75,74	6,681	2347,6	499,69	-4,937	
75,76	6,686	2339,5	499,74	-4,942	
75,78	6,690	2333,8	499,67	-4,946	
75,80	6,694	2327,2	499,61	-4,950	
75,82	6,698	2316,7	499,73	-4,955	
75,84	6,702	2306,7	499,85	-4,959	
75,86	6,706	2300,1	499,78	-4,964	
75,88	6,710	2294,6	499,67	-4,968	
75,90	6,714	2285,7	499,84	-4,973	
75,92	6,718	2276,4	500,03	-4,977	
75,94	6,722	2269,2	499,96	-4,982	
75,96	6,726	2261,4	499,76	-4,986	
75,98	6,730	2250,9	499,70	-4,991	
76,00	6,734	2240,2	499,75	-4,995	
76,02	6,738	2232,4	499,69	-5,000	
76,04	6,741	2224,1	499,62	-5,005	
76,06	6,745	2212,6	499,72	-5,009	
76,08	6,749	2200,9	499,83	-5,014	
76,10	6,753	2192,2	499,77	-5,019	
76,12	6,757	2183,6	499,66	-5,023	
76,14	6,761	2171,7	499,72	-5,028	
76,16	6,765	2160,6	499,79	-5,033	
76,18	6,769	2151,6	499,70	-5,037	
76,20	6,773	2140,7	499,68	-5,042	
76,22	6,778	2126,7	499,80	-5,047	
76,24	6,782	2114,6	499,81	-5,052	
76,26	6,786	2105,1	499,68	-5,056	
76,28	6,790	2092,9	499,77	-5,061	
76,30	6,794	2077,6	499,97	-5,066	
76,32	6,798	2065,0	499,96	-5,071	
76,34	6,802	2053,0	499,77	-5,076	
76,36	6,806	2038,5	499,67	-5,081	
76,38	6,810	2022,1	499,74	-5,086	
76,40	6,814	2007,7	499,74	-5,091	
76,42	6,818	1994,9	499,65	-5,096	
76,44	6,822	1979,3	499,67	-5,101	
76,46	6,826	1961,3	499,76	-5,106	
76,48	6,830	1945,2	499,73	-5,111	
76,50	6,834	1930,5	499,63	-5,116	
76,52	6,837	1910,9	499,69	-5,122	
76,54	6,841	1889,3	499,81	-5,127	
76,56	6,845	1870,5	499,77	-5,133	
76,58	6,849	1851,1	499,66	-5,139	
76,60	6,853	1826,0	499,72	-5,146	
76,62	6,857	1797,6	499,82	-5,153	
76,64	6,861	1768,4	499,76	-5,160	
76,66	6,865	1735,3	499,68	-5,166	
76,68	6,869	1696,2	499,78	-5,173	
76,70	6,874	1656,6	499,86	-5,179	
76,72	6,877	1620,6	499,76	-5,185	
76,74	6,881	1586,9	499,69	-5,191	
76,76	6,885	1552,1	499,85	-5,197	
76,78	6,890	1521,4	499,92	-5,202	
76,80	6,894	1497,1	499,80	-5,207	
76,82	6,898	1475,2	499,68	-5,212	
76,84	6,902	1451,9	499,78	-5,218	
76,86	6,906	1430,5	499,87	-5,223	
76,88	6,910	1412,2	499,78	-5,229	
76,90	6,914	1394,8	499,67	-5,234	
76,92	6,918	1374,0	499,82	-5,239	
76,94	6,922	1353,3	499,94	-5,245	
76,96	6,926	1334,7	499,85	-5,250	
76,98	6,929	1317,0	499,68	-5,255	
77,00	6,933	1297,2	499,69	-5,260	
77,02	6,937	1277,2	499,78	-5,265	
77,04	6,941	1260,9	499,73	-5,270	
77,06	6,945	1246,0	499,66	-5,275	
77,08	6,949	1228,3	499,74	-5,280	
77,10	6,953	1211,0	499,79	-5,285	
77,12	6,957	1197,9	499,70	-5,290	
77,14	6,961	1183,4	499,69	-5,295	
77,16	6,965	1165,8	499,81	-5,300	
77,18	6,969	1150,8	499,81	-5,305	
77,20	6,973	1137,9	499,69	-5,310	
77,22	6,977	1122,5	499,77	-5,315	
77,24	6,982	1105,0	500,01	-5,320	
77,26	6,986	1090,2	500,03	-5,325	
77,28	6,990	1076,4	499,86	-5,330	
77,30	6,994	1062,4	499,69	-5,334	
77,32	6,998	1047,6	499,71	-5,339	
77,34	7,002	1034,8	499,73	-5,344	
77,36	7,006	1024,2	499,65	-5,349	
77,38	7,010	1012,0	499,66	-5,354	
77,40	7,014	997,60	499,75	-5,359	
77,42	7,018	984,98	499,72	-5,364	
77,44	7,022	974,09	499,63	-5,369	
77,46	7,026	960,18	499,70	-5,374	
77,48	7,030	944,70	499,83	-5,379	
77,50	7,033	931,25	499,79	-5,384	
77,52	7,037	919,67	499,67	-5,388	
77,54	7,041	904,99	499,75	-5,393	
77,56	7,045	889,98	499,88	-5,398	
77,58	7,049	878,04	499,81	-5,403	
77,60	7,053	868,08	499,69	-5,407	
77,62	7,057	855,47	499,83	-5,412	
77,64	7,061	841,69	499,98	-5,418	
77,66	7,065	830,34	499,90	-5,422	
77,68	7,069	820,34	499,71	-5,426	
77,70	7,073	808,40	499,70	-5,431	
77,72	7,078	795,32	499,82	-5,436	
77,74	7,082	785,05	499,79	-5,441	
77,76	7,086	776,94	499,61	-5,445	
77,78	7,090	768,77	499,37	-5,449	
77,80	7,094	762,11	499,13	-5,453	
77,82	7,098	758,55	498,89	-5,457	
77,84	7,102	756,05	498,63	-5,462	
77,86	7,106	753,73	498,37	-5,466	
77,88	7,110	751,51	498,12	-5,470	
77,90	7,113	749,06	497,88	-5,475	
77,92	7,117	746,00	497,65	-5,479	
77,94	7,121	742,14	497,41	-5,483	
77,96	7,125	737,84	497,18	-5,488	
77,98	7,129	732,68	496,95	-5,492	
78,00	7,133	727,15	496,72	-5,497	
78,02	7,137	721,93	496,48	-5,502	
78,04	7,141	716,13	496,24	-5,506	
78,06	7,145	710,37	496,01	-5,511	
78,08	7,149	705,16	495,77	-5,515	
78,10	7,153	699,37	495,53	-5,520	
78,12	7,157	692,93	495,29	-5,524	
78,14	7,161	686,21	495,06	-5,529	
78,16	7,165	679,46	494,82	-5,534	
78,18	7,170	673,43	494,59	-5,538	
78,20	7,174	668,06	494,36	-5,542	
78,22	7,178	660,98	494,12	-5,545	
78,24	7,181	653,00	493,88	-5,548	
78,26	7,185	644,33	493,65	-5,549	
78,28	7,187	634,76	493,42	-5,550	
78,30	7,188	624,31	493,18	-5,551	
78,32	7,189	614,26	492,92	-5,552	
78,34	7,189	606,06	492,67	-5,552	
78,36	7,189	599,04	492,44	-5,552	
78,38	7,189	593,04	492,20	-5,553	
78,40	7,189	588,55	491,95	-5,553	
78,42	7,189	585,07	491,70	-5,553	
78,44	7,189	582,50	491,46	-5,554	
78,46	7,189	580,47	491,21	-5,554	
78,48	7,189	579,37	490,96	-5,554	
78,50	7,189	577,92	490,70	-5,555	
78,52	7,189	576,62	490,45	-5,555	
78,54	7,189	576,11	490,19	-5,555	
78,56	7,189	575,87	489,92	-5,555	
78,58	7,189	574,57	489,65	-5,555	
78,60	7,189	573,18	489,39	-5,556	
78,62	7,189	572,64	489,13	-5,556	
78,64	7,189	572,58	488,87	-5,556	
78,66	7,189	572,52	488,60	-5,556	
78,68	7,189	572,52	488,33	-5,556	
78,70	7,189	572,56	488,07	-5,557	
78,72	7,189	572,57	487,81	-5,557	
78,74	7,189	572,55	487,54	-5,557	
78,76	7,189	572,54	487,26	-5,557	
78,78	7,189	572,53	486,99	-5,557	
78,80	7,189	572,56	486,73	-5,558	
78,82	7,189	572,56	486,46	-5,558	
78,84	7,189	572,52	486,19	-5,558	
78,86	7,189	572,52	485,91	-5,558	
78,88	7,189	572,52	485,65	-5,558	
78,90	7,189	572,49	485,39	-5,558	
78,92	7,189	572,53	485,11	-5,559	
78,94	7,189	572,58	484,83	-5,559	
78,96	7,189	572,56	484,55	-5,559	
78,98	7,189	572,60	484,29	-5,559	
79,00	7,189	572,67	484,02	-5,559	
79,02	7,189	572,69	483,76	-5,559	
79,04	7,189	572,68	483,49	-5,559	
79,06	7,189	572,60	483,22	-5,560	
79,08	7,189	572,57	482,95	-5,560	
79,10	7,189	572,62	482,68	-5,560	
79,12	7,189	572,76	482,40	-5,560	
79,14	7,189	574,04	482,12	-5,560	
79,16	7,189	575,41	481,83	-5,560	
79,18	7,189	575,89	481,55	-5,561	
79,20	7,189	575,93	481,28	-5,561	
79,22	7,189	575,96	481,01	-5,561	
79,24	7,189	575,95	480,74	-5,561	
79,26	7,189	575,91	480,47	-5,561	
79,28	7,189	576,06	480,20	-5,561	
79,30	7,189	577,37	479,93	-5,562	
79,32	7,189	578,73	479,66	-5,562	
79,34	7,189	579,20	479,39	-5,562	
79,36	7,189	579,24	479,10	-5,562	
79,38	7,189	579,21	478,82	-5,562	
79,40	7,189	579,23	478,56	-5,562	
79,42	7,189	579,27	478,29	-5,563	
79,44	7,189	579,26	478,03	-5,563	
79,46	7,189	579,22	477,76	-5,563	
79,48	7,189	579,25	477,49	-5,563	
79,50	7,189	579,35	477,23	-5,563	
79,52	7,189	579,40	476,96	-5,563	
79,54	7,189	579,33	476,70	-5,564	
79,56	7,189	579,27	476,41	-5,564	
79,58	7,189	579,27	476,12	-5,564	
79,60	7,189	579,95	475,85	-5,564	
79,62	7,189	581,46	475,58	-5,564	
79,64	7,189	582,39	475,32	-5,564	
79,66	7,189	582,56	475,05	-5,564	
79,68	7,189	582,54	474,79	-5,565	
79,70	7,189	582,51	474,51	-5,565	
79,72	7,189	582,55	474,22	-5,565	
79,74	7,189	582,57	473,93	-5,565	
79,76	7,189	582,57	473,63	-5,565	
79,78	7,189	582,55	473,34	-5,565	
79,80	7,189	582,60	473,07	-5,566	
79,82	7,189	582,67	472,80	-5,566	
79,84	7,189	582,67	472,52	-5,566	
79,86	7,189	582,65	472,24	-5,566	
79,88	7,189	582,68	471,96	-5,566	
79,90	7,189	582,66	471,67	-5,566	
79,92	7,189	582,61	471,39	-5,566	
79,94	7,189	582,57	471,11	-5,567	
79,96	7,189	582,59	470,81	-5,567	
79,98	7,189	582,62	470,53	-5,567	
80,00	7,189	583,30	470,25	-5,567	
80,02	7,189	584,84	469,97	-5,567	
80,04	7,189	585,84	469,69	-5,567	
80,06	7,189	586,02	469,41	-5,567	
80,08	7,189	585,91	469,14	-5,567	
80,10	7,189	585,86	468,86	-5,568	
80,12	7,189	585,91	468,58	-5,568	
80,14	7,189	585,95	468,31	-5,568	
80,16	7,189	585,93	468,04	-5,568	
80,18	7,189	585,97	467,76	-5,568	
80,20	7,189	586,04	467,48	-5,568	
80,22	7,189	586,06	467,21	-5,568	
80,24	7,189	586,06	466,92	-5,569	
80,26	7,189	586,07	466,63	-5,569	
80,28	7,189	586,71	466,33	-5,569	
80,30	7,189	588,12	466,04	-5,569	
80,32	7,189	589,00	465,77	-5,569	
80,34	7,189	589,25	465,49	-5,570	
80,36	7,189	589,30	465,21	-5,570	
80,38	7,189	589,31	464,93	-5,570	
80,40	7,189	589,37	464,65	-5,570	
80,42	7,189	589,43	464,35	-5,570	
80,44	7,189	589,40	464,07	-5,570	
80,46	7,189	589,33	463,79	-5,570	
80,48	7,189	589,32	463,53	-5,570	
80,50	7,189	589,29	463,25	-5,570	
80,52	7,189	589,22	463,00	-5,571	
80,54	7,189	589,17	462,74	-5,571	
80,56	7,189	589,18	462,48	-5,571	
80,58	7,189	589,21	462,23	-5,571	
80,60	7,189	589,20	461,96	-5,571	
80,62	7,189	589,23	461,69	-5,571	
80,64	7,189	589,24	461,42	-5,572	
80,66	7,189	589,25	461,15	-5,572	
80,68	7,189	589,25	460,90	-5,572	
80,70	7,189	589,23	460,64	-5,572	
80,72	7,189	589,36	460,35	-5,572	
80,74	7,189	590,60	460,06	-5,572	
80,76	7,189	591,96	459,78	-5,572	
80,78	7,189	592,54	459,50	-5,572	
80,80	7,189	592,63	459,23	-5,572	
80,82	7,189	592,66	458,96	-5,573	
80,84	7,189	592,64	458,68	-5,573	
80,86	7,189	592,68	458,42	-5,573	
80,88	7,189	592,75	458,16	-5,573	
80,90	7,189	592,79	457,89	-5,573	
80,92	7,189	592,78	457,61	-5,574	
80,94	7,189	592,76	457,34	-5,574	
80,96	7,189	592,70	457,06	-5,574	
80,98	7,189	592,61	456,79	-5,574	
81,00	7,189	592,59	456,51	-5,574	
81,02	7,189	592,60	456,22	-5,574	
81,04	7,189	592,64	455,95	-5,574	
81,06	7,189	592,66	455,68	-5,575	
81,08	7,189	592,68	455,42	-5,575	
81,10	7,189	592,78	455,14	-5,575	
81,12	7,189	592,75	454,88	-5,575	
81,14	7,189	592,66	454,62	-5,575	
81,16	7,189	592,72	454,35	-5,575	
81,18	7,189	592,81	454,08	-5,575	
81,20	7,189	592,99	453,81	-5,575	
81,22	7,189	594,24	453,56	-5,576	
81,24	7,189	595,60	453,30	-5,576	
81,26	7,189	596,14	453,04	-5,576	
81,28	7,189	596,19	452,79	-5,576	
81,30	7,189	596,20	452,51	-5,576	
81,32	7,189	596,18	452,23	-5,576	
81,34	7,189	596,12	451,96	-5,576	
81,36	7,189	596,09	451,70	-5,577	
81,38	7,189	596,09	451,43	-5,577	
81,40	7,189	596,09	451,15	-5,577	
81,42	7,189	596,04	450,87	-5,577	
81,44	7,189	596,04	450,61	-5,577	
81,46	7,189	596,12	450,35	-5,577	
81,48	7,189	596,15	450,09	-5,577	
81,50	7,189	596,10	449,83	-5,578	
81,52	7,189	596,00	449,57	-5,578	
81,54	7,189	595,99	449,30	-5,578	
81,56	7,189	596,04	449,04	-5,578	
81,58	7,189	596,05	448,78	-5,578	
81,60	7,189	596,01	448,52	-5,578	
81,62	7,189	596,01	448,24	-5,578	
81,64	7,189	596,07	447,98	-5,578	
81,66	7,189	596,10	447,73	-5,579	
81,68	7,189	596,03	447,48	-5,579	
81,70	7,189	595,99	447,22	-5,579	
81,72	7,189	595,95	446,95	-5,579	
81,74	7,189	595,98	446,69	-5,579	
81,76	7,189	596,00	446,44	-5,579	
81,78	7,189	596,01	446,18	-5,579	
81,80	7,189	596,01	445,93	-5,580	
81,82	7,189	596,01	445,68	-5,580	
81,84	7,189	596,07	445,43	-5,580	
81,86	7,189	596,12	445,18	-5,580	
81,88	7,189	596,15	444,93	-5,580	
81,90	7,189	596,15	444,68	-5,580	
81,92	7,189	596,10	444,43	-5,580	
81,94	7,189	596,10	444,21	-5,581	
81,96	7,189	596,11	443,96	-5,581	
81,98	7,189	596,09	443,71	-5,581	
82,00	7,189	596,06	443,46	-5,581	
82,02	7,189	596,02	443,23	-5,581	
82,04	7,189	596,00	442,99	-5,581	
82,06	7,189	596,47	442,74	-5,581	
82,08	7,189	597,33	442,46	-5,581	
82,10	7,189	598,44	442,19	-5,582	
82,12	7,189	599,10	441,93	-5,582	
82,14	7,189	599,21	441,67	-5,582	
82,16	7,189	599,19	441,40	-5,582	
82,18	7,189	599,23	441,14	-5,582	
82,20	7,189	599,32	440,89	-5,582	
82,22	7,189	599,39	440,63	-5,582	
82,24	7,189	599,33	440,37	-5,582	
82,26	7,189	599,25	440,10	-5,583	
82,28	7,189	599,22	439,83	-5,583	
82,30	7,189	599,26	439,58	-5,583	
82,32	7,189	599,25	439,33	-5,583	
82,34	7,189	599,22	439,09	-5,583	
82,36	7,189	599,19	438,85	-5,583	
82,38	7,189	599,20	438,61	-5,584	
82,40	7,189	599,23	438,36	-5,584	
82,42	7,189	599,32	438,11	-5,584	
82,44	7,189	599,37	437,86	-5,584	
82,46	7,189	599,36	437,61	-5,584	
82,48	7,189	599,34	437,37	-5,584	
82,50	7,189	599,32	437,14	-5,584	
82,52	7,189	599,32	436,92	-5,585	
82,54	7,189	599,27	436,69	-5,585	
82,56	7,189	599,23	436,45	-5,585	
82,58	7,189	599,17	436,20	-5,585	
82,60	7,189	599,13	435,97	-5,585	
82,62	7,189	599,13	435,73	-5,585	
82,64	7,189	599,16	435,49	-5,585	
82,66	7,189	599,23	435,24	-5,585	
82,68	7,189	599,26	435,00	-5,585	
82,70	7,189	599,24	434,76	-5,586	
82,72	7,189	599,22	434,53	-5,586	
82,74	7,189	599,24	434,28	-5,586	
82,76	7,189	599,27	434,03	-5,586	
82,78	7,189	599,28	433,80	-5,586	
82,80	7,189	599,25	433,58	-5,586	
82,82	7,189	599,23	433,34	-5,586	
82,84	7,189	599,23	433,09	-5,586	
82,86	7,189	599,29	432,83	-5,587	
82,88	7,189	599,33	432,58	-5,587	
82,90	7,189	599,32	432,32	-5,587	
82,92	7,189	599,27	432,06	-5,587	
82,94	7,189	599,21	431,81	-5,587	
82,96	7,189	599,22	431,57	-5,587	
82,98	7,189	599,27	431,32	-5,587	
83,00	7,189	599,28	431,09	-5,588	
83,02	7,189	599,30	430,84	-5,588	
83,04	7,189	599,36	430,60	-5,588	
83,06	7,189	599,38	430,37	-5,588	
83,08	7,189	599,36	430,13	-5,588	
83,10	7,189	599,33	429,90	-5,588	
83,12	7,189	599,28	429,66	-5,588	
83,14	7,189	599,30	429,43	-5,589	
83,16	7,189	599,33	429,21	-5,589	
83,18	7,189	599,27	428,99	-5,589	
83,20	7,189	599,24	428,77	-5,590	
83,22	7,189	599,27	428,53	-5,590	
83,24	7,189	599,28	428,29	-5,590	
83,26	7,189	599,26	428,08	-5,591	
83,28	7,189	599,25	427,84	-5,591	
83,30	7,189	599,28	427,61	-5,591	
83,32	7,189	599,30	427,38	-5,591	
83,34	7,189	599,30	427,14	-5,592	
83,36	7,189	599,27	426,90	-5,592	
83,38	7,189	599,29	426,66	-5,592	
83,40	7,189	599,30	426,42	-5,592	
83,42	7,189	599,27	426,18	-5,592	
83,44	7,189	599,28	425,96	-5,592	
83,46	7,189	599,33	425,74	-5,592	
83,48	7,189	599,31	425,52	-5,591	
83,50	7,189	599,25	425,30	-5,591	
83,52	7,189	599,30	425,06	-5,591	
83,54	7,189	599,33	424,82	-5,591	
83,56	7,189	599,32	424,60	-5,591	
83,58	7,189	599,33	424,37	-5,591	
83,60	7,189	599,34	424,12	-5,591	
83,62	7,189	599,34	423,88	-5,591	
83,64	7,189	599,32	423,65	-5,592	
83,66	7,189	599,33	423,41	-5,592	
83,68	7,189	599,33	423,18	-5,592	
83,70	7,189	599,29	422,96	-5,593	
83,72	7,189	599,23	422,72	-5,593	
83,74	7,189	599,27	422,48	-5,593	
83,76	7,189	599,35	422,25	-5,593	
83,78	7,189	599,39	422,01	-5,594	
83,80	7,189	599,97	421,77	-5,594	
83,82	7,189	601,47	421,53	-5,594	
83,84	7,189	602,51	421,29	-5,595	
83,86	7,189	602,80	421,05	-5,595	
83,88	7,189	602,76	420,80	-5,596	
83,90	7,189	602,67	420,55	-5,596	
83,92	7,189	602,67	420,31	-5,597	
83,94	7,189	602,73	420,08	-5,598	
83,96	7,189	602,70	419,84	-5,598	
83,98	7,189	602,69	419,61	-5,598	
84,00	7,189	602,71	419,39	-5,599	
84,02	7,189	602,73	419,16	-5,599	
84,04	7,189	602,74	418,94	-5,599	
84,06	7,189	602,77	418,71	-5,599	
84,08	7,189	602,84	418,47	-5,599	
84,10	7,189	602,85	418,23	-5,599	
84,12	7,189	602,79	417,99	-5,599	
84,14	7,189	602,73	417,76	-5,598	
84,16	7,189	602,63	417,55	-5,598	
84,18	7,189	602,57	417,33	-5,598	
84,20	7,189	602,61	417,09	-5,597	
84,22	7,189	602,70	416,87	-5,597	
84,24	7,189	602,74	416,65	-5,597	
84,26	7,189	602,68	416,43	-5,597	
84,28	7,189	602,62	416,21	-5,597	
84,30	7,189	602,63	415,98	-5,597	
84,32	7,189	602,70	415,76	-5,598	