Zeit  1 - Standardmessrate [s]	ZwickWeg [mm]	ZwickKraft [N]	Pyrometer [°C]	Maytec [mm]
0	-0,3343	162,83	150,06	0,01029	
0,02000	-0,3343	162,74	150,06	0,01037	
0,04000	-0,3343	162,73	150,06	0,01055	
0,06000	-0,3343	162,75	150,06	0,01061	
0,08000	-0,3343	162,76	150,06	0,01061	
0,1000	-0,3343	162,71	150,06	0,01056	
0,1200	-0,3343	162,75	150,06	0,01043	
0,1400	-0,3343	162,78	150,06	0,01029	
0,1600	-0,3343	162,76	150,06	0,01030	
0,1800	-0,3343	162,69	150,06	0,01041	
0,2000	-0,3343	162,62	150,06	0,01051	
0,2200	-0,3343	162,62	150,05	0,01057	
0,2400	-0,3343	162,65	150,06	0,01059	
0,2600	-0,3343	162,64	150,06	0,01052	
0,2800	-0,3343	162,60	150,05	0,01037	
0,3000	-0,3343	162,57	150,05	0,01030	
0,3200	-0,3343	162,62	150,06	0,01035	
0,3400	-0,3343	162,66	150,06	0,01050	
0,3600	-0,3343	162,72	150,05	0,01062	
0,3800	-0,3343	162,76	150,06	0,01062	
0,4000	-0,3343	162,75	150,06	0,01057	
0,4200	-0,3343	162,73	150,06	0,01056	
0,4400	-0,3343	162,69	150,06	0,01047	
0,4600	-0,3343	162,69	150,06	0,01035	
0,4800	-0,3343	162,65	150,06	0,01044	
0,5000	-0,3343	162,63	150,06	0,01062	
0,5200	-0,3343	162,68	150,06	0,01068	
0,5400	-0,3343	162,69	150,06	0,01067	
0,5600	-0,3343	162,74	150,06	0,01057	
0,5800	-0,3343	162,83	150,06	0,01053	
0,6000	-0,3343	162,83	150,06	0,01055	
0,6200	-0,3343	162,70	150,06	0,01056	
0,6400	-0,3343	162,65	150,06	0,01058	
0,6600	-0,3343	162,68	150,06	0,01065	
0,6800	-0,3343	162,71	150,06	0,01068	
0,7000	-0,3343	162,72	150,07	0,01064	
0,7200	-0,3343	162,71	150,06	0,01045	
0,7400	-0,3343	162,68	150,06	0,01035	
0,7600	-0,3343	162,65	150,06	0,01034	
0,7800	-0,3343	162,71	150,07	0,01041	
0,8000	-0,3343	162,75	150,06	0,01054	
0,8200	-0,3343	162,70	150,06	0,01060	
0,8400	-0,3343	162,62	150,06	0,01053	
0,8600	-0,3343	162,61	150,06	0,01040	
0,8800	-0,3343	162,64	150,06	0,01036	
0,9000	-0,3343	162,60	150,06	0,01044	
0,9200	-0,3343	162,55	150,06	0,01054	
0,9400	-0,3343	162,59	150,06	0,01062	
0,9600	-0,3343	162,59	150,06	0,01065	
0,9800	-0,3343	162,55	150,06	0,01067	
1,000	-0,3343	162,60	150,06	0,01053	
1,020	-0,3343	162,62	150,06	0,01041	
1,040	-0,3343	162,68	150,06	0,01040	
1,060	-0,3343	162,70	150,06	0,01045	
1,080	-0,3343	162,66	150,06	0,01056	
1,100	-0,3343	162,65	150,06	0,01062	
1,120	-0,3343	162,68	150,06	0,01067	
1,140	-0,3343	162,72	150,06	0,01061	
1,160	-0,3343	162,70	150,06	0,01044	
1,180	-0,3343	162,73	150,06	0,01033	
1,200	-0,3343	162,80	150,06	0,01040	
1,220	-0,3343	162,86	150,06	0,01054	
1,240	-0,3343	162,86	150,06	0,01063	
1,260	-0,3343	162,83	150,06	0,01067	
1,280	-0,3343	162,83	150,06	0,01061	
1,300	-0,3343	162,85	150,06	0,01048	
1,320	-0,3343	162,86	150,06	0,01036	
1,340	-0,3344	162,80	150,06	0,01036	
1,360	-0,3344	162,72	150,06	0,01052	
1,380	-0,3343	162,71	150,06	0,01067	
1,400	-0,3343	162,69	150,06	0,01068	
1,420	-0,3343	162,66	150,06	0,01064	
1,440	-0,3343	162,38	150,07	0,01050	
1,460	-0,3343	161,89	150,06	0,01036	
1,480	-0,3343	162,21	150,06	0,01033	
1,500	-0,3343	162,64	150,06	0,01039	
1,520	-0,3343	162,78	150,07	0,01057	
1,540	-0,3343	162,76	150,06	0,01067	
1,560	-0,3343	162,72	150,06	0,01065	
1,580	-0,3343	162,68	150,06	0,01053	
1,600	-0,3343	162,68	150,06	0,01040	
1,620	-0,3343	162,71	150,07	0,01032	
1,640	-0,3343	162,70	150,06	0,01032	
1,660	-0,3343	162,69	150,06	0,01034	
1,680	-0,3343	162,71	150,06	0,01050	
1,700	-0,3343	162,72	150,06	0,01061	
1,720	-0,3343	162,74	150,06	0,01058	
1,740	-0,3343	162,79	150,06	0,01051	
1,760	-0,3343	162,75	150,06	0,01044	
1,780	-0,3343	162,71	150,07	0,01043	
1,800	-0,3343	162,70	150,06	0,01045	
1,820	-0,3343	162,69	150,06	0,01046	
1,840	-0,3343	162,72	150,06	0,01052	
1,860	-0,3343	162,76	150,06	0,01059	
1,880	-0,3343	162,75	150,06	0,01058	
1,900	-0,3343	162,72	150,06	0,01043	
1,920	-0,3343	162,76	150,06	0,01033	
1,940	-0,3343	162,79	150,06	0,01038	
1,960	-0,3343	162,74	150,06	0,01057	
1,980	-0,3343	162,71	150,06	0,01067	
2,000	-0,3343	162,74	150,06	0,01059	
2,020	-0,3343	162,77	150,06	0,01052	
2,040	-0,3343	162,80	150,06	0,01045	
2,060	-0,3343	162,74	150,06	0,01040	
2,080	-0,3343	162,74	150,06	0,01048	
2,100	-0,3343	162,75	150,06	0,01062	
2,120	-0,3343	162,73	150,06	0,01068	
2,140	-0,3343	162,68	150,06	0,01062	
2,160	-0,3343	162,63	150,06	0,01056	
2,180	-0,3343	162,58	150,06	0,01050	
2,200	-0,3343	162,58	150,06	0,01040	
2,220	-0,3343	162,61	150,06	0,01033	
2,240	-0,3343	162,31	150,06	0,01048	
2,260	-0,3343	160,99	150,06	0,01064	
2,280	-0,3343	160,11	150,06	0,01067	
2,300	-0,3343	161,08	150,06	0,01064	
2,320	-0,3343	162,27	150,06	0,01052	
2,340	-0,3343	162,71	150,06	0,01041	
2,360	-0,3343	162,76	150,06	0,01043	
2,380	-0,3343	162,75	150,06	0,01049	
2,400	-0,3343	162,70	150,06	0,01059	
2,420	-0,3343	162,66	150,06	0,01063	
2,440	-0,3343	162,69	150,06	0,01059	
2,460	-0,3343	162,67	150,06	0,01051	
2,480	-0,3343	162,69	150,06	0,01042	
2,500	-0,3343	162,70	150,06	0,01038	
2,520	-0,3343	162,69	150,06	0,01043	
2,540	-0,3343	162,73	150,06	0,01053	
2,560	-0,3343	162,78	150,06	0,01061	
2,580	-0,3343	162,78	150,06	0,01063	
2,600	-0,3343	162,71	150,06	0,01050	
2,620	-0,3343	162,65	150,06	0,01036	
2,640	-0,3343	162,63	150,06	0,01039	
2,660	-0,3343	162,60	150,06	0,01057	
2,680	-0,3343	162,57	150,06	0,01072	
2,700	-0,3343	162,56	150,06	0,01069	
2,720	-0,3343	162,56	150,06	0,01063	
2,740	-0,3343	162,59	150,06	0,01060	
2,760	-0,3343	162,62	150,06	0,01053	
2,780	-0,3343	162,64	150,06	0,01047	
2,800	-0,3343	162,70	150,06	0,01047	
2,820	-0,3343	162,75	150,06	0,01052	
2,840	-0,3343	162,71	150,05	0,01060	
2,860	-0,3343	162,73	150,06	0,01063	
2,880	-0,3343	162,77	150,06	0,01048	
2,900	-0,3343	162,85	150,06	0,01037	
2,920	-0,3343	162,86	150,05	0,01039	
2,940	-0,3343	162,79	150,06	0,01046	
2,960	-0,3343	162,80	150,06	0,01049	
2,980	-0,3343	162,82	150,06	0,01057	
3,000	-0,3343	162,76	150,06	0,01067	
3,020	-0,3343	162,71	150,06	0,01067	
3,040	-0,3343	162,76	150,05	0,01052	
3,060	-0,3343	162,79	150,05	0,01036	
3,080	-0,3343	162,76	150,06	0,01037	
3,100	-0,3343	162,70	150,06	0,01050	
3,120	-0,3343	162,67	150,05	0,01061	
3,140	-0,3343	162,65	150,06	0,01068	
3,160	-0,3343	162,61	150,06	0,01063	
3,180	-0,3343	162,61	150,06	0,01052	
3,200	-0,3343	162,69	150,06	0,01045	
3,220	-0,3343	162,77	150,06	0,01046	
3,240	-0,3343	162,81	150,06	0,01049	
3,260	-0,3343	162,84	150,06	0,01049	
3,280	-0,3343	162,86	150,06	0,01054	
3,300	-0,3343	162,80	150,06	0,01060	
3,320	-0,3343	162,78	150,06	0,01062	
3,340	-0,3343	162,83	150,06	0,01057	
3,360	-0,3343	162,81	150,06	0,01050	
3,380	-0,3343	162,77	150,06	0,01040	
3,400	-0,3343	162,75	150,06	0,01042	
3,420	-0,3343	162,79	150,06	0,01051	
3,440	-0,3343	162,85	150,06	0,01058	
3,460	-0,3343	162,86	150,06	0,01062	
3,480	-0,3343	162,78	150,06	0,01050	
3,500	-0,3343	162,74	150,06	0,01043	
3,520	-0,3343	162,73	150,06	0,01039	
3,540	-0,3343	162,72	150,06	0,01045	
3,560	-0,3343	162,73	150,06	0,01063	
3,580	-0,3343	162,77	150,06	0,01076	
3,600	-0,3343	162,76	150,06	0,01072	
3,620	-0,3343	162,72	150,06	0,01057	
3,640	-0,3343	162,75	150,06	0,01041	
3,660	-0,3343	162,78	150,06	0,01032	
3,680	-0,3343	162,80	150,06	0,01033	
3,700	-0,3343	162,81	150,06	0,01043	
3,720	-0,3343	162,81	150,06	0,01060	
3,740	-0,3343	162,74	150,06	0,01067	
3,760	-0,3343	162,69	150,06	0,01061	
3,780	-0,3343	162,71	150,06	0,01045	
3,800	-0,3343	162,75	150,06	0,01032	
3,820	-0,3343	162,76	150,06	0,01031	
3,840	-0,3343	162,77	150,06	0,01041	
3,860	-0,3343	162,83	150,06	0,01058	
3,880	-0,3343	162,86	150,06	0,01072	
3,900	-0,3343	162,80	150,06	0,01074	
3,920	-0,3343	162,77	150,06	0,01061	
3,940	-0,3343	162,74	150,06	0,01044	
3,960	-0,3343	162,66	150,06	0,01038	
3,980	-0,3343	162,60	150,06	0,01040	
4,000	-0,3343	162,62	150,06	0,01053	
4,020	-0,3343	162,66	150,06	0,01064	
4,040	-0,3343	162,65	150,06	0,01070	
4,060	-0,3343	162,62	150,06	0,01061	
4,080	-0,3343	162,62	150,06	0,01046	
4,100	-0,3343	162,70	150,06	0,01041	
4,120	-0,3343	162,77	150,06	0,01038	
4,140	-0,3343	162,77	150,06	0,01053	
4,160	-0,3343	162,74	150,06	0,01065	
4,180	-0,3343	162,76	150,06	0,01068	
4,200	-0,3343	162,77	150,06	0,01062	
4,220	-0,3343	162,76	150,06	0,01047	
4,240	-0,3343	162,73	150,06	0,01039	
4,260	-0,3343	162,76	150,06	0,01042	
4,280	-0,3343	162,76	150,06	0,01053	
4,300	-0,3343	162,78	150,06	0,01059	
4,320	-0,3343	162,74	150,06	0,01062	
4,340	-0,3343	162,68	150,06	0,01063	
4,360	-0,3343	162,67	150,06	0,01054	
4,380	-0,3343	162,65	150,06	0,01041	
4,400	-0,3343	162,67	150,06	0,01037	
4,420	-0,3343	162,71	150,06	0,01039	
4,440	-0,3343	162,68	150,06	0,01048	
4,460	-0,3343	162,66	150,06	0,01061	
4,480	-0,3343	162,67	150,06	0,01066	
4,500	-0,3343	162,76	150,06	0,01059	
4,520	-0,3343	162,89	150,06	0,01046	
4,540	-0,3343	162,90	150,06	0,01039	
4,560	-0,3343	162,85	150,06	0,01039	
4,580	-0,3343	162,80	150,06	0,01050	
4,600	-0,3343	162,78	150,07	0,01065	
4,620	-0,3343	162,76	150,06	0,01068	
4,640	-0,3343	162,80	150,06	0,01059	
4,660	-0,3344	162,83	150,06	0,01043	
4,680	-0,3343	162,87	150,06	0,01035	
4,700	-0,3343	162,83	150,06	0,01040	
4,720	-0,3343	162,78	150,06	0,01051	
4,740	-0,3343	162,80	150,06	0,01058	
4,760	-0,3343	162,89	150,06	0,01062	
4,780	-0,3343	162,92	150,06	0,01070	
4,800	-0,3343	162,84	150,06	0,01062	
4,820	-0,3343	162,82	150,06	0,01049	
4,840	-0,3343	162,84	150,07	0,01043	
4,860	-0,3343	162,80	150,06	0,01048	
4,880	-0,3343	162,73	150,06	0,01054	
4,900	-0,3343	162,76	150,06	0,01062	
4,920	-0,3343	162,81	150,06	0,01058	
4,940	-0,3343	162,78	150,06	0,01049	
4,960	-0,3343	162,74	150,06	0,01039	
4,980	-0,3343	162,76	150,06	0,01035	
5,000	-0,3343	162,79	150,06	0,01043	
5,020	-0,3343	162,80	150,06	0,01062	
5,040	-0,3343	162,83	150,06	0,01079	
5,060	-0,3343	162,80	150,06	0,01082	
5,080	-0,3343	162,72	150,06	0,01070	
5,100	-0,3343	162,74	150,06	0,01054	
5,120	-0,3343	162,81	150,06	0,01050	
5,140	-0,3343	162,76	150,06	0,01050	
5,160	-0,3343	162,70	150,06	0,01056	
5,180	-0,3343	162,63	150,06	0,01062	
5,200	-0,3343	161,80	150,06	0,01066	
5,220	-0,3343	161,17	150,06	0,01067	
5,240	-0,3343	161,87	150,07	0,01094	
5,260	-0,3343	162,50	150,07	0,01159	
5,280	-0,3343	162,64	150,06	0,01195	
5,300	-0,3343	162,70	150,06	0,01203	
5,320	-0,3343	162,80	150,06	0,01215	
5,340	-0,3343	162,77	150,06	0,01225	
5,360	-0,3343	162,67	150,06	0,01226	
5,380	-0,3343	162,66	150,06	0,01220	
5,400	-0,3343	162,66	150,06	0,01208	
5,420	-0,3343	162,70	150,06	0,01203	
5,440	-0,3343	162,74	150,06	0,01209	
5,460	-0,3340	162,74	150,06	0,01208	
5,480	-0,3337	162,71	150,06	0,01148	
5,500	-0,3336	162,71	150,06	0,01089	
5,520	-0,3336	162,76	150,06	0,01059	
5,540	-0,3336	162,80	150,06	0,01047	
5,560	-0,3336	162,78	150,06	0,01038	
5,580	-0,3336	162,72	150,06	0,01041	
5,600	-0,3336	162,65	150,06	0,01054	
5,620	-0,3336	162,63	150,06	0,01064	
5,640	-0,3336	162,64	150,06	0,01065	
5,660	-0,3336	162,68	150,06	0,01060	
5,680	-0,3336	162,69	150,06	0,01046	
5,700	-0,3336	162,73	150,06	0,01032	
5,720	-0,3336	162,78	150,06	0,01029	
5,740	-0,3336	162,69	150,06	0,01040	
5,760	-0,3336	162,63	150,06	0,01051	
5,780	-0,3336	162,66	150,06	0,01062	
5,800	-0,3336	162,66	150,06	0,01071	
5,820	-0,3336	162,66	150,06	0,01064	
5,840	-0,3336	162,70	150,06	0,01050	
5,860	-0,3336	162,68	150,06	0,01037	
5,880	-0,3336	162,68	150,06	0,01033	
5,900	-0,3336	162,64	150,06	0,01039	
5,920	-0,3336	162,58	150,06	0,01054	
5,940	-0,3336	162,58	150,06	0,01061	
5,960	-0,3336	162,63	150,06	0,01053	
5,980	-0,3336	162,69	150,06	0,01045	
6,000	-0,3336	162,71	150,06	0,01042	
6,020	-0,3336	162,63	150,06	0,01043	
6,040	-0,3336	162,56	150,06	0,01050	
6,060	-0,3336	162,59	150,06	0,01061	
6,080	-0,3336	162,64	150,06	0,01068	
6,100	-0,3338	162,70	150,06	0,01064	
6,120	-0,3341	162,75	150,06	0,01048	
6,140	-0,3343	162,71	150,06	0,01034	
6,160	-0,3343	162,69	150,06	0,01028	
6,180	-0,3343	162,72	150,06	0,01037	
6,200	-0,3343	162,74	150,06	0,01051	
6,220	-0,3343	162,72	150,06	0,01063	
6,240	-0,3343	162,73	150,06	0,01058	
6,260	-0,3343	162,74	150,06	0,01047	
6,280	-0,3343	162,73	150,06	0,01039	
6,300	-0,3343	162,64	150,06	0,01037	
6,320	-0,3343	162,62	150,06	0,01045	
6,340	-0,3343	162,63	150,06	0,01056	
6,360	-0,3343	162,66	150,06	0,01066	
6,380	-0,3343	162,72	150,06	0,01068	
6,400	-0,3343	162,76	150,06	0,01060	
6,420	-0,3343	162,72	150,06	0,01039	
6,440	-0,3343	162,65	150,05	0,01029	
6,460	-0,3343	162,59	150,06	0,01028	
6,480	-0,3343	162,56	150,06	0,01036	
6,500	-0,3343	162,65	150,06	0,01050	
6,520	-0,3343	162,70	150,05	0,01061	
6,540	-0,3343	162,66	150,06	0,01062	
6,560	-0,3343	162,62	150,06	0,01049	
6,580	-0,3343	162,60	150,05	0,01040	
6,600	-0,3343	162,69	150,06	0,01041	
6,620	-0,3343	162,79	150,06	0,01048	
6,640	-0,3343	162,80	150,06	0,01054	
6,660	-0,3343	162,79	150,05	0,01055	
6,680	-0,3343	162,82	150,06	0,01054	
6,700	-0,3343	162,82	150,06	0,01046	
6,720	-0,3343	162,80	150,05	0,01041	
6,740	-0,3343	162,85	150,06	0,01040	
6,760	-0,3343	162,92	150,06	0,01045	
6,780	-0,3343	162,89	150,06	0,01058	
6,800	-0,3343	162,82	150,06	0,01072	
6,820	-0,3343	162,77	150,06	0,01072	
6,840	-0,3343	162,83	150,06	0,01054	
6,860	-0,3343	162,95	150,06	0,01040	
6,880	-0,3343	162,95	150,06	0,01031	
6,900	-0,3343	162,86	150,06	0,01031	
6,920	-0,3343	162,83	150,06	0,01048	
6,940	-0,3343	162,82	150,05	0,01063	
6,960	-0,3343	162,80	150,05	0,01067	
6,980	-0,3343	162,81	150,06	0,01062	
7,000	-0,3343	162,82	150,06	0,01048	
7,020	-0,3343	162,81	150,06	0,01035	
7,040	-0,3343	162,80	150,06	0,01035	
7,060	-0,3343	162,79	150,06	0,01050	
7,080	-0,3343	162,76	150,06	0,01064	
7,100	-0,3343	162,81	150,06	0,01068	
7,120	-0,3343	162,82	150,06	0,01061	
7,140	-0,3343	162,80	150,07	0,01054	
7,160	-0,3343	162,80	150,07	0,01043	
7,180	-0,3343	162,75	150,06	0,01036	
7,200	-0,3343	162,77	150,06	0,01042	
7,220	-0,3343	162,76	150,06	0,01050	
7,240	-0,3343	162,75	150,06	0,01053	
7,260	-0,3343	162,75	150,06	0,01058	
7,280	-0,3343	162,78	150,06	0,01052	
7,300	-0,3343	162,77	150,06	0,01040	
7,320	-0,3343	162,74	150,06	0,01039	
7,340	-0,3343	162,69	150,06	0,01048	
7,360	-0,3343	162,61	150,06	0,01062	
7,380	-0,3343	162,57	150,06	0,01065	
7,400	-0,3343	162,58	150,06	0,01061	
7,420	-0,3343	162,59	150,06	0,01051	
7,440	-0,3343	162,62	150,06	0,01042	
7,460	-0,3343	162,65	150,06	0,01039	
7,480	-0,3343	162,56	150,06	0,01042	
7,500	-0,3343	162,48	150,06	0,01045	
7,520	-0,3343	162,57	150,06	0,01049	
7,540	-0,3343	162,70	150,06	0,01056	
7,560	-0,3343	162,74	150,06	0,01060	
7,580	-0,3343	162,72	150,06	0,01055	
7,600	-0,3343	162,66	150,06	0,01046	
7,620	-0,3343	162,64	150,06	0,01042	
7,640	-0,3343	162,63	150,06	0,01052	
7,660	-0,3343	162,62	150,06	0,01061	
7,680	-0,3343	162,62	150,06	0,01069	
7,700	-0,3343	162,69	150,06	0,01066	
7,720	-0,3343	162,78	150,06	0,01055	
7,740	-0,3343	162,76	150,06	0,01043	
7,760	-0,3343	162,73	150,06	0,01037	
7,780	-0,3343	162,69	150,06	0,01046	
7,800	-0,3343	162,65	150,06	0,01056	
7,820	-0,3343	162,65	150,06	0,01063	
7,840	-0,3343	162,69	150,06	0,01061	
7,860	-0,3343	162,68	150,06	0,01052	
7,880	-0,3343	162,69	150,06	0,01044	
7,900	-0,3343	162,77	150,06	0,01044	
7,920	-0,3343	162,81	150,06	0,01045	
7,940	-0,3343	162,78	150,06	0,01050	
7,960	-0,3343	162,73	150,06	0,01057	
7,980	-0,3343	162,73	150,06	0,01059	
8,000	-0,3343	162,78	150,06	0,01058	
8,020	-0,3343	162,85	150,06	0,01050	
8,040	-0,3343	162,87	150,06	0,01044	
8,060	-0,3343	162,75	150,06	0,01044	
8,080	-0,3343	162,65	150,06	0,01049	
8,100	-0,3343	162,65	150,06	0,01057	
8,120	-0,3343	162,72	150,06	0,01058	
8,140	-0,3343	162,70	150,06	0,01051	
8,160	-0,3343	162,68	150,06	0,01045	
8,180	-0,3343	162,75	150,06	0,01037	
8,200	-0,3343	162,81	150,06	0,01029	
8,220	-0,3343	162,77	150,06	0,01036	
8,240	-0,3343	162,71	150,06	0,01053	
8,260	-0,3343	162,68	150,06	0,01063	
8,280	-0,3343	162,64	150,06	0,01060	
8,300	-0,3343	162,69	150,06	0,01049	
8,320	-0,3343	162,74	150,06	0,01039	
8,340	-0,3343	162,73	150,06	0,01030	
8,360	-0,3343	162,74	150,06	0,01032	
8,380	-0,3343	162,75	150,06	0,01045	
8,400	-0,3343	162,72	150,06	0,01059	
8,420	-0,3343	162,74	150,07	0,01064	
8,440	-0,3343	162,74	150,06	0,01056	
8,460	-0,3343	162,69	150,06	0,01044	
8,480	-0,3343	162,58	150,06	0,01039	
8,500	-0,3343	162,57	150,06	0,01049	
8,520	-0,3343	162,61	150,06	0,01063	
8,540	-0,3343	162,64	150,06	0,01069	
8,560	-0,3343	162,74	150,06	0,01067	
8,580	-0,3343	162,79	150,06	0,01065	
8,600	-0,3343	162,76	150,07	0,01053	
8,620	-0,3343	162,72	150,06	0,01044	
8,640	-0,3343	162,69	150,06	0,01042	
8,660	-0,3343	162,63	150,06	0,01047	
8,680	-0,3343	162,59	150,06	0,01060	
8,700	-0,3343	162,61	150,06	0,01066	
8,720	-0,3343	162,65	150,06	0,01063	
8,740	-0,3343	162,67	150,06	0,01046	
8,760	-0,3343	162,67	150,06	0,01034	
8,780	-0,3343	162,63	150,06	0,01033	
8,800	-0,3343	162,66	150,06	0,01045	
8,820	-0,3343	162,68	150,06	0,01062	
8,840	-0,3343	162,63	150,06	0,01064	
8,860	-0,3343	162,58	150,06	0,01053	
8,880	-0,3343	162,67	150,06	0,01042	
8,900	-0,3343	162,83	150,06	0,01034	
8,920	-0,3343	162,82	150,06	0,01035	
8,940	-0,3343	162,70	150,06	0,01040	
8,960	-0,3343	162,67	150,06	0,01050	
8,980	-0,3343	162,74	150,06	0,01059	
9,000	-0,3343	162,71	150,06	0,01062	
9,020	-0,3343	162,65	150,06	0,01058	
9,040	-0,3343	162,68	150,06	0,01042	
9,060	-0,3343	162,71	150,06	0,01035	
9,080	-0,3343	162,71	150,06	0,01043	
9,100	-0,3343	162,70	150,06	0,01055	
9,120	-0,3343	162,70	150,06	0,01068	
9,140	-0,3343	162,73	150,06	0,01071	
9,160	-0,3343	162,72	150,06	0,01059	
9,180	-0,3343	162,67	150,05	0,01045	
9,200	-0,3343	162,66	150,06	0,01037	
9,220	-0,3343	162,67	150,06	0,01039	
9,240	-0,3343	162,74	150,05	0,01044	
9,260	-0,3343	162,78	150,05	0,01055	
9,280	-0,3343	162,84	150,06	0,01067	
9,300	-0,3343	162,81	150,06	0,01065	
9,320	-0,3343	162,82	150,05	0,01053	
9,340	-0,3343	162,86	150,06	0,01045	
9,360	-0,3343	162,89	150,06	0,01045	
9,380	-0,3343	162,89	150,05	0,01050	
9,400	-0,3343	162,90	150,05	0,01059	
9,420	-0,3343	162,84	150,06	0,01058	
9,440	-0,3343	162,79	150,06	0,01053	
9,460	-0,3343	162,79	150,06	0,01055	
9,480	-0,3343	162,86	150,06	0,01046	
9,500	-0,3343	162,84	150,06	0,01040	
9,520	-0,3343	162,79	150,06	0,01043	
9,540	-0,3343	162,77	150,05	0,01056	
9,560	-0,3343	162,76	150,06	0,01063	
9,580	-0,3343	162,76	150,06	0,01063	
9,600	-0,3343	162,74	150,06	0,01062	
9,620	-0,3343	162,76	150,06	0,01050	
9,640	-0,3343	162,79	150,06	0,01039	
9,660	-0,3343	162,80	150,06	0,01033	
9,680	-0,3343	162,83	150,06	0,01040	
9,700	-0,3343	162,82	150,06	0,01060	
9,720	-0,3343	162,82	150,06	0,01069	
9,740	-0,3343	162,83	150,06	0,01065	
9,760	-0,3343	162,88	150,05	0,01055	
9,780	-0,3343	162,92	150,05	0,01047	
9,800	-0,3343	162,90	150,06	0,01043	
9,820	-0,3343	162,84	150,05	0,01044	
9,840	-0,3343	162,77	150,06	0,01055	
9,860	-0,3343	162,75	150,06	0,01060	
9,880	-0,3343	162,74	150,06	0,01059	
9,900	-0,3343	162,74	150,05	0,01060	
9,920	-0,3343	162,76	150,06	0,01045	
9,940	-0,3343	162,80	150,06	0,01034	
9,960	-0,3343	162,87	150,06	0,01036	
9,980	-0,3343	162,91	150,05	0,01037	
10,00	-0,3343	162,88	150,06	0,01047	
10,02	-0,3343	162,84	150,06	0,01058	
10,04	-0,3343	162,83	150,06	0,01056	
10,06	-0,3343	162,86	150,06	0,01049	
10,08	-0,3343	162,85	150,06	0,01040	
10,10	-0,3343	162,86	150,06	0,01036	
10,12	-0,3343	162,84	150,06	0,01041	
10,14	-0,3343	162,78	150,06	0,01060	
10,16	-0,3343	162,72	150,06	0,01073	
10,18	-0,3343	162,72	150,06	0,01075	
10,20	-0,3343	162,75	150,06	0,01063	
10,22	-0,3343	162,78	150,06	0,01037	
10,24	-0,3343	162,81	150,06	0,01026	
10,26	-0,3343	162,84	150,06	0,01029	
10,28	-0,3343	162,86	150,06	0,01044	
10,30	-0,3343	162,84	150,06	0,01059	
10,32	-0,3343	162,80	150,06	0,01069	
10,34	-0,3343	162,76	150,05	0,01064	
10,36	-0,3343	162,75	150,05	0,01052	
10,38	-0,3343	162,74	150,06	0,01039	
10,40	-0,3343	162,75	150,06	0,01040	
10,42	-0,3343	162,78	150,06	0,01049	
10,44	-0,3343	162,79	150,06	0,01054	
10,46	-0,3343	162,81	150,06	0,01059	
10,48	-0,3343	162,83	150,06	0,01062	
10,50	-0,3343	162,85	150,06	0,01053	
10,52	-0,3343	162,82	150,06	0,01039	
10,54	-0,3343	162,80	150,06	0,01032	
10,56	-0,3343	162,79	150,06	0,01034	
10,58	-0,3343	162,74	150,06	0,01052	
10,60	-0,3343	162,74	150,06	0,01060	
10,62	-0,3343	162,74	150,06	0,01056	
10,64	-0,3343	162,69	150,06	0,01050	
10,66	-0,3343	162,69	150,06	0,01046	
10,68	-0,3343	162,74	150,06	0,01042	
10,70	-0,3343	162,79	150,06	0,01038	
10,72	-0,3343	162,82	150,06	0,01047	
10,74	-0,3343	162,78	150,06	0,01052	
10,76	-0,3343	162,76	150,06	0,01059	
10,78	-0,3343	162,77	150,06	0,01061	
10,80	-0,3343	162,79	150,06	0,01055	
10,82	-0,3343	162,83	150,06	0,01044	
10,84	-0,3343	162,83	150,06	0,01043	
10,86	-0,3343	162,74	150,06	0,01043	
10,88	-0,3343	162,70	150,06	0,01050	
10,90	-0,3343	162,75	150,06	0,01060	
10,92	-0,3343	162,79	150,06	0,01067	
10,94	-0,3343	162,82	150,06	0,01060	
10,96	-0,3343	162,85	150,06	0,01042	
10,98	-0,3343	162,82	150,06	0,01034	
11,00	-0,3343	162,77	150,06	0,01043	
11,02	-0,3343	162,75	150,06	0,01048	
11,04	-0,3343	162,77	150,06	0,01055	
11,06	-0,3343	162,79	150,06	0,01067	
11,08	-0,3343	162,86	150,06	0,01063	
11,10	-0,3343	162,84	150,07	0,01054	
11,12	-0,3343	162,83	150,06	0,01038	
11,14	-0,3343	162,77	150,06	0,01029	
11,16	-0,3343	162,75	150,06	0,01036	
11,18	-0,3343	162,81	150,07	0,01052	
11,20	-0,3343	162,81	150,06	0,01064	
11,22	-0,3343	162,78	150,06	0,01067	
11,24	-0,3343	162,83	150,06	0,01053	
11,26	-0,3343	162,83	150,06	0,01036	
11,28	-0,3343	162,78	150,06	0,01028	
11,30	-0,3343	162,74	150,06	0,01037	
11,32	-0,3343	162,69	150,06	0,01055	
11,34	-0,3343	162,73	150,06	0,01059	
11,36	-0,3343	162,83	150,06	0,01057	
11,38	-0,3343	162,90	150,06	0,01055	
11,40	-0,3343	162,88	150,06	0,01045	
11,42	-0,3343	162,84	150,06	0,01032	
11,44	-0,3343	162,89	150,06	0,01033	
11,46	-0,3343	162,94	150,06	0,01045	
11,48	-0,3344	162,91	150,06	0,01053	
11,50	-0,3343	162,87	150,06	0,01060	
11,52	-0,3343	162,81	150,06	0,01055	
11,54	-0,3343	162,76	150,06	0,01042	
11,56	-0,3343	162,71	150,06	0,01030	
11,58	-0,3343	162,62	150,06	0,01032	
11,60	-0,3343	162,60	150,06	0,01040	
11,62	-0,3343	162,66	150,06	0,01048	
11,64	-0,3343	162,73	150,06	0,01062	
11,66	-0,3343	162,75	150,06	0,01057	
11,68	-0,3343	162,73	150,06	0,01042	
11,70	-0,3343	162,74	150,06	0,01032	
11,72	-0,3343	162,80	150,06	0,01030	
11,74	-0,3343	162,84	150,06	0,01039	
11,76	-0,3343	162,87	150,06	0,01048	
11,78	-0,3343	162,87	150,06	0,01049	
11,80	-0,3343	162,86	150,06	0,01050	
11,82	-0,3343	162,86	150,07	0,01046	
11,84	-0,3343	162,88	150,06	0,01034	
11,86	-0,3343	162,84	150,06	0,01026	
11,88	-0,3343	162,76	150,06	0,01036	
11,90	-0,3343	162,64	150,06	0,01053	
11,92	-0,3344	163,34	150,09	0,01066	
11,94	-0,3348	162,55	150,17	0,00988	
11,96	-0,3341	132,09	150,01	0,00897	
11,98	-0,3340	85,61	149,99	0,00902	
12,00	-0,3342	40,00	150,04	0,00928	
12,02	-0,3338	-3,475	150,06	0,00938	
12,04	-0,3315	-39,86	150,06	0,00948	
12,06	-0,3275	-44,67	150,06	0,00959	
12,08	-0,3232	-20,94	150,06	0,00966	
12,10	-0,3191	12,67	150,06	0,00969	
12,12	-0,3155	49,51	150,06	0,00959	
12,14	-0,3127	84,35	150,06	0,00946	
12,16	-0,3108	112,30	150,06	0,00946	
12,18	-0,3096	132,18	150,06	0,00956	
12,20	-0,3090	145,03	150,06	0,00970	
12,22	-0,3087	152,64	150,07	0,00977	
12,24	-0,3083	157,23	150,07	0,00983	
12,26	-0,3082	160,52	150,06	0,00980	
12,28	-0,3081	162,35	150,06	0,00969	
12,30	-0,3081	162,86	150,06	0,00955	
12,32	-0,3081	162,87	150,07	0,00954	
12,34	-0,3081	163,05	150,06	0,00959	
12,36	-0,3081	164,39	150,06	0,00968	
12,38	-0,3081	165,70	150,06	0,00975	
12,40	-0,3081	166,24	150,06	0,00982	
12,42	-0,3083	166,25	150,06	0,00981	
12,44	-0,3086	166,13	150,06	0,00963	
12,46	-0,3088	166,12	150,06	0,00951	
12,48	-0,3088	166,17	150,07	0,00955	
12,50	-0,3088	166,20	150,06	0,00968	
12,52	-0,3088	166,19	150,06	0,00980	
12,54	-0,3088	166,17	150,06	0,00989	
12,56	-0,3088	166,20	150,06	0,00982	
12,58	-0,3088	166,28	150,06	0,00970	
12,60	-0,3088	166,27	150,06	0,00960	
12,62	-0,3088	166,26	150,06	0,00960	
12,64	-0,3089	166,29	150,06	0,00967	
12,66	-0,3092	166,21	150,06	0,00973	
12,68	-0,3094	166,21	150,06	0,00977	
12,70	-0,3095	166,24	150,06	0,00981	
12,72	-0,3095	165,50	150,06	0,00983	
12,74	-0,3095	164,73	150,06	0,00968	
12,76	-0,3095	165,16	150,06	0,00958	
12,78	-0,3095	164,56	150,06	0,00961	
12,80	-0,3095	163,49	150,06	0,00965	
12,82	-0,3095	162,96	150,06	0,00979	
12,84	-0,3095	162,89	150,06	0,00990	
12,86	-0,3095	163,01	150,06	0,00989	
12,88	-0,3095	162,97	150,06	0,00974	
12,90	-0,3098	162,90	150,07	0,00962	
12,92	-0,3100	162,85	150,06	0,00964	
12,94	-0,3101	162,83	150,06	0,00974	
12,96	-0,3102	162,84	150,06	0,00984	
12,98	-0,3102	162,83	150,06	0,00993	
13,00	-0,3101	162,76	150,06	0,00990	
13,02	-0,3101	162,77	150,06	0,00973	
13,04	-0,3101	162,75	150,06	0,00952	
13,06	-0,3101	162,67	150,06	0,00957	
13,08	-0,3101	162,63	150,06	0,00970	
13,10	-0,3102	162,60	150,06	0,00979	
13,12	-0,3101	162,63	150,06	0,00991	
13,14	-0,3101	162,73	150,07	0,00995	
13,16	-0,3102	162,69	150,06	0,00990	
13,18	-0,3102	162,63	150,06	0,00985	
13,20	-0,3101	162,69	150,06	0,00974	
13,22	-0,3101	162,73	150,06	0,00972	
13,24	-0,3101	162,72	150,06	0,00973	
13,26	-0,3101	162,74	150,06	0,00972	
13,28	-0,3101	162,73	150,06	0,00976	
13,30	-0,3102	162,70	150,06	0,00986	
13,32	-0,3104	162,69	150,06	0,00987	
13,34	-0,3107	162,67	150,06	0,00975	
13,36	-0,3108	162,66	150,06	0,00964	
13,38	-0,3108	162,72	150,07	0,00964	
13,40	-0,3108	162,78	150,06	0,00974	
13,42	-0,3108	162,81	150,06	0,00986	
13,44	-0,3108	162,76	150,06	0,00993	
13,46	-0,3108	162,77	150,06	0,00995	
13,48	-0,3108	162,79	150,06	0,00989	
13,50	-0,3108	162,71	150,06	0,00978	
13,52	-0,3108	162,66	150,06	0,00974	
13,54	-0,3108	162,67	150,06	0,00979	
13,56	-0,3108	162,64	150,06	0,00991	
13,58	-0,3108	162,71	150,06	0,00998	
13,60	-0,3109	162,83	150,06	0,00992	
13,62	-0,3108	162,87	150,06	0,00974	
13,64	-0,3108	162,86	150,06	0,00965	
13,66	-0,3108	162,77	150,06	0,00967	
13,68	-0,3108	162,66	150,06	0,00968	
13,70	-0,3108	162,69	150,06	0,00975	
13,72	-0,3108	162,69	150,06	0,00990	
13,74	-0,3108	162,68	150,06	0,00994	
13,76	-0,3108	162,77	150,06	0,00991	
13,78	-0,3108	162,82	150,06	0,00982	
13,80	-0,3108	162,82	150,05	0,00973	
13,82	-0,3108	162,84	150,06	0,00969	
13,84	-0,3108	162,82	150,06	0,00974	
13,86	-0,3108	162,77	150,06	0,00984	
13,88	-0,3108	162,77	150,05	0,00988	
13,90	-0,3108	162,78	150,06	0,00993	
13,92	-0,3108	162,79	150,06	0,00988	
13,94	-0,3108	162,83	150,06	0,00975	
13,96	-0,3108	162,80	150,06	0,00967	
13,98	-0,3108	162,76	150,06	0,00975	
14,00	-0,3110	162,80	150,06	0,00985	
14,02	-0,3113	162,78	150,06	0,00992	
14,04	-0,3114	162,77	150,06	0,00995	
14,06	-0,3115	162,81	150,06	0,00989	
14,08	-0,3115	162,84	150,06	0,00975	
14,10	-0,3115	162,86	150,06	0,00965	
14,12	-0,3115	162,88	150,06	0,00965	
14,14	-0,3115	162,88	150,06	0,00973	
14,16	-0,3115	162,90	150,06	0,00985	
14,18	-0,3115	162,90	150,05	0,00994	
14,20	-0,3115	162,93	150,06	0,00997	
14,22	-0,3115	162,93	150,06	0,00985	
14,24	-0,3115	162,85	150,06	0,00974	
14,26	-0,3115	162,86	150,06	0,00977	
14,28	-0,3115	162,91	150,06	0,00977	
14,30	-0,3115	162,89	150,06	0,00981	
14,32	-0,3115	162,88	150,06	0,00995	
14,34	-0,3115	162,88	150,06	0,00999	
14,36	-0,3115	162,90	150,06	0,00997	
14,38	-0,3115	162,84	150,06	0,00987	
14,40	-0,3115	162,77	150,06	0,00975	
14,42	-0,3115	162,81	150,06	0,00974	
14,44	-0,3115	162,82	150,06	0,00984	
14,46	-0,3115	162,75	150,06	0,00997	
14,48	-0,3115	162,74	150,06	0,01008	
14,50	-0,3115	162,80	150,06	0,01006	
14,52	-0,3115	162,80	150,06	0,00989	
14,54	-0,3115	162,81	150,06	0,00972	
14,56	-0,3115	162,83	150,06	0,00966	
14,58	-0,3115	162,86	150,06	0,00973	
14,60	-0,3115	162,91	150,06	0,00988	
14,62	-0,3115	162,88	150,06	0,01001	
14,64	-0,3115	162,77	150,06	0,01001	
14,66	-0,3115	162,80	150,06	0,00991	
14,68	-0,3115	162,89	150,06	0,00975	
14,70	-0,3115	162,85	150,06	0,00970	
14,72	-0,3115	162,81	150,06	0,00971	
14,74	-0,3115	162,79	150,06	0,00978	
14,76	-0,3115	162,81	150,06	0,00990	
14,78	-0,3115	162,87	150,06	0,01001	
14,80	-0,3115	162,82	150,06	0,00995	
14,82	-0,3115	162,73	150,06	0,00978	
14,84	-0,3115	162,72	150,06	0,00972	
14,86	-0,3115	162,76	150,06	0,00977	
14,88	-0,3115	162,83	150,06	0,00987	
14,90	-0,3115	162,91	150,06	0,00993	
14,92	-0,3118	162,94	150,06	0,01000	
14,94	-0,3120	162,82	150,06	0,01000	
14,96	-0,3122	162,79	150,06	0,00983	
14,98	-0,3122	162,81	150,06	0,00970	
15,00	-0,3122	162,83	150,06	0,00969	
15,02	-0,3122	162,86	150,06	0,00974	
15,04	-0,3122	162,83	150,06	0,00989	
15,06	-0,3122	162,75	150,06	0,01001	
15,08	-0,3122	162,75	150,06	0,01000	
15,10	-0,3122	162,71	150,06	0,00989	
15,12	-0,3122	162,71	150,06	0,00977	
15,14	-0,3122	162,78	150,06	0,00975	
15,16	-0,3122	162,82	150,06	0,00976	
15,18	-0,3122	162,78	150,06	0,00986	
15,20	-0,3122	162,75	150,06	0,00998	
15,22	-0,3122	162,73	150,06	0,01000	
15,24	-0,3122	162,77	150,06	0,00996	
15,26	-0,3122	162,78	150,06	0,00986	
15,28	-0,3122	162,81	150,06	0,00976	
15,30	-0,3122	162,80	150,06	0,00975	
15,32	-0,3122	162,80	150,06	0,00992	
15,34	-0,3122	162,82	150,06	0,01006	
15,36	-0,3122	162,83	150,06	0,01007	
15,38	-0,3122	162,87	150,06	0,00997	
15,40	-0,3122	162,95	150,07	0,00984	
15,42	-0,3122	162,92	150,06	0,00976	
15,44	-0,3122	162,88	150,06	0,00972	
15,46	-0,3121	162,91	150,06	0,00974	
15,48	-0,3121	162,88	150,06	0,00986	
15,50	-0,3122	162,87	150,06	0,00999	
15,52	-0,3122	162,90	150,06	0,01006	
15,54	-0,3121	162,87	150,06	0,01001	
15,56	-0,3121	162,86	150,06	0,00989	
15,58	-0,3122	162,89	150,07	0,00979	
15,60	-0,3122	162,86	150,06	0,00975	
15,62	-0,3121	162,89	150,06	0,00982	
15,64	-0,3122	162,93	150,06	0,00998	
15,66	-0,3122	162,90	150,06	0,01002	
15,68	-0,3122	162,86	150,06	0,00997	
15,70	-0,3122	162,86	150,06	0,00983	
15,72	-0,3122	162,86	150,06	0,00977	
15,74	-0,3121	162,86	150,06	0,00983	
15,76	-0,3122	162,85	150,06	0,00989	
15,78	-0,3122	162,83	150,06	0,00992	
15,80	-0,3122	162,87	150,06	0,00990	
15,82	-0,3122	162,89	150,06	0,00989	
15,84	-0,3122	162,86	150,06	0,00980	
15,86	-0,3122	162,90	150,06	0,00974	
15,88	-0,3122	162,87	150,06	0,00973	
15,90	-0,3122	162,85	150,06	0,00983	
15,92	-0,3122	162,88	150,06	0,00995	
15,94	-0,3125	162,90	150,06	0,01000	
15,96	-0,3127	162,96	150,06	0,00999	
15,98	-0,3128	162,96	150,07	0,00988	
16,00	-0,3128	162,92	150,06	0,00968	
16,02	-0,3128	162,87	150,06	0,00963	
16,04	-0,3128	162,86	150,06	0,00979	
16,06	-0,3129	162,92	150,06	0,00994	
16,08	-0,3128	162,93	150,06	0,00999	
16,10	-0,3129	162,93	150,06	0,01001	
16,12	-0,3129	162,94	150,06	0,00985	
16,14	-0,3129	162,91	150,06	0,00970	
16,16	-0,3129	162,90	150,06	0,00972	
16,18	-0,3129	162,96	150,06	0,00973	
16,20	-0,3128	162,97	150,06	0,00978	
16,22	-0,3128	162,90	150,06	0,00989	
16,24	-0,3128	162,84	150,06	0,00998	
16,26	-0,3128	162,80	150,06	0,00998	
16,28	-0,3128	162,84	150,06	0,00983	
16,30	-0,3128	162,88	150,06	0,00970	
16,32	-0,3128	162,85	150,06	0,00966	
16,34	-0,3128	162,88	150,06	0,00973	
16,36	-0,3128	162,94	150,06	0,00983	
16,38	-0,3128	162,91	150,06	0,00991	
16,40	-0,3128	162,91	150,06	0,01001	
16,42	-0,3128	162,88	150,06	0,00997	
16,44	-0,3128	162,81	150,06	0,00986	
16,46	-0,3129	162,90	150,06	0,00979	
16,48	-0,3128	162,93	150,06	0,00979	
16,50	-0,3128	162,94	150,06	0,00987	
16,52	-0,3128	162,96	150,06	0,00994	
16,54	-0,3128	163,00	150,06	0,01000	
16,56	-0,3128	163,04	150,06	0,00997	
16,58	-0,3128	163,11	150,06	0,00980	
16,60	-0,3128	163,16	150,06	0,00972	
16,62	-0,3128	163,06	150,06	0,00974	
16,64	-0,3128	163,04	150,06	0,00982	
16,66	-0,3128	163,02	150,06	0,00993	
16,68	-0,3128	162,95	150,06	0,00998	
16,70	-0,3128	162,91	150,06	0,00988	
16,72	-0,3128	162,85	150,06	0,00976	
16,74	-0,3128	162,87	150,06	0,00970	
16,76	-0,3129	162,92	150,06	0,00969	
16,78	-0,3128	162,90	150,06	0,00975	
16,80	-0,3128	162,84	150,06	0,00989	
16,82	-0,3128	162,89	150,06	0,01001	
16,84	-0,3128	162,93	150,06	0,01001	
16,86	-0,3128	162,89	150,06	0,00995	
16,88	-0,3129	162,92	150,06	0,00981	
16,90	-0,3129	162,94	150,06	0,00970	
16,92	-0,3129	163,01	150,06	0,00974	
16,94	-0,3129	163,05	150,06	0,00984	
16,96	-0,3129	163,03	150,05	0,00995	
16,98	-0,3128	163,00	150,06	0,01000	
17,00	-0,3128	162,98	150,06	0,00991	
17,02	-0,3129	163,03	150,06	0,00982	
17,04	-0,3129	163,06	150,06	0,00980	
17,06	-0,3129	162,98	150,06	0,00982	
17,08	-0,3128	162,94	150,06	0,00987	
17,10	-0,3128	162,94	150,05	0,00992	
17,12	-0,3129	162,90	150,06	0,00993	
17,14	-0,3131	162,94	150,06	0,00993	
17,16	-0,3134	162,96	150,06	0,00985	
17,18	-0,3135	162,87	150,05	0,00970	
17,20	-0,3135	162,88	150,06	0,00964	
17,22	-0,3135	162,89	150,06	0,00975	
17,24	-0,3135	162,88	150,06	0,00989	
17,26	-0,3135	162,89	150,06	0,01002	
17,28	-0,3135	162,86	150,06	0,01004	
17,30	-0,3135	162,90	150,06	0,00991	
17,32	-0,3135	162,97	150,06	0,00974	
17,34	-0,3135	162,95	150,06	0,00971	
17,36	-0,3135	162,86	150,06	0,00980	
17,38	-0,3135	162,79	150,06	0,00990	
17,40	-0,3136	163,04	150,07	0,00995	
17,42	-0,3137	163,28	150,10	0,00993	
17,44	-0,3137	156,87	150,09	0,00993	
17,46	-0,3135	145,13	150,06	0,00987	
17,48	-0,3135	131,83	150,05	0,00974	
17,50	-0,3134	118,31	150,06	0,00966	
17,52	-0,3129	104,80	150,05	0,00967	
17,54	-0,3121	95,10	150,06	0,00974	
17,56	-0,3112	88,86	150,06	0,00984	
17,58	-0,3101	83,81	150,06	0,00994	
17,60	-0,3090	78,94	150,05	0,00986	
17,62	-0,3080	75,38	150,06	0,00974	
17,64	-0,3066	73,67	150,06	0,00967	
17,66	-0,3049	74,37	150,06	0,00964	
17,68	-0,3034	76,47	150,05	0,00973	
17,70	-0,3020	78,78	150,06	0,00983	
17,72	-0,3007	80,88	150,06	0,00987	
17,74	-0,2993	81,88	150,05	0,00985	
17,76	-0,2980	82,11	150,05	0,00978	
17,78	-0,2967	82,11	150,06	0,00966	
17,80	-0,2956	82,05	150,06	0,00963	
17,82	-0,2945	82,00	150,06	0,00969	
17,84	-0,2933	82,07	150,06	0,00982	
17,86	-0,2920	82,09	150,06	0,00995	
17,88	-0,2906	82,10	150,06	0,00994	
17,90	-0,2893	82,10	150,05	0,00982	
17,92	-0,2879	82,04	150,06	0,00968	
17,94	-0,2866	82,07	150,06	0,00963	
17,96	-0,2852	82,13	150,06	0,00966	
17,98	-0,2839	82,09	150,06	0,00975	
18,00	-0,2826	81,83	150,06	0,00987	
18,02	-0,2812	80,56	150,06	0,00989	
18,04	-0,2799	79,33	150,05	0,00986	
18,06	-0,2785	78,84	150,05	0,00977	
18,08	-0,2772	78,74	150,06	0,00967	
18,10	-0,2759	78,74	150,06	0,00966	
18,12	-0,2745	78,73	150,05	0,00973	
18,14	-0,2733	78,76	150,06	0,00979	
18,16	-0,2722	78,78	150,06	0,00980	
18,18	-0,2708	78,77	150,06	0,00983	
18,20	-0,2692	78,76	150,05	0,00980	
18,22	-0,2678	78,74	150,06	0,00969	
18,24	-0,2664	78,72	150,06	0,00960	
18,26	-0,2651	78,70	150,06	0,00960	
18,28	-0,2638	78,71	150,06	0,00970	
18,30	-0,2624	78,72	150,06	0,00981	
18,32	-0,2610	78,73	150,06	0,00986	
18,34	-0,2597	78,78	150,05	0,00977	
18,36	-0,2584	78,72	150,06	0,00963	
18,38	-0,2570	78,68	150,06	0,00959	
18,40	-0,2557	78,72	150,06	0,00970	
18,42	-0,2543	78,72	150,05	0,00982	
18,44	-0,2530	78,70	150,06	0,00986	
18,46	-0,2516	78,73	150,06	0,00986	
18,48	-0,2503	78,73	150,06	0,00978	
18,50	-0,2490	78,76	150,06	0,00971	
18,52	-0,2476	78,60	150,06	0,00967	
18,54	-0,2461	77,35	150,06	0,00964	
18,56	-0,2445	76,01	150,06	0,00972	
18,58	-0,2430	75,44	150,06	0,00982	
18,60	-0,2416	75,29	150,06	0,00991	
18,62	-0,2403	75,21	150,06	0,00991	
18,64	-0,2389	75,25	150,05	0,00973	
18,66	-0,2376	75,28	150,06	0,00960	
18,68	-0,2362	75,14	150,06	0,00965	
18,70	-0,2349	73,85	150,06	0,00977	
18,72	-0,2336	72,49	150,05	0,00986	
18,74	-0,2322	71,98	150,06	0,00994	
18,76	-0,2308	71,95	150,06	0,00998	
18,78	-0,2292	71,98	150,05	0,00988	
18,80	-0,2276	71,97	150,05	0,00975	
18,82	-0,2262	71,90	150,06	0,00969	
18,84	-0,2248	71,86	150,06	0,00966	
18,86	-0,2235	71,89	150,05	0,00973	
18,88	-0,2220	71,92	150,06	0,00991	
18,90	-0,2203	71,87	150,06	0,00999	
18,92	-0,2188	71,83	150,06	0,00996	
18,94	-0,2174	71,86	150,06	0,00983	
18,96	-0,2161	71,91	150,06	0,00977	
18,98	-0,2147	71,92	150,05	0,00982	
19,00	-0,2131	71,89	150,05	0,00987	
19,02	-0,2115	71,91	150,05	0,00987	
19,04	-0,2100	71,92	150,05	0,00987	
19,06	-0,2087	71,26	150,05	0,00988	
19,08	-0,2072	69,73	150,05	0,00979	
19,10	-0,2056	68,81	150,05	0,00966	
19,12	-0,2041	68,61	150,05	0,00963	
19,14	-0,2027	68,56	150,05	0,00970	
19,16	-0,2012	68,51	150,06	0,00979	
19,18	-0,1995	68,50	150,05	0,00986	
19,20	-0,1980	68,54	150,05	0,00988	
19,22	-0,1966	68,62	150,06	0,00981	
19,24	-0,1951	68,64	150,06	0,00967	
19,26	-0,1935	68,61	150,05	0,00961	
19,28	-0,1920	68,55	150,05	0,00968	
19,30	-0,1905	68,53	150,05	0,00982	
19,32	-0,1889	68,60	150,05	0,00994	
19,34	-0,1873	68,71	150,05	0,00997	
19,36	-0,1858	68,69	150,06	0,00991	
19,38	-0,1842	68,59	150,06	0,00973	
19,40	-0,1826	68,54	150,05	0,00963	
19,42	-0,1811	68,52	150,06	0,00968	
19,44	-0,1796	68,52	150,08	0,00976	
19,46	-0,1780	68,33	150,25	0,00980	
19,48	-0,1765	67,08	150,69	0,00987	
19,50	-0,1750	65,71	151,27	0,00979	
19,52	-0,1735	65,23	152,07	0,00965	
19,54	-0,1718	65,15	153,19	0,00963	
19,56	-0,1702	65,11	154,86	0,00964	
19,58	-0,1686	65,09	157,27	0,00966	
19,60	-0,1670	64,99	159,44	0,00978	
19,62	-0,1655	63,76	160,95	0,00992	
19,64	-0,1639	62,38	162,16	0,00996	
19,66	-0,1623	61,81	163,36	0,00983	
19,68	-0,1607	61,77	164,75	0,00964	
19,70	-0,1591	61,80	166,45	0,00961	
19,72	-0,1575	61,80	168,29	0,00967	
19,74	-0,1558	61,83	170,11	0,00976	
19,76	-0,1543	61,85	171,60	0,00986	
19,78	-0,1526	61,81	172,89	0,00991	
19,80	-0,1510	61,74	174,02	0,00988	
19,82	-0,1493	61,75	174,99	0,00978	
19,84	-0,1477	61,79	175,80	0,00966	
19,86	-0,1461	61,79	176,85	0,00964	
19,88	-0,1444	61,83	178,23	0,00976	
19,90	-0,1428	61,83	179,75	0,00993	
19,92	-0,1412	61,78	181,12	0,00997	
19,94	-0,1396	61,73	182,38	0,00985	
19,96	-0,1379	61,11	183,52	0,00970	
19,98	-0,1362	59,65	184,68	0,00969	
20,00	-0,1345	58,75	185,96	0,00973	
20,02	-0,1329	58,50	187,43	0,00976	
20,04	-0,1312	58,45	188,93	0,00978	
20,06	-0,1295	58,40	190,35	0,00982	
20,08	-0,1278	58,31	191,84	0,00990	
20,10	-0,1260	58,32	193,36	0,00993	
20,12	-0,1243	58,42	194,75	0,00986	
20,14	-0,1226	58,51	196,02	0,00973	
20,16	-0,1209	58,56	197,27	0,00974	
20,18	-0,1191	58,60	198,61	0,00982	
20,20	-0,1174	58,61	200,00	0,00989	
20,22	-0,1157	58,54	201,43	0,00994	
20,24	-0,1139	58,48	202,93	0,00990	
20,26	-0,1122	57,89	204,38	0,00980	
20,28	-0,1105	56,33	205,78	0,00970	
20,30	-0,1088	55,27	207,17	0,00967	
20,32	-0,1070	55,04	208,54	0,00971	
20,34	-0,1053	55,08	209,91	0,00984	
20,36	-0,1036	55,10	211,29	0,00996	
20,38	-0,1018	55,00	212,73	0,00994	
20,40	-0,1000	53,77	214,15	0,00978	
20,42	-0,09825	52,38	215,53	0,00968	
20,44	-0,09656	51,76	216,89	0,00966	
20,46	-0,09486	51,66	218,20	0,00969	
20,48	-0,09309	51,68	219,52	0,00977	
20,50	-0,09130	51,75	220,88	0,00988	
20,52	-0,08948	51,81	222,29	0,00992	
20,54	-0,08758	51,79	223,67	0,00985	
20,56	-0,08572	51,74	225,07	0,00976	
20,58	-0,08391	51,76	226,50	0,00966	
20,60	-0,08212	51,84	227,94	0,00966	
20,62	-0,08034	51,81	229,35	0,00975	
20,64	-0,07855	51,75	230,72	0,00984	
20,66	-0,07676	51,75	232,13	0,00995	
20,68	-0,07498	51,17	233,57	0,00997	
20,70	-0,07310	49,72	235,01	0,00985	
20,72	-0,07122	48,75	236,47	0,00976	
20,74	-0,06941	48,50	237,93	0,00974	
20,76	-0,06763	48,48	239,41	0,00979	
20,78	-0,06575	48,48	240,87	0,00990	
20,80	-0,06385	48,45	242,29	0,00996	
20,82	-0,06200	48,38	243,69	0,00997	
20,84	-0,06021	48,37	245,12	0,00990	
20,86	-0,05834	48,41	246,57	0,00977	
20,88	-0,05645	48,44	248,04	0,00970	
20,90	-0,05460	48,46	249,49	0,00970	
20,92	-0,05268	48,50	250,96	0,00977	
20,94	-0,05071	48,49	252,45	0,00989	
20,96	-0,04882	48,45	253,91	0,00995	
20,98	-0,04690	48,41	255,35	0,00992	
21,00	-0,04501	47,79	256,80	0,00979	
21,02	-0,04316	46,26	258,27	0,00971	
21,04	-0,04127	45,31	260,13	0,00970	
21,06	-0,03941	45,11	264,11	0,00979	
21,08	-0,03751	45,12	268,41	0,00989	
21,10	-0,03553	44,97	271,17	0,00994	
21,12	-0,03362	43,72	272,99	0,00991	
21,14	-0,03177	42,33	274,47	0,00983	
21,16	-0,02984	41,73	275,90	0,00974	
21,18	-0,02788	41,63	277,42	0,00970	
21,20	-0,02603	41,67	278,89	0,00973	
21,22	-0,02413	41,66	280,26	0,00983	
21,24	-0,02211	41,52	281,75	0,00992	
21,26	-0,01998	41,16	283,14	0,00991	
21,28	-0,01794	45,11	283,92	0,00985	
21,30	-0,01601	55,42	284,17	0,00978	
21,32	-0,01411	68,93	284,16	0,00976	
21,34	-0,01226	82,49	284,19	0,00978	
21,36	-0,01070	94,45	284,46	0,00984	
21,38	-0,00954	101,75	285,04	0,00995	
21,40	-0,00852	101,50	285,90	0,00996	
21,42	-0,00754	98,60	286,76	0,00986	
21,44	-0,00659	99,13	287,34	0,00968	
21,46	-0,00567	104,49	287,84	0,00956	
21,48	-0,00453	108,95	288,51	0,00965	
21,50	-0,00347	111,56	289,27	0,00986	
21,52	-0,00264	113,04	290,01	0,00997	
21,54	-0,00192	112,12	290,72	0,01000	
21,56	-0,00125	108,63	291,34	0,00991	
21,58	-0,00050	108,32	291,85	0,00979	
21,60	0,00038	108,97	292,52	0,00972	
21,62	0,00132	107,69	293,47	0,00971	
21,64	0,00210	106,30	294,24	0,00979	
21,66	0,00272	106,36	294,75	0,00990	
21,68	0,00345	103,45	295,46	0,00996	
21,70	0,00443	100,11	296,26	0,00992	
21,72	0,00531	101,59	296,81	0,00978	
21,74	0,00599	104,67	297,26	0,00967	
21,76	0,00672	103,91	298,02	0,00962	
21,78	0,00766	99,81	298,99	0,00964	
21,80	0,00850	96,83	299,79	0,00981	
21,82	0,00910	96,41	300,27	0,00994	
21,84	0,00981	95,56	300,79	0,00998	
21,86	0,01070	93,51	301,52	0,00992	
21,88	0,01146	92,35	302,28	0,00980	
21,90	0,01210	90,69	303,09	0,00975	
21,92	0,01274	87,38	303,86	0,00973	
21,94	0,01340	85,33	304,41	0,00979	
21,96	0,01408	85,90	304,90	0,00989	
21,98	0,01497	85,77	305,60	0,00993	
22,00	0,01582	84,04	306,43	0,00990	
22,02	0,01654	82,53	307,14	0,00980	
22,04	0,01711	83,37	307,63	0,00965	
22,06	0,01788	82,45	308,29	0,00963	
22,08	0,01883	80,34	309,21	0,00978	
22,10	0,01959	80,95	309,95	0,00990	
22,12	0,02012	85,20	310,38	0,00997	
22,14	0,02079	86,40	310,98	0,01001	
22,16	0,02173	83,77	311,88	0,00990	
22,18	0,02256	82,61	312,68	0,00973	
22,20	0,02319	84,05	313,22	0,00973	
22,22	0,02382	83,55	313,80	0,00978	
22,24	0,02465	81,15	314,58	0,00989	
22,26	0,02538	81,83	315,26	0,00996	
22,28	0,02592	84,20	315,84	0,01003	
22,30	0,02661	81,49	316,66	0,01002	
22,32	0,02740	77,27	317,47	0,00983	
22,34	0,02816	78,65	317,98	0,00966	
22,36	0,02883	81,97	318,41	0,00964	
22,38	0,02956	80,83	319,22	0,00971	
22,40	0,03036	78,02	320,29	0,00984	
22,42	0,03106	77,06	321,02	0,00992	
22,44	0,03156	78,26	321,42	0,00990	
22,46	0,03223	78,62	321,99	0,00976	
22,48	0,03311	76,75	322,74	0,00961	
22,50	0,03391	75,75	323,48	0,00966	
22,52	0,03445	75,94	324,05	0,00975	
22,54	0,03497	74,60	324,66	0,00976	
22,56	0,03570	70,13	325,56	0,00981	
22,58	0,03641	67,45	326,43	0,00991	
22,60	0,03704	68,39	327,03	0,00989	
22,62	0,03760	71,13	327,49	0,00973	
22,64	0,03828	71,53	328,12	0,00963	
22,66	0,03922	68,96	329,07	0,00968	
22,68	0,04006	67,20	329,90	0,00981	
22,70	0,04050	67,95	330,41	0,00992	
22,72	0,04100	67,99	330,92	0,00985	
22,74	0,04183	65,95	331,63	0,00985	
22,76	0,04270	65,36	332,45	0,00978	
22,78	0,04341	66,48	333,11	0,00967	
22,80	0,04399	67,10	333,66	0,00968	
22,82	0,04473	65,64	334,33	0,00980	
22,84	0,04563	64,77	335,13	0,00991	
22,86	0,04641	65,39	335,87	0,00994	
22,88	0,04704	66,13	336,49	0,00988	
22,90	0,04771	65,26	337,12	0,00977	
22,92	0,04856	65,01	337,81	0,00975	
22,94	0,04941	65,60	338,56	0,00973	
22,96	0,05007	68,03	339,17	0,00980	
22,98	0,05067	69,75	339,77	0,00986	
23,00	0,05142	67,38	340,62	0,00996	
23,02	0,05214	65,46	341,49	0,00997	
23,04	0,05277	67,52	342,08	0,00986	
23,06	0,05342	69,83	342,54	0,00975	
23,08	0,05430	68,22	343,27	0,00972	
23,10	0,05516	65,91	344,12	0,00977	
23,12	0,05579	67,57	344,76	0,00987	
23,14	0,05641	68,74	345,32	0,00987	
23,16	0,05710	66,95	345,99	0,00987	
23,18	0,05783	65,50	346,76	0,00985	
23,20	0,05849	67,12	347,48	0,00974	
23,22	0,05912	67,85	348,10	0,00967	
23,24	0,05976	67,13	348,72	0,00967	
23,26	0,06048	65,22	349,48	0,00976	
23,28	0,06118	64,68	350,23	0,00992	
23,30	0,06183	65,71	350,87	0,00995	
23,32	0,06244	66,61	351,43	0,00985	
23,34	0,06314	66,36	352,16	0,00976	
23,36	0,06390	65,49	352,98	0,00972	
23,38	0,06450	66,50	353,63	0,00974	
23,40	0,06517	65,51	354,30	0,00982	
23,42	0,06589	63,30	355,00	0,00993	
23,44	0,06651	63,67	355,62	0,00996	
23,46	0,06716	65,24	356,27	0,00995	
23,48	0,06788	64,47	356,98	0,00989	
23,50	0,06854	64,15	357,66	0,00973	
23,52	0,06916	65,85	358,30	0,00965	
23,54	0,06985	65,91	359,01	0,00974	
23,56	0,07062	64,58	359,80	0,00994	
23,58	0,07123	65,95	360,45	0,01004	
23,60	0,07185	67,88	361,03	0,01010	
23,62	0,07257	67,28	361,76	0,01001	
23,64	0,07326	65,93	362,52	0,00982	
23,66	0,07391	66,91	363,18	0,00975	
23,68	0,07456	67,82	363,78	0,00976	
23,70	0,07525	67,19	364,46	0,00985	
23,72	0,07594	66,37	365,20	0,00992	
23,74	0,07663	66,26	365,91	0,00989	
23,76	0,07724	67,72	366,52	0,00992	
23,78	0,07788	68,50	367,16	0,00989	
23,80	0,07863	67,77	367,97	0,00974	
23,82	0,07933	67,91	368,74	0,00971	
23,84	0,07993	69,75	369,33	0,00979	
23,86	0,08058	70,42	369,92	0,00990	
23,88	0,08133	68,92	370,68	0,00996	
23,90	0,08197	69,11	371,39	0,00996	
23,92	0,08262	70,24	372,04	0,00991	
23,94	0,08335	70,12	372,76	0,00980	
23,96	0,08397	70,62	373,44	0,00978	
23,98	0,08460	73,22	374,07	0,00982	
24,00	0,08526	75,70	374,71	0,00991	
24,02	0,08595	76,44	375,43	0,01000	
24,04	0,08658	76,75	376,21	0,01004	
24,06	0,08709	78,41	376,85	0,00991	
24,08	0,08762	79,82	377,43	0,00974	
24,10	0,08832	79,25	378,18	0,00971	
24,12	0,08900	78,26	378,91	0,00972	
24,14	0,08946	80,13	379,54	0,00978	
24,16	0,09002	80,81	380,25	0,00991	
24,18	0,09069	79,76	380,98	0,00998	
24,20	0,09123	81,97	381,62	0,00997	
24,22	0,09174	84,42	382,28	0,00990	
24,24	0,09235	84,20	382,98	0,00975	
24,26	0,09287	83,62	383,67	0,00974	
24,28	0,09342	83,77	384,37	0,00985	
24,30	0,09395	84,12	385,01	0,00993	
24,32	0,09441	84,56	385,63	0,00995	
24,34	0,09505	83,59	386,43	0,00997	
24,36	0,09558	82,65	387,19	0,00992	
24,38	0,09606	84,16	387,79	0,00979	
24,40	0,09659	84,59	388,43	0,00976	
24,42	0,09716	82,35	389,22	0,00977	
24,44	0,09775	82,05	389,94	0,00984	
24,46	0,09816	84,68	390,50	0,00998	
24,48	0,09872	84,95	391,17	0,01003	
24,50	0,09941	83,79	391,90	0,00994	
24,52	0,09994	84,54	392,56	0,00978	
24,54	0,1004	85,75	393,20	0,00968	
24,56	0,1009	83,80	393,97	0,00971	
24,58	0,1015	82,15	394,72	0,00989	
24,60	0,1020	83,52	395,36	0,00999	
24,62	0,1025	85,49	395,97	0,01001	
24,64	0,1031	85,19	396,67	0,00999	
24,66	0,1036	84,86	397,39	0,00982	
24,68	0,1040	86,31	398,01	0,00970	
24,70	0,1045	87,14	398,64	0,00965	
24,72	0,1051	85,50	399,43	0,00976	
24,74	0,1058	85,08	400,18	0,00991	
24,76	0,1063	87,24	400,81	0,01000	
24,78	0,1067	87,81	401,46	0,01006	
24,80	0,1072	86,25	402,14	0,00994	
24,82	0,1078	85,90	402,81	0,00977	
24,84	0,1083	86,80	403,49	0,00972	
24,86	0,1087	86,37	404,17	0,00973	
24,88	0,1092	86,13	404,87	0,00985	
24,90	0,1098	86,30	405,57	0,00995	
24,92	0,1103	86,92	406,25	0,01002	
24,94	0,1108	87,50	406,90	0,01001	
24,96	0,1114	87,59	407,60	0,00990	
24,98	0,1119	87,54	408,31	0,00982	
25,00	0,1123	87,44	409,01	0,00982	
25,02	0,1129	87,48	409,72	0,00981	
25,04	0,1134	87,53	410,41	0,00981	
25,06	0,1139	88,12	411,07	0,00990	
25,08	0,1145	89,19	411,74	0,01001	
25,10	0,1150	89,75	412,43	0,00996	
25,12	0,1155	89,91	413,11	0,00985	
25,14	0,1159	89,98	413,77	0,00978	
25,16	0,1163	89,83	414,47	0,00977	
25,18	0,1169	89,82	415,13	0,00984	
25,20	0,1174	89,97	415,81	0,00991	
25,22	0,1179	89,89	416,54	0,00994	
25,24	0,1184	90,46	417,24	0,00990	
25,26	0,1189	91,59	417,90	0,00977	
25,28	0,1194	91,61	418,58	0,00972	
25,30	0,1199	91,21	419,28	0,00974	
25,32	0,1204	91,68	419,94	0,00986	
25,34	0,1208	91,65	420,61	0,01000	
25,36	0,1213	91,12	421,33	0,01005	
25,38	0,1219	91,07	422,01	0,00999	
25,40	0,1224	91,82	422,66	0,00990	
25,42	0,1228	91,49	423,39	0,00983	
25,44	0,1233	91,13	424,10	0,00977	
25,46	0,1237	91,83	424,76	0,00975	
25,48	0,1242	92,68	425,44	0,00981	
25,50	0,1247	93,12	426,11	0,00989	
25,52	0,1252	93,26	426,80	0,00994	
25,54	0,1258	93,15	427,53	0,00994	
25,56	0,1262	93,37	428,17	0,00983	
25,58	0,1266	94,14	428,81	0,00973	
25,60	0,1271	93,67	429,54	0,00980	
25,62	0,1276	92,94	430,27	0,00985	
25,64	0,1280	93,45	430,93	0,00991	
25,66	0,1284	94,04	431,60	0,00996	
25,68	0,1290	93,00	432,34	0,01000	
25,70	0,1296	92,67	433,03	0,00989	
25,72	0,1300	93,78	433,65	0,00972	
25,74	0,1304	94,37	434,31	0,00968	
25,76	0,1309	94,39	435,01	0,00983	
25,78	0,1314	94,41	435,70	0,00994	
25,80	0,1318	94,39	436,37	0,00999	
25,82	0,1322	93,27	437,03	0,00997	
25,84	0,1327	92,52	437,72	0,00986	
25,86	0,1333	93,46	438,40	0,00973	
25,88	0,1338	94,61	439,11	0,00976	
25,90	0,1343	94,15	439,84	0,00981	
25,92	0,1347	94,06	440,52	0,00989	
25,94	0,1352	95,29	441,18	0,00995	
25,96	0,1357	95,91	441,86	0,01000	
25,98	0,1362	95,88	442,54	0,00992	
26,00	0,1367	96,29	443,20	0,00980	
26,02	0,1372	96,06	443,89	0,00978	
26,04	0,1376	95,11	444,59	0,00984	
26,06	0,1380	94,75	445,24	0,00994	
26,08	0,1385	95,15	445,92	0,00999	
26,10	0,1390	94,80	446,66	0,01003	
26,12	0,1394	95,07	447,34	0,01005	
26,14	0,1399	95,87	448,03	0,00996	
26,16	0,1404	95,26	448,72	0,00982	
26,18	0,1409	95,11	449,36	0,00974	
26,20	0,1414	95,07	450,05	0,00981	
26,22	0,1419	94,27	450,77	0,00993	
26,24	0,1423	94,89	451,43	0,01001	
26,26	0,1428	95,99	452,09	0,01001	
26,28	0,1434	96,08	452,78	0,00990	
26,30	0,1438	95,94	453,47	0,00971	
26,32	0,1443	96,17	454,19	0,00965	
26,34	0,1448	95,99	454,88	0,00969	
26,36	0,1452	95,87	455,54	0,00983	
26,38	0,1456	96,21	456,21	0,00999	
26,40	0,1461	96,08	456,90	0,01006	
26,42	0,1466	95,82	457,59	0,01002	
26,44	0,1470	96,73	458,26	0,00989	
26,46	0,1475	96,89	458,96	0,00971	
26,48	0,1479	96,09	459,68	0,00971	
26,50	0,1484	96,76	460,34	0,00985	
26,52	0,1490	97,49	461,00	0,00997	
26,54	0,1495	97,15	461,70	0,01005	
26,56	0,1499	96,92	462,39	0,01005	
26,58	0,1503	97,33	463,05	0,00995	
26,60	0,1508	97,22	463,72	0,00985	
26,62	0,1512	96,73	464,41	0,00978	
26,64	0,1517	96,40	465,12	0,00975	
26,66	0,1522	96,46	465,80	0,00988	
26,68	0,1526	96,63	466,48	0,00999	
26,70	0,1530	96,53	467,17	0,00995	
26,72	0,1535	96,64	467,84	0,00989	
26,74	0,1539	97,46	468,49	0,00982	
26,76	0,1545	97,16	469,21	0,00976	
26,78	0,1551	96,68	469,93	0,00974	
26,80	0,1555	97,23	470,60	0,00988	
26,82	0,1560	97,57	471,27	0,01002	
26,84	0,1564	97,16	471,95	0,01001	
26,86	0,1569	96,72	472,65	0,01002	
26,88	0,1573	95,89	473,37	0,01002	
26,90	0,1578	94,87	474,06	0,00989	
26,92	0,1582	95,16	474,70	0,00986	
26,94	0,1586	95,55	475,37	0,00988	
26,96	0,1591	95,43	476,08	0,00997	
26,98	0,1596	95,89	476,76	0,01006	
27,00	0,1600	96,36	477,43	0,01007	
27,02	0,1604	95,29	478,10	0,01001	
27,04	0,1609	93,82	478,80	0,00992	
27,06	0,1613	93,24	479,47	0,00986	
27,08	0,1617	93,69	480,12	0,00981	
27,10	0,1622	94,00	480,81	0,00991	
27,12	0,1628	93,42	481,57	0,01007	
27,14	0,1633	93,68	482,26	0,01007	
27,16	0,1638	94,77	482,91	0,01002	
27,18	0,1643	94,88	483,57	0,00991	
27,20	0,1647	94,40	484,28	0,00974	
27,22	0,1651	94,18	484,96	0,00976	
27,24	0,1656	94,39	485,63	0,00980	
27,26	0,1660	94,25	486,35	0,00985	
27,28	0,1665	94,32	487,04	0,00991	
27,30	0,1670	95,10	487,69	0,00993	
27,32	0,1674	94,75	488,39	0,00988	
27,34	0,1679	93,67	489,07	0,00977	
27,36	0,1683	93,16	489,76	0,00969	
27,38	0,1687	92,97	490,45	0,00974	
27,40	0,1693	92,37	491,10	0,00984	
27,42	0,1698	92,45	491,77	0,00995	
27,44	0,1703	92,28	492,49	0,00999	
27,46	0,1708	91,44	493,21	0,00999	
27,48	0,1712	91,58	493,88	0,00996	
27,50	0,1716	91,60	494,53	0,00984	
27,52	0,1721	91,10	495,22	0,00978	
27,54	0,1726	90,89	495,90	0,00979	
27,56	0,1731	91,53	496,56	0,00990	
27,58	0,1737	91,56	497,30	0,00994	
27,60	0,1741	91,25	497,97	0,00993	
27,62	0,1745	92,38	498,58	0,00986	
27,64	0,1750	92,11	499,34	0,00976	
27,66	0,1755	90,73	500,07	0,00972	
27,68	0,1759	91,73	500,70	0,00976	
27,70	0,1764	91,54	501,41	0,00991	
27,72	0,1770	89,36	502,11	0,01006	
27,74	0,1775	90,08	502,75	0,01010	
27,76	0,1779	90,80	503,43	0,01001	
27,78	0,1784	89,87	504,12	0,00985	
27,80	0,1790	90,22	504,80	0,00974	
27,82	0,1795	90,99	505,48	0,00981	
27,84	0,1799	91,30	506,14	0,00993	
27,86	0,1804	91,75	506,83	0,00999	
27,88	0,1809	91,44	507,55	0,01003	
27,90	0,1814	91,75	508,19	0,01000	
27,92	0,1819	92,59	508,86	0,00994	
27,94	0,1824	91,91	509,60	0,00982	
27,96	0,1829	91,86	510,27	0,00972	
27,98	0,1833	92,51	510,97	0,00977	
28,00	0,1838	91,38	511,69	0,00995	
28,02	0,1843	90,97	512,32	0,01001	
28,04	0,1848	91,40	513,01	0,01003	
28,06	0,1854	90,65	513,75	0,00999	
28,08	0,1857	90,92	514,37	0,00987	
28,10	0,1862	91,32	515,10	0,00978	
28,12	0,1868	89,89	515,85	0,00987	
28,14	0,1872	90,22	516,45	0,01009	
28,16	0,1877	91,06	517,14	0,01017	
28,18	0,1882	89,62	517,84	0,01013	
28,20	0,1887	90,12	518,44	0,01001	
28,22	0,1893	90,52	519,20	0,00987	
28,24	0,1898	89,04	519,93	0,00980	
28,26	0,1902	89,90	520,53	0,00977	
28,28	0,1907	90,47	521,25	0,00975	
28,30	0,1912	88,12	521,96	0,00981	
28,32	0,1917	88,08	522,57	0,00985	
28,34	0,1922	88,55	523,29	0,00990	
28,36	0,1927	86,61	524,01	0,00991	
28,38	0,1931	86,18	524,63	0,00988	
28,40	0,1937	86,84	525,29	0,00987	
28,42	0,1942	86,28	525,98	0,00992	
28,44	0,1948	86,33	526,66	0,00996	
28,46	0,1953	86,96	527,37	0,00998	
28,48	0,1959	86,80	528,07	0,01002	
28,50	0,1964	86,66	528,72	0,00997	
28,52	0,1969	86,53	529,39	0,00984	
28,54	0,1974	85,86	530,10	0,00977	
28,56	0,1980	85,93	530,79	0,00977	
28,58	0,1985	86,34	531,45	0,00984	
28,60	0,1990	85,55	532,19	0,00995	
28,62	0,1995	84,71	532,86	0,01003	
28,64	0,2001	85,78	533,46	0,00993	
28,66	0,2007	85,22	534,22	0,00977	
28,68	0,2012	83,93	534,96	0,00972	
28,70	0,2017	85,27	535,59	0,00972	
28,72	0,2023	84,91	536,34	0,00977	
28,74	0,2028	83,32	537,01	0,00988	
28,76	0,2034	84,74	537,59	0,00997	
28,78	0,2041	84,66	538,35	0,00998	
28,80	0,2046	82,13	539,05	0,00987	
28,82	0,2051	82,03	539,67	0,00979	
28,84	0,2057	81,28	540,45	0,00973	
28,86	0,2062	79,37	541,13	0,00975	
28,88	0,2067	80,43	541,76	0,00986	
28,90	0,2073	80,34	542,52	0,01000	
28,92	0,2078	79,00	543,15	0,01007	
28,94	0,2084	79,76	543,76	0,00995	
28,96	0,2090	79,56	544,48	0,00980	
28,98	0,2095	78,72	545,09	0,00971	
29,00	0,2102	79,56	545,76	0,00978	
29,02	0,2109	78,03	546,61	0,00992	
29,04	0,2115	76,77	547,25	0,00998	
29,06	0,2121	77,92	547,89	0,00996	
29,08	0,2127	76,36	548,65	0,00990	
29,10	0,2132	75,00	549,26	0,00982	
29,12	0,2138	75,33	549,92	0,00974	
29,14	0,2146	73,18	550,66	0,00975	
29,16	0,2152	71,68	551,25	0,00985	
29,18	0,2157	72,39	551,95	0,00989	
29,20	0,2163	70,73	552,76	0,00996	
29,22	0,2169	69,90	553,40	0,00998	
29,24	0,2176	70,60	554,08	0,00989	
29,26	0,2183	69,30	554,78	0,00976	
29,28	0,2188	69,37	555,32	0,00974	
29,30	0,2195	69,84	556,04	0,00987	
29,32	0,2203	66,83	556,92	0,00996	
29,34	0,2209	65,36	557,57	0,01003	
29,36	0,2216	66,11	558,16	0,01010	
29,38	0,2223	63,74	558,86	0,00996	
29,40	0,2229	61,59	559,53	0,00974	
29,42	0,2236	61,88	560,17	0,00969	
29,44	0,2243	61,21	560,83	0,00978	
29,46	0,2249	60,31	561,50	0,00994	
29,48	0,2256	59,58	562,25	0,01001	
29,50	0,2263	58,96	562,88	0,01005	
29,52	0,2271	59,42	563,48	0,01001	
29,54	0,2279	57,60	564,34	0,00991	
29,56	0,2287	55,11	565,12	0,00980	
29,58	0,2293	55,29	565,72	0,00979	
29,60	0,2300	53,00	566,45	0,00991	
29,62	0,2307	50,56	567,06	0,01003	
29,64	0,2312	51,71	567,61	0,01006	
29,66	0,2321	50,14	568,50	0,01006	
29,68	0,2329	45,83	569,34	0,00999	
29,70	0,2336	45,70	569,87	0,00988	
29,72	0,2343	45,40	570,44	0,00983	
29,74	0,2352	41,53	571,19	0,00988	
29,76	0,2360	39,99	571,80	0,00991	
29,78	0,2367	41,50	572,36	0,00993	
29,80	0,2376	39,02	573,17	0,01002	
29,82	0,2386	35,84	573,92	0,01001	
29,84	0,2393	37,35	574,44	0,00985	
29,86	0,2401	36,60	575,25	0,00968	
29,88	0,2411	32,08	576,20	0,00972	
29,90	0,2417	30,82	576,78	0,00985	
29,92	0,2424	31,31	577,26	0,00994	
29,94	0,2433	26,95	578,04	0,01000	
29,96	0,2442	22,60	578,75	0,01000	
29,98	0,2450	24,47	579,10	0,00988	
30,00	0,2458	24,69	579,71	0,00975	
30,02	0,2469	18,98	580,93	0,00974	
30,04	0,2480	14,76	581,94	0,00986	
30,06	0,2487	16,66	582,20	0,01000	
30,08	0,2494	17,78	582,43	0,01005	
30,10	0,2506	12,94	583,41	0,01002	
30,12	0,2518	8,466	584,63	0,00989	
30,14	0,2526	8,677	585,16	0,00981	
30,16	0,2533	10,70	585,25	0,00978	
30,18	0,2543	7,993	585,86	0,00977	
30,20	0,2555	3,078	587,12	0,00983	
30,22	0,2567	2,012	588,05	0,00996	
30,24	0,2575	4,256	588,27	0,01003	
30,26	0,2583	2,324	588,64	0,00998	
30,28	0,2595	-3,806	589,71	0,00983	
30,30	0,2607	-6,530	590,75	0,00975	
30,32	0,2616	-4,260	591,08	0,00980	
30,34	0,2626	-3,152	591,17	0,00986	
30,36	0,2638	-7,288	591,90	0,00993	
30,38	0,2650	-11,42	593,27	0,00999	
30,40	0,2661	-13,51	594,46	0,00994	
30,42	0,2670	-13,25	594,97	0,00986	
30,44	0,2681	-15,77	595,31	0,00975	
30,46	0,2694	-18,79	595,76	0,00974	
30,48	0,2707	-17,63	596,30	0,00988	
30,50	0,2718	-16,12	597,08	0,01004	
30,52	0,2730	-19,35	597,93	0,01008	
30,54	0,2741	-20,97	598,50	0,01002	
30,56	0,2754	-20,66	599,15	0,00988	
30,58	0,2767	-23,32	600,06	0,00976	
30,60	0,2777	-24,07	600,71	0,00980	
30,62	0,2788	-22,35	601,16	0,00993	
30,64	0,2801	-23,90	601,88	0,01000	
30,66	0,2815	-27,33	602,70	0,01005	
30,68	0,2828	-25,34	603,18	0,01003	
30,70	0,2838	-23,00	603,73	0,00999	
30,72	0,2850	-26,38	604,78	0,00988	
30,74	0,2863	-29,00	605,71	0,00973	
30,76	0,2875	-26,23	606,02	0,00979	
30,78	0,2887	-23,75	606,33	0,00984	
30,80	0,2902	-26,46	607,30	0,00989	
30,82	0,2917	-30,42	608,55	0,01000	
30,84	0,2929	-28,82	609,17	0,01000	
30,86	0,2937	-24,39	609,28	0,00992	
30,88	0,2948	-24,36	609,86	0,00979	
30,90	0,2963	-27,70	611,07	0,00974	
30,92	0,2977	-27,94	612,03	0,00980	
30,94	0,2987	-23,75	612,31	0,00994	
30,96	0,2996	-21,93	612,73	0,01003	
30,98	0,3010	-25,25	613,79	0,01005	
31,00	0,3024	-24,70	614,77	0,00992	
31,02	0,3035	-18,67	615,11	0,00976	
31,04	0,3044	-14,60	615,34	0,00974	
31,06	0,3056	-16,76	616,24	0,00978	
31,08	0,3071	-18,04	617,50	0,00993	
31,10	0,3083	-14,07	618,21	0,01007	
31,12	0,3092	-8,074	618,46	0,01001	
31,14	0,3103	-6,775	619,04	0,00992	
31,16	0,3117	-6,889	619,89	0,00987	
31,18	0,3128	-1,684	620,53	0,00985	
31,20	0,3138	2,319	621,14	0,00987	
31,22	0,3149	1,920	621,81	0,00996	
31,24	0,3158	3,924	622,45	0,01007	
31,26	0,3169	9,206	623,14	0,01008	
31,28	0,3180	12,69	623,84	0,00993	
31,30	0,3188	15,45	624,48	0,00979	
31,32	0,3198	18,16	625,20	0,00972	
31,34	0,3207	20,31	625,88	0,00980	
31,36	0,3215	24,15	626,49	0,00993	
31,38	0,3225	26,76	627,26	0,00998	
31,40	0,3233	27,78	627,99	0,00999	
31,42	0,3240	30,48	628,62	0,00999	
31,44	0,3249	32,51	629,34	0,00989	
31,46	0,3257	33,42	630,01	0,00984	
31,48	0,3265	36,01	630,66	0,00989	
31,50	0,3273	38,12	631,41	0,00995	
31,52	0,3280	39,62	632,07	0,00996	
31,54	0,3287	42,55	632,68	0,01000	
31,56	0,3296	43,68	633,43	0,00998	
31,58	0,3304	44,15	634,14	0,00987	
31,60	0,3310	46,81	634,79	0,00985	
31,62	0,3317	48,35	635,48	0,00988	
31,64	0,3324	48,50	636,15	0,00991	
31,66	0,3332	50,39	636,82	0,00998	
31,68	0,3340	51,62	637,53	0,01004	
31,70	0,3347	51,91	638,20	0,01001	
31,72	0,3354	53,61	638,86	0,00991	
31,74	0,3361	54,35	639,57	0,00983	
31,76	0,3367	54,77	640,25	0,00979	
31,78	0,3374	55,91	640,96	0,00985	
31,80	0,3381	56,36	641,67	0,00998	
31,82	0,3387	57,16	642,24	0,01009	
31,84	0,3394	57,68	642,97	0,01009	
31,86	0,3402	56,24	643,79	0,01001	
31,88	0,3408	57,64	644,39	0,00987	
31,90	0,3414	59,07	645,05	0,00985	
31,92	0,3422	56,84	645,79	0,00992	
31,94	0,3428	56,64	646,42	0,00995	
31,96	0,3433	57,72	647,11	0,00995	
31,98	0,3439	56,33	647,82	0,01000	
32,00	0,3446	56,43	648,45	0,00998	
32,02	0,3454	56,80	649,20	0,00986	
32,04	0,3462	55,75	649,85	0,00979	
32,06	0,3467	57,14	650,40	0,00985	
32,08	0,3474	57,55	651,22	0,00996	
32,10	0,3481	55,64	652,02	0,01011	
32,12	0,3487	57,18	652,62	0,01016	
32,14	0,3494	57,83	653,30	0,01012	
32,16	0,3499	55,42	653,97	0,01000	
32,18	0,3506	55,17	654,59	0,00989	
32,20	0,3513	55,51	655,34	0,00988	
32,22	0,3520	53,88	655,98	0,00992	
32,24	0,3527	54,16	656,57	0,00999	
32,26	0,3536	53,48	657,41	0,01004	
32,28	0,3542	52,33	658,16	0,00999	
32,30	0,3548	53,67	658,78	0,00987	
32,32	0,3556	53,12	659,49	0,00981	
32,34	0,3562	51,84	660,08	0,00982	
32,36	0,3568	52,81	660,70	0,00984	
32,38	0,3576	51,39	661,51	0,00996	
32,40	0,3582	49,37	662,18	0,01007	
32,42	0,3589	50,17	662,81	0,01003	
32,44	0,3596	49,14	663,54	0,00996	
32,46	0,3603	47,95	664,15	0,00986	
32,48	0,3610	48,90	664,81	0,00978	
32,50	0,3618	47,21	665,59	0,00982	
32,52	0,3625	45,13	666,23	0,00997	
32,54	0,3632	45,61	666,89	0,01007	
32,56	0,3640	45,01	667,64	0,01016	
32,58	0,3646	44,42	668,24	0,01012	
32,60	0,3652	44,41	668,96	0,00997	
32,62	0,3660	41,98	669,78	0,00988	
32,64	0,3667	40,95	670,41	0,00989	
32,66	0,3675	41,28	671,06	0,00994	
32,68	0,3683	39,53	671,74	0,01001	
32,70	0,3689	39,65	672,33	0,01014	
32,72	0,3696	40,05	673,06	0,01017	
32,74	0,3705	37,52	673,81	0,01007	
32,76	0,3712	36,84	674,39	0,00991	
32,78	0,3720	36,81	675,14	0,00979	
32,80	0,3728	34,49	675,97	0,00985	
32,82	0,3735	34,80	676,58	0,01004	
32,84	0,3742	35,72	677,18	0,01012	
32,86	0,3751	32,87	677,89	0,01013	
32,88	0,3759	31,38	678,55	0,01008	
32,90	0,3766	33,16	679,18	0,00997	
32,92	0,3774	32,03	679,89	0,00984	
32,94	0,3782	30,05	680,57	0,00981	
32,96	0,3789	31,09	681,16	0,00990	
32,98	0,3798	30,62	681,94	0,01002	
33,00	0,3807	28,41	682,73	0,01015	
33,02	0,3813	29,76	683,28	0,01009	
33,04	0,3822	30,17	683,99	0,00993	
33,06	0,3832	26,72	684,85	0,00983	
33,08	0,3839	26,58	685,48	0,00979	
33,10	0,3847	28,28	686,10	0,00984	
33,12	0,3855	26,02	686,80	0,00994	
33,14	0,3862	24,23	687,43	0,01003	
33,16	0,3871	24,54	688,13	0,01004	
33,18	0,3881	23,25	688,83	0,01003	
33,20	0,3889	23,09	689,42	0,00997	
33,22	0,3897	24,29	690,15	0,00986	
33,24	0,3906	23,28	690,90	0,00976	
33,26	0,3913	22,76	691,51	0,00980	
33,28	0,3923	22,48	692,24	0,00996	
33,30	0,3932	20,87	692,97	0,01004	
33,32	0,3940	21,09	693,57	0,00995	
33,34	0,3949	21,32	694,31	0,00983	
33,36	0,3957	19,78	695,04	0,01004	
33,38	0,3965	20,19	695,65	0,01070	
33,40	0,3974	20,09	696,33	0,01129	
33,42	0,3983	18,37	696,99	0,01156	
33,44	0,3992	18,44	697,62	0,01167	
33,46	0,4001	17,85	698,39	0,01166	
33,48	0,4011	16,02	699,08	0,01156	
33,50	0,4019	16,86	699,53	0,01144	
33,52	0,4029	17,98	699,86	0,01142	
33,54	0,4037	21,07	699,93	0,01159	
33,56	0,4046	29,36	699,78	0,01170	
33,58	0,4054	39,37	699,58	0,01168	
33,60	0,4063	45,69	699,51	0,01112	
33,62	0,4072	50,35	699,56	0,01030	
33,64	0,4078	54,71	699,59	0,00984	
33,66	0,4083	59,11	699,55	0,00976	
33,68	0,4090	63,55	699,52	0,00986	
33,70	0,4099	68,30	699,55	0,01003	
33,72	0,4105	75,09	699,61	0,01009	
33,74	0,4110	82,82	699,60	0,01009	
33,76	0,4115	89,08	699,51	0,00997	
33,78	0,4120	93,73	699,50	0,00980	
33,80	0,4125	97,03	699,62	0,00970	
33,82	0,4130	100,30	699,71	0,00983	
33,84	0,4133	104,72	699,63	0,00995	
33,86	0,4135	109,21	699,51	0,01006	
33,88	0,4139	112,14	699,48	0,01010	
33,90	0,4143	113,97	699,60	0,01002	
33,92	0,4146	115,91	699,69	0,00986	
33,94	0,4147	118,47	699,62	0,00973	
33,96	0,4149	121,11	699,51	0,00968	
33,98	0,4151	123,37	699,49	0,00976	
34,00	0,4155	124,75	699,62	0,00987	
34,02	0,4159	126,26	699,71	0,01000	
34,04	0,4160	128,21	699,65	0,00999	
34,06	0,4160	130,39	699,52	0,00985	
34,08	0,4162	132,07	699,49	0,00975	
34,10	0,4166	133,31	699,61	0,00976	
34,12	0,4167	134,51	699,70	0,00985	
34,14	0,4166	135,97	699,63	0,00993	
34,16	0,4167	137,97	699,51	0,01000	
34,18	0,4170	139,51	699,48	0,01000	
34,20	0,4172	140,77	699,60	0,00987	
34,22	0,4173	141,56	699,71	0,00976	
34,24	0,4173	142,32	699,64	0,00976	
34,26	0,4173	143,90	699,52	0,00986	
34,28	0,4176	145,41	699,49	0,00996	
34,30	0,4179	145,68	699,59	0,01001	
34,32	0,4180	145,49	699,67	0,01009	
34,34	0,4180	146,88	699,62	0,01008	
34,36	0,4179	148,85	699,50	0,00996	
34,38	0,4179	149,54	699,48	0,00984	
34,40	0,4182	149,09	699,61	0,00989	
34,42	0,4185	149,16	699,70	0,00999	
34,44	0,4186	151,01	699,62	0,01005	
34,46	0,4185	152,58	699,50	0,01010	
34,48	0,4186	152,89	699,48	0,01007	
34,50	0,4186	152,41	699,62	0,01001	
34,52	0,4187	152,08	699,71	0,00991	
34,54	0,4186	152,45	699,63	0,00982	
34,56	0,4185	152,85	699,50	0,00985	
34,58	0,4186	152,82	699,49	0,01001	
34,60	0,4189	152,29	699,64	0,01017	
34,62	0,4192	152,04	699,72	0,01019	
34,64	0,4193	152,46	699,63	0,01005	
34,66	0,4192	152,85	699,50	0,00989	
34,68	0,4193	152,80	699,49	0,00987	
34,70	0,4193	152,27	699,64	0,00991	
34,72	0,4194	152,02	699,74	0,00988	
34,74	0,4193	152,55	699,64	0,00990	
34,76	0,4192	153,61	699,50	0,00996	
34,78	0,4193	153,51	699,51	0,00998	
34,80	0,4193	152,93	699,65	0,00991	
34,82	0,4194	154,08	699,67	0,00982	
34,84	0,4192	155,69	699,56	0,00982	
34,86	0,4193	155,72	699,47	0,00996	
34,88	0,4197	154,29	699,55	0,01002	
34,90	0,4200	153,57	699,70	0,00999	
34,92	0,4200	154,68	699,69	0,00998	
34,94	0,4199	156,00	699,55	0,00987	
34,96	0,4199	155,96	699,48	0,00975	
34,98	0,4200	154,96	699,58	0,00970	
35,00	0,4200	154,92	699,68	0,00983	
35,02	0,4200	155,76	699,60	0,01007	
35,04	0,4199	155,98	699,48	0,01021	
35,06	0,4199	154,20	699,54	0,01017	
35,08	0,4200	152,82	699,70	0,01000	
35,10	0,4200	154,03	699,68	0,00991	
35,12	0,4199	155,79	699,54	0,00992	
35,14	0,4201	155,28	699,47	0,00992	
35,16	0,4205	153,30	699,59	0,00995	
35,18	0,4207	153,18	699,69	0,01003	
35,20	0,4206	154,94	699,61	0,01011	
35,22	0,4205	155,85	699,47	0,00999	
35,24	0,4205	154,30	699,51	0,00981	
35,26	0,4207	152,48	699,70	0,00976	
35,28	0,4207	153,08	699,76	0,00983	
35,30	0,4206	154,80	699,62	0,00996	
35,32	0,4205	154,33	699,49	0,01004	
35,34	0,4206	152,90	699,54	0,01007	
35,36	0,4207	152,02	699,65	0,01001	
35,38	0,4207	152,19	699,63	0,00987	
35,40	0,4206	152,80	699,49	0,00977	
35,42	0,4209	151,79	699,49	0,00976	
35,44	0,4213	150,02	699,68	0,00978	
35,46	0,4214	150,95	699,78	0,01023	
35,48	0,4213	153,58	699,65	0,01230	
35,50	0,4212	154,15	699,49	0,01458	
35,52	0,4212	153,05	699,53	0,01604	
35,54	0,4214	152,01	699,68	0,01670	
35,56	0,4214	152,05	699,67	0,01685	
35,58	0,4212	152,73	699,53	0,01643	
35,60	0,4212	151,86	699,48	0,01597	
35,62	0,4215	150,16	699,61	0,01545	
35,64	0,4219	150,51	699,71	0,01504	
35,66	0,4219	152,07	699,61	0,01479	
35,68	0,4219	152,65	699,47	0,01439	
35,70	0,4219	150,85	699,55	0,01399	
35,72	0,4220	149,39	699,72	0,01376	
35,74	0,4220	150,66	699,71	0,01370	
35,76	0,4219	152,45	699,55	0,01332	
35,78	0,4219	152,04	699,47	0,01306	
35,80	0,4220	150,13	699,59	0,01294	
35,82	0,4220	149,93	699,71	0,01255	
35,84	0,4220	151,55	699,64	0,01221	
35,86	0,4220	151,79	699,49	0,01202	
35,88	0,4224	150,36	699,51	0,01144	
35,90	0,4226	149,01	699,67	0,01035	
35,92	0,4227	149,77	699,72	0,00796	
35,94	0,4226	151,88	699,59	0,00432	
35,96	0,4225	151,92	699,48	0,00259	
35,98	0,4226	150,10	699,57	0,00251	
36,00	0,4227	149,23	699,71	0,00128	
36,02	0,4227	150,84	699,66	-0,00181	
36,04	0,4226	152,23	699,50	-0,00435	
36,06	0,4229	151,12	699,49	-0,00519	
36,08	0,4233	149,34	699,66	-0,00558	
36,10	0,4234	149,74	699,74	-0,00594	
36,12	0,4233	151,80	699,61	-0,00601	
36,14	0,4232	151,94	699,48	-0,00603	
36,16	0,4233	150,18	699,55	-0,00624	
36,18	0,4234	149,33	699,68	-0,00638	
36,20	0,4233	150,92	699,64	-0,00623	
36,22	0,4232	151,30	699,49	-0,00629	
36,24	0,4234	148,69	699,50	-0,00644	
36,26	0,4239	146,45	699,70	-0,00649	
36,28	0,4240	147,55	699,78	-0,00652	
36,30	0,4239	149,74	699,64	-0,00672	
36,32	0,4238	149,87	699,50	-0,00673	
36,34	0,4239	148,67	699,54	-0,00653	
36,36	0,4240	148,35	699,65	-0,00651	
36,38	0,4240	148,97	699,61	-0,00664	
36,40	0,4239	149,19	699,48	-0,00662	
36,42	0,4241	147,03	699,51	-0,00668	
36,44	0,4246	145,26	699,71	-0,00691	
36,46	0,4247	146,29	699,76	-0,00698	
36,48	0,4246	148,65	699,61	-0,00685	
36,50	0,4245	149,38	699,49	-0,00683	
36,52	0,4246	147,56	699,57	-0,00678	
36,54	0,4247	146,94	699,65	-0,00670	
36,56	0,4246	148,40	699,57	-0,00685	
36,58	0,4246	148,51	699,45	-0,00699	
36,60	0,4250	145,82	699,56	-0,00696	
36,62	0,4254	144,37	699,76	-0,00685	
36,64	0,4254	146,57	699,76	-0,00682	
36,66	0,4253	149,03	699,59	-0,00675	
36,68	0,4252	148,73	699,49	-0,00659	
36,70	0,4253	147,15	699,57	-0,00673	
36,72	0,4254	147,41	699,67	-0,00696	
36,74	0,4253	148,43	699,60	-0,00699	
36,76	0,4253	147,60	699,46	-0,00695	
36,78	0,4256	145,32	699,52	-0,00699	
36,80	0,4260	144,10	699,72	-0,00694	
36,82	0,4261	145,82	699,74	-0,00684	
36,84	0,4259	148,55	699,57	-0,00698	
36,86	0,4259	148,54	699,48	-0,00706	
36,88	0,4260	146,56	699,59	-0,00691	
36,90	0,4261	146,37	699,68	-0,00695	
36,92	0,4261	148,18	699,57	-0,00707	
36,94	0,4262	148,12	699,45	-0,00695	
36,96	0,4266	144,86	699,57	-0,00686	
36,98	0,4267	142,74	699,77	-0,00702	
37,00	0,4267	144,76	699,76	-0,00712	
37,02	0,4266	147,10	699,58	-0,00699	
37,04	0,4267	145,81	699,50	-0,00707	
37,06	0,4271	144,18	699,60	-0,00724	
37,08	0,4273	145,65	699,63	-0,00712	
37,10	0,4273	147,31	699,51	-0,00680	
37,12	0,4273	145,64	699,47	-0,01086	
37,14	0,4274	141,82	699,65	-0,00140	
37,16	0,4274	141,94	699,78	0,02606	
37,18	0,4273	145,57	699,68	0,01062	
37,20	0,4273	147,75	699,50	0,01659	
37,22	0,4276	146,30	699,52	0,03787	
37,24	0,4280	145,05	699,66	0,03707	
37,26	0,4280	146,05	699,64	0,03323	
37,28	0,4279	146,99	699,49	0,03353	
37,30	0,4279	145,58	699,50	0,03688	
37,32	0,4281	143,19	699,69	0,04085	
37,34	0,4281	143,60	699,74	0,04266	
37,36	0,4280	146,12	699,59	0,04299	
37,38	0,4281	145,92	699,48	0,04313	
37,40	0,4285	143,67	699,58	0,04308	
37,42	0,4287	143,15	699,72	0,04264	
37,44	0,4287	144,80	699,65	0,04228	
37,46	0,4286	145,80	699,49	0,04198	
37,48	0,4286	144,30	699,51	0,04121	
37,50	0,4290	142,77	699,68	0,04068	
37,52	0,4293	143,85	699,71	0,04099	
37,54	0,4293	145,71	699,55	0,04140	
37,56	0,4293	145,24	699,48	0,04198	
37,58	0,4294	143,15	699,61	0,04250	
37,60	0,4294	143,39	699,71	0,04306	
37,62	0,4293	146,46	699,60	0,04366	
37,64	0,4293	147,10	699,47	0,04435	
37,66	0,4296	144,51	699,56	0,04488	
37,68	0,4299	142,75	699,71	0,04498	
37,70	0,4300	144,70	699,66	0,04525	
37,72	0,4300	146,29	699,51	0,04562	
37,74	0,4300	144,73	699,50	0,04577	
37,76	0,4301	142,59	699,66	0,04523	
37,78	0,4301	142,99	699,70	0,04462	
37,80	0,4300	145,16	699,55	0,04397	
37,82	0,4301	145,23	699,46	0,04312	
37,84	0,4305	142,66	699,61	0,04237	
37,86	0,4308	141,80	699,76	0,04189	
37,88	0,4307	143,94	699,66	0,04148	
37,90	0,4306	145,28	699,50	0,04089	
37,92	0,4307	143,41	699,53	0,04106	
37,94	0,4308	142,23	699,65	0,04171	
37,96	0,4307	143,86	699,61	0,04235	
37,98	0,4308	145,43	699,47	0,04344	
38,00	0,4311	143,22	699,52	0,04469	
38,02	0,4314	140,22	699,72	0,04582	
38,04	0,4315	141,47	699,75	0,04644	
38,06	0,4313	144,62	699,58	0,04683	
38,08	0,4313	145,12	699,47	0,04688	
38,10	0,4316	143,31	699,58	0,04656	
38,12	0,4320	141,98	699,70	0,04628	
38,14	0,4320	142,27	699,62	0,04597	
38,16	0,4320	142,61	699,47	0,04545	
38,18	0,4320	140,89	699,52	0,04488	
38,20	0,4321	139,38	699,72	0,04456	
38,22	0,4321	141,41	699,74	0,04415	
38,24	0,4320	143,86	699,57	0,04348	
38,26	0,4322	142,79	699,48	0,04286	
38,28	0,4326	140,39	699,61	0,04268	
38,30	0,4328	140,76	699,70	0,04272	
38,32	0,4327	142,81	699,60	0,04281	
38,34	0,4326	142,49	699,47	0,04326	
38,36	0,4327	140,21	699,56	0,04382	
38,38	0,4330	139,07	699,72	0,04432	
38,40	0,4333	141,56	699,68	0,04537	
38,42	0,4333	144,04	699,51	0,04654	
38,44	0,4333	142,70	699,50	0,04714	
38,46	0,4334	140,17	699,65	0,04742	
38,48	0,4334	141,35	699,68	0,04754	
38,50	0,4333	143,61	699,53	0,04749	
38,52	0,4334	142,63	699,47	0,04722	
38,54	0,4338	139,90	699,62	0,04711	
38,56	0,4341	139,97	699,73	0,04677	
38,58	0,4340	143,02	699,62	0,04595	
38,60	0,4340	143,66	699,48	0,04515	
38,62	0,4340	141,19	699,54	0,04486	
38,64	0,4341	139,96	699,70	0,04512	
38,66	0,4341	141,26	699,66	0,04527	
38,68	0,4342	142,39	699,50	0,04554	
38,70	0,4345	141,13	699,50	0,04577	
38,72	0,4348	139,26	699,68	0,04607	
38,74	0,4348	139,65	699,73	0,04649	
38,76	0,4347	141,79	699,58	0,04697	
38,78	0,4347	141,98	699,47	0,04752	
38,80	0,4351	140,18	699,57	0,04811	
38,82	0,4354	139,79	699,70	0,04909	
38,84	0,4354	141,48	699,63	0,04979	
38,86	0,4353	142,46	699,48	0,05036	
38,88	0,4353	140,85	699,53	0,05068	
38,90	0,4355	139,40	699,69	0,05080	
38,92	0,4355	141,59	699,68	0,05100	
38,94	0,4355	144,00	699,51	0,05125	
38,96	0,4358	142,64	699,49	0,05113	
38,98	0,4361	139,82	699,66	0,05040	
39,00	0,4362	139,69	699,72	0,04955	
39,02	0,4360	141,71	699,58	0,04888	
39,04	0,4360	141,95	699,46	0,04847	
39,06	0,4363	139,44	699,58	0,04821	
39,08	0,4367	138,38	699,74	0,04851	
39,10	0,4367	140,47	699,67	0,04907	
39,12	0,4366	141,93	699,51	0,04930	
39,14	0,4367	140,31	699,51	0,04948	
39,16	0,4368	139,06	699,67	0,04971	
39,18	0,4368	140,36	699,69	0,05000	
39,20	0,4367	142,31	699,54	0,05078	
39,22	0,4370	141,37	699,48	0,05217	
39,24	0,4374	138,49	699,65	0,05308	
39,26	0,4375	138,70	699,76	0,05358	
39,28	0,4374	141,35	699,64	0,05391	
39,30	0,4373	141,66	699,49	0,05398	
39,32	0,4376	139,52	699,53	0,05415	
39,34	0,4380	138,60	699,69	0,05432	
39,36	0,4381	140,34	699,68	0,05469	
39,38	0,4380	142,03	699,53	0,05468	
39,40	0,4380	140,51	699,48	0,05453	
39,42	0,4382	137,98	699,64	0,05425	
39,44	0,4382	138,55	699,72	0,05380	
39,46	0,4381	141,32	699,60	0,05357	
39,48	0,4382	141,85	699,48	0,05379	
39,50	0,4386	139,45	699,57	0,05435	
39,52	0,4389	138,39	699,70	0,05513	
39,54	0,4388	140,45	699,63	0,05586	
39,56	0,4387	142,23	699,47	0,05619	
39,58	0,4388	140,10	699,51	0,05615	
39,60	0,4392	137,04	699,71	0,05589	
39,62	0,4394	138,26	699,74	0,05599	
39,64	0,4394	141,41	699,58	0,05606	
39,66	0,4393	141,23	699,48	0,05609	
39,68	0,4394	138,63	699,60	0,05606	
39,70	0,4395	138,71	699,70	0,05608	
39,72	0,4395	141,24	699,59	0,05602	
39,74	0,4397	141,60	699,46	0,05591	
39,76	0,4400	138,41	699,57	0,05592	
39,78	0,4402	137,07	699,77	0,05593	
39,80	0,4402	139,63	699,74	0,05604	
39,82	0,4400	142,02	699,55	0,05606	
39,84	0,4401	140,61	699,49	0,05605	
39,86	0,4405	138,77	699,62	0,05594	
39,88	0,4408	139,53	699,65	0,05588	
39,90	0,4407	141,50	699,52	0,05592	
39,92	0,4407	139,80	699,48	0,05594	
39,94	0,4408	136,12	699,64	0,05593	
39,96	0,4409	136,24	699,73	0,05598	
39,98	0,4410	139,96	699,60	0,05613	
40,00	0,4412	141,47	699,47	0,05611	
40,02	0,4414	139,41	699,56	0,05599	
40,04	0,4415	138,34	699,71	0,05591	
40,06	0,4415	140,32	699,67	0,05590	
40,08	0,4414	141,31	699,50	0,05597	
40,10	0,4416	138,68	699,50	0,05603	
40,12	0,4420	136,29	699,68	0,05602	
40,14	0,4422	138,05	699,72	0,05598	
40,16	0,4421	141,41	699,56	0,05596	
40,18	0,4420	141,12	699,45	0,05587	
40,20	0,4422	137,67	699,60	0,05574	
40,22	0,4426	136,79	699,75	0,05578	
40,24	0,4428	139,76	699,66	0,05599	
40,26	0,4427	141,22	699,50	0,05609	
40,28	0,4428	138,56	699,54	0,05604	
40,30	0,4429	137,19	699,68	0,05597	
40,32	0,4429	139,76	699,64	0,05586	
40,34	0,4427	142,13	699,48	0,05577	
40,36	0,4430	140,28	699,50	0,05576	
40,38	0,4434	137,20	699,71	0,05579	
40,40	0,4436	138,25	699,78	0,05591	
40,42	0,4435	141,18	699,62	0,05604	
40,44	0,4434	141,01	699,50	0,05604	
40,46	0,4436	138,34	699,59	0,05589	
40,48	0,4439	138,68	699,66	0,05573	
40,50	0,4441	141,08	699,54	0,05570	
40,52	0,4440	139,91	699,45	0,05581	
40,54	0,4442	134,65	699,65	0,05585	
40,56	0,4443	132,90	699,86	0,05591	
40,58	0,4442	136,01	699,79	0,05597	
40,60	0,4441	139,10	699,56	0,05593	
40,62	0,4443	138,71	699,51	0,05580	
40,64	0,4447	136,75	699,64	0,05571	
40,66	0,4449	137,31	699,66	0,05573	
40,68	0,4448	138,71	699,51	0,05579	
40,70	0,4447	137,49	699,48	0,05586	
40,72	0,4449	134,47	699,66	0,05588	
40,74	0,4453	135,25	699,76	0,05580	
40,76	0,4454	139,30	699,63	0,05566	
40,78	0,4454	140,50	699,48	0,05559	
40,80	0,4455	138,03	699,56	0,05561	
40,82	0,4456	136,69	699,71	0,05574	
40,84	0,4455	138,59	699,65	0,05588	
40,86	0,4455	139,84	699,49	0,05594	
40,88	0,4458	138,04	699,51	0,05590	
40,90	0,4461	136,20	699,70	0,05575	
40,92	0,4462	138,03	699,73	0,05556	
40,94	0,4461	140,53	699,56	0,05556	
40,96	0,4461	139,58	699,47	0,05559	
40,98	0,4464	136,92	699,60	0,05565	
41,00	0,4467	136,81	699,71	0,05577	
41,02	0,4468	139,83	699,60	0,05587	
41,04	0,4467	140,69	699,46	0,05583	
41,06	0,4468	138,07	699,58	0,05567	
41,08	0,4469	136,20	699,76	0,05556	
41,10	0,4468	137,98	699,73	0,05562	
41,12	0,4468	139,57	699,55	0,05574	
41,14	0,4471	138,15	699,49	0,05580	
41,16	0,4474	136,35	699,62	0,05579	
41,18	0,4475	137,01	699,68	0,05578	
41,20	0,4474	138,87	699,55	0,05573	
41,22	0,4474	138,78	699,46	0,05558	
41,24	0,4477	136,74	699,60	0,05541	
41,26	0,4481	136,34	699,75	0,05542	
41,28	0,4481	138,71	699,67	0,05560	
41,30	0,4481	139,91	699,50	0,05567	
41,32	0,4481	138,13	699,50	0,05568	
41,34	0,4482	136,25	699,67	0,05560	
41,36	0,4483	137,07	699,71	0,05544	
41,38	0,4484	139,00	699,56	0,05541	
41,40	0,4487	138,72	699,49	0,05538	
41,42	0,4489	136,65	699,59	0,05534	
41,44	0,4489	136,72	699,67	0,05543	
41,46	0,4488	139,64	699,56	0,05561	
41,48	0,4488	140,44	699,44	0,05566	
41,50	0,4492	137,83	699,59	0,05551	
41,52	0,4495	135,91	699,82	0,05533	
41,54	0,4496	137,64	699,80	0,05529	
41,56	0,4494	139,75	699,58	0,05536	
41,58	0,4495	139,95	699,48	0,05542	
41,60	0,4498	139,07	699,60	0,05546	
41,62	0,4501	139,25	699,69	0,05551	
41,64	0,4501	139,94	699,58	0,05545	
41,66	0,4501	139,11	699,46	0,05531	
41,68	0,4502	136,76	699,58	0,05518	
41,70	0,4503	135,68	699,76	0,05518	
41,72	0,4502	137,83	699,72	0,05527	
41,74	0,4501	139,98	699,53	0,05542	
41,76	0,4504	139,04	699,49	0,05552	
41,78	0,4508	137,48	699,62	0,05544	
41,80	0,4509	137,96	699,66	0,05527	
41,82	0,4508	139,21	699,52	0,05518	
41,84	0,4507	138,48	699,45	0,05511	
41,86	0,4509	135,79	699,64	0,05506	
41,88	0,4513	135,77	699,80	0,05526	
41,90	0,4515	138,02	699,70	0,05545	
41,92	0,4514	139,38	699,51	0,05549	
41,94	0,4514	137,96	699,49	0,05539	
41,96	0,4516	136,18	699,65	0,05518	
41,98	0,4516	136,98	699,69	0,05506	
42,00	0,4515	138,83	699,55	0,05504	
42,02	0,4516	137,92	699,48	0,05511	
42,04	0,4520	135,11	699,62	0,05516	
42,06	0,4522	135,22	699,71	0,05527	
42,08	0,4521	137,88	699,59	0,05531	
42,10	0,4521	138,27	699,46	0,05528	
42,12	0,4522	135,29	699,56	0,05516	
42,14	0,4525	134,29	699,72	0,05512	
42,16	0,4527	136,72	699,67	0,05517	
42,18	0,4527	138,71	699,51	0,05524	
42,20	0,4528	137,69	699,49	0,05532	
42,22	0,4529	135,83	699,64	0,05530	
42,24	0,4529	136,13	699,69	0,05529	
42,26	0,4528	138,25	699,54	0,05527	
42,28	0,4528	138,54	699,46	0,05516	
42,30	0,4532	135,97	699,62	0,05506	
42,32	0,4535	135,49	699,77	0,05507	
42,34	0,4535	137,64	699,68	0,05522	
42,36	0,4534	139,16	699,51	0,05536	
42,38	0,4535	137,70	699,54	0,05533	
42,40	0,4538	136,11	699,66	0,05513	
42,42	0,4540	137,25	699,62	0,05503	
42,44	0,4541	138,79	699,48	0,05502	
42,46	0,4541	136,81	699,51	0,05501	
42,48	0,4543	133,67	699,71	0,05504	
42,50	0,4543	134,66	699,77	0,05516	
42,52	0,4541	137,89	699,61	0,05523	
42,54	0,4541	138,59	699,48	0,05517	
42,56	0,4545	136,85	699,56	0,05498	
42,58	0,4548	136,38	699,68	0,05492	
42,60	0,4549	138,01	699,61	0,05502	
42,62	0,4548	139,18	699,46	0,05512	
42,64	0,4548	137,42	699,52	0,05507	
42,66	0,4550	135,21	699,72	0,05507	
42,68	0,4553	136,44	699,74	0,05515	
42,70	0,4554	138,88	699,57	0,05510	
42,72	0,4554	138,74	699,49	0,05495	
42,74	0,4556	136,86	699,60	0,05484	
42,76	0,4556	137,47	699,64	0,05487	
42,78	0,4555	139,70	699,53	0,05501	
42,80	0,4555	139,08	699,45	0,05513	
42,82	0,4559	135,81	699,62	0,05511	
42,84	0,4562	134,44	699,78	0,05503	
42,86	0,4562	136,79	699,70	0,05499	
42,88	0,4561	138,93	699,52	0,05492	
42,90	0,4561	137,92	699,49	0,05486	
42,92	0,4562	136,88	699,63	0,05488	
42,94	0,4562	137,82	699,67	0,05501	
42,96	0,4563	138,88	699,53	0,05510	
42,98	0,4566	137,97	699,45	0,05505	
43,00	0,4569	136,06	699,63	0,05492	
43,02	0,4570	136,40	699,81	0,05478	
43,04	0,4569	139,58	699,73	0,05473	
43,06	0,4568	141,80	699,53	0,05482	
43,08	0,4570	140,26	699,53	0,05492	
43,10	0,4574	138,08	699,67	0,05497	
43,12	0,4576	139,75	699,65	0,05503	
43,14	0,4575	141,73	699,49	0,05502	
43,16	0,4575	139,27	699,49	0,05492	
43,18	0,4576	135,54	699,68	0,05476	
43,20	0,4577	135,64	699,77	0,05472	
43,22	0,4576	138,15	699,63	0,05477	
43,24	0,4577	138,63	699,49	0,05483	
43,26	0,4580	137,22	699,55	0,05486	
43,28	0,4583	137,19	699,67	0,05489	
43,30	0,4583	138,53	699,63	0,05477	
43,32	0,4582	139,40	699,48	0,05463	
43,34	0,4582	137,85	699,50	0,05460	
43,36	0,4585	136,16	699,68	0,05466	
43,38	0,4588	137,96	699,73	0,05477	
43,40	0,4588	141,36	699,57	0,05489	
43,42	0,4588	142,05	699,46	0,05491	
43,44	0,4589	139,51	699,59	0,05482	
43,46	0,4590	138,27	699,73	0,05468	
43,48	0,4589	140,35	699,66	0,05460	
43,50	0,4588	141,38	699,50	0,05465	
43,52	0,4590	139,42	699,50	0,05470	
43,54	0,4594	137,76	699,66	0,05471	
43,56	0,4596	139,02	699,68	0,05476	
43,58	0,4595	141,43	699,53	0,05491	
43,60	0,4595	140,56	699,47	0,05490	
43,62	0,4596	138,11	699,62	0,05478	
43,64	0,4597	138,47	699,72	0,05468	
43,66	0,4596	141,23	699,62	0,05468	
43,68	0,4598	142,02	699,47	0,05475	
43,70	0,4601	140,48	699,51	0,05479	
43,72	0,4603	139,31	699,68	0,05480	
43,74	0,4603	140,59	699,69	0,05480	
43,76	0,4602	142,27	699,54	0,05473	
43,78	0,4602	141,48	699,48	0,05454	
43,80	0,4604	139,58	699,63	0,05447	
43,82	0,4608	139,62	699,73	0,05454	
43,84	0,4609	141,67	699,61	0,05464	
43,86	0,4608	141,85	699,47	0,05475	
43,88	0,4609	138,88	699,56	0,05478	
43,90	0,4610	137,87	699,72	0,05467	
43,92	0,4609	140,10	699,68	0,05455	
43,94	0,4608	142,19	699,51	0,05449	
43,96	0,4610	140,74	699,48	0,05445	
43,98	0,4614	138,67	699,64	0,05451	
44,00	0,4616	139,28	699,70	0,05466	
44,02	0,4615	141,74	699,57	0,05469	
44,04	0,4615	142,21	699,46	0,05466	
44,06	0,4616	140,28	699,58	0,05458	
44,08	0,4617	139,75	699,71	0,05442	
44,10	0,4616	141,54	699,63	0,05439	
44,12	0,4616	142,41	699,48	0,05448	
44,14	0,4620	140,46	699,51	0,05459	
44,16	0,4623	139,06	699,68	0,05466	
44,18	0,4623	140,33	699,70	0,05469	
44,20	0,4622	142,37	699,55	0,05460	
44,22	0,4621	142,25	699,46	0,05448	
44,24	0,4623	140,10	699,60	0,05439	
44,26	0,4627	139,57	699,75	0,05436	
44,28	0,4628	141,28	699,67	0,05452	
44,30	0,4628	141,69	699,50	0,05465	
44,32	0,4629	139,71	699,50	0,05472	
44,34	0,4630	138,67	699,65	0,05469	
44,36	0,4630	140,13	699,69	0,05452	
44,38	0,4629	142,00	699,54	0,05437	
44,40	0,4629	140,72	699,47	0,05429	
44,42	0,4633	138,09	699,63	0,05431	
44,44	0,4636	138,51	699,74	0,05448	
44,46	0,4636	141,23	699,63	0,05469	
44,48	0,4635	141,94	699,48	0,05472	
44,50	0,4635	140,30	699,53	0,05461	
44,52	0,4637	139,11	699,68	0,05442	
44,54	0,4636	140,45	699,66	0,05434	
44,56	0,4637	142,10	699,49	0,05441	
44,58	0,4640	141,15	699,49	0,05447	
44,60	0,4643	139,21	699,68	0,05451	
44,62	0,4644	139,47	699,78	0,05455	
44,64	0,4642	141,64	699,64	0,05450	
44,66	0,4642	142,66	699,49	0,05436	
44,68	0,4644	141,08	699,52	0,05428	
44,70	0,4648	140,02	699,67	0,05432	
44,72	0,4649	141,19	699,67	0,05439	
44,74	0,4648	142,57	699,51	0,05452	
44,76	0,4648	141,47	699,48	0,05462	
44,78	0,4650	139,32	699,68	0,05455	
44,80	0,4652	139,75	699,78	0,05444	
44,82	0,4715	142,96	699,64	0,05436	
44,84	0,4826	143,93	699,49	0,05435	
44,86	0,4887	141,75	699,56	0,05438	
44,88	0,4901	141,15	699,67	0,05444	
44,90	0,4899	142,75	699,61	0,05454	
44,92	0,4899	143,24	699,47	0,05457	
44,94	0,4902	140,67	699,51	0,05448	
44,96	0,4904	138,60	699,71	0,05435	
44,98	0,4905	140,07	699,75	0,05425	
45,00	0,4905	142,85	699,59	0,05429	
45,02	0,4904	142,64	699,49	0,05431	
45,04	0,4906	141,17	699,58	0,05441	
45,06	0,4909	142,24	699,63	0,05453	
45,08	0,4910	144,57	699,53	0,05453	
45,10	0,4910	143,39	699,46	0,05438	
45,12	0,4911	139,59	699,62	0,05422	
45,14	0,4911	139,31	699,76	0,05417	
45,16	0,4912	143,78	699,67	0,05417	
45,18	0,4915	148,23	699,50	0,05420	
45,20	0,4919	149,83	699,50	0,05426	
45,22	0,4924	151,78	699,66	0,05422	
45,24	0,4929	156,85	699,71	0,05404	
45,26	0,4934	164,10	699,57	0,05375	
45,28	0,4940	170,67	699,47	0,05346	
45,30	0,4949	176,00	699,60	0,05327	
45,32	0,4959	183,62	699,73	0,05325	
45,34	0,4967	194,72	699,64	0,05318	
45,36	0,4976	205,57	699,48	0,05301	
45,38	0,4988	213,73	699,51	0,05281	
45,40	0,5002	223,19	699,68	0,05246	
45,42	0,5012	236,92	699,70	0,05207	
45,44	0,5024	252,08	699,54	0,05179	
45,46	0,5039	264,94	699,46	0,05151	
45,48	0,5055	276,83	699,60	0,05131	
45,50	0,5070	291,82	699,73	0,05104	
45,52	0,5086	309,86	699,65	0,05066	
45,54	0,5102	326,99	699,49	0,05022	
45,56	0,5121	342,02	699,52	0,04970	
45,58	0,5141	358,37	699,69	0,04918	
45,60	0,5160	377,67	699,70	0,04876	
45,62	0,5179	398,27	699,54	0,04840	
45,64	0,5200	416,77	699,46	0,04798	
45,66	0,5223	434,80	699,62	0,04743	
45,68	0,5247	455,61	699,76	0,04681	
45,70	0,5269	479,35	699,68	0,04609	
45,72	0,5293	502,05	699,50	0,04536	
45,74	0,5319	522,16	699,50	0,04459	
45,76	0,5348	542,78	699,66	0,04385	
45,78	0,5375	565,58	699,69	0,04319	
45,80	0,5400	589,76	699,54	0,04244	
45,82	0,5427	612,06	699,47	0,04163	
45,84	0,5458	632,68	699,62	0,04064	
45,86	0,5489	655,52	699,72	0,03948	
45,88	0,5518	680,60	699,61	0,03825	
45,90	0,5548	702,93	699,49	0,03703	
45,92	0,5581	722,75	699,54	0,03580	
45,94	0,5616	743,85	699,68	0,03453	
45,96	0,5650	766,41	699,65	0,03317	
45,98	0,5684	787,95	699,50	0,03162	
46,00	0,5719	806,65	699,48	0,02975	
46,02	0,5757	823,33	699,66	0,02774	
46,04	0,5795	841,39	699,77	0,02573	
46,06	0,5833	860,45	699,64	0,02380	
46,08	0,5871	877,03	699,49	0,02181	
46,10	0,5909	890,72	699,53	0,01969	
46,12	0,5948	903,50	699,67	0,01744	
46,14	0,5988	916,14	699,66	0,01504	
46,16	0,6027	927,71	699,50	0,01255	
46,18	0,6068	936,52	699,46	0,01000	
46,20	0,6109	943,13	699,67	0,00741	
46,22	0,6150	951,72	699,80	0,00495	
46,24	0,6189	961,77	699,69	0,00259	
46,26	0,6228	969,33	699,51	0,000	
46,28	0,6269	973,10	699,54	-0,00256	
46,30	0,6311	977,04	699,66	-0,00543	
46,32	0,6350	982,94	699,63	-0,00832	
46,34	0,6390	988,68	699,49	-0,01106	
46,36	0,6430	991,94	699,49	-0,01382	
46,38	0,6471	993,75	699,70	-0,01650	
46,40	0,6512	997,38	699,78	-0,01915	
46,42	0,6551	1002,9	699,65	-0,02190	
46,44	0,6589	1007,3	699,49	-0,02484	
46,46	0,6629	1009,1	699,54	-0,02783	
46,48	0,6668	1011,1	699,66	-0,03072	
46,50	0,6706	1014,9	699,62	-0,03358	
46,52	0,6745	1018,1	699,49	-0,03648	
46,54	0,6786	1017,8	699,52	-0,03935	
46,56	0,6828	1018,5	699,68	-0,04222	
46,58	0,6868	1022,3	699,72	-0,04516	
46,60	0,6907	1026,8	699,57	-0,04817	
46,62	0,6947	1028,6	699,47	-0,05122	
46,64	0,6988	1028,4	699,59	-0,05426	
46,66	0,7029	1029,5	699,73	-0,05720	
46,68	0,7069	1033,0	699,66	-0,05999	
46,70	0,7108	1035,5	699,52	-0,06294	
46,72	0,7149	1035,4	699,51	-0,06603	
46,74	0,7190	1035,4	699,63	-0,06910	
46,76	0,7230	1037,9	699,65	-0,07218	
46,78	0,7270	1041,2	699,52	-0,07521	
46,80	0,7309	1041,4	699,46	-0,07824	
46,82	0,7351	1039,7	699,64	-0,08122	
46,84	0,7392	1040,5	699,81	-0,08412	
46,86	0,7432	1043,7	699,73	-0,08716	
46,88	0,7471	1047,0	699,53	-0,09033	
46,90	0,7511	1047,9	699,51	-0,09353	
46,92	0,7551	1047,5	699,69	-0,09664	
46,94	0,7590	1049,6	699,75	-0,09964	
46,96	0,7627	1052,2	699,61	-0,1026	
46,98	0,7666	1052,3	699,48	-0,1056	
47,00	0,7706	1051,3	699,53	-0,1088	
47,02	0,7748	1051,7	699,67	-0,1120	
47,04	0,7788	1053,8	699,65	-0,1152	
47,06	0,7827	1055,7	699,51	-0,1184	
47,08	0,7867	1055,4	699,49	-0,1215	
47,10	0,7908	1054,5	699,64	-0,1246	
47,12	0,7949	1055,6	699,72	-0,1275	
47,14	0,7988	1058,3	699,60	-0,1305	
47,16	0,8028	1059,0	699,47	-0,1337	
47,18	0,8069	1057,6	699,54	-0,1369	
47,20	0,8110	1057,6	699,69	-0,1401	
47,22	0,8150	1060,2	699,68	-0,1432	
47,24	0,8189	1062,4	699,53	-0,1462	
47,26	0,8230	1061,6	699,49	-0,1492	
47,28	0,8271	1060,4	699,63	-0,1524	
47,30	0,8312	1062,0	699,70	-0,1555	
47,32	0,8351	1064,9	699,59	-0,1588	
47,34	0,8391	1065,6	699,47	-0,1620	
47,36	0,8432	1064,2	699,54	-0,1652	
47,38	0,8473	1064,3	699,68	-0,1683	
47,40	0,8513	1066,9	699,65	-0,1713	
47,42	0,8551	1068,5	699,51	-0,1744	
47,44	0,8589	1067,5	699,49	-0,1776	
47,46	0,8628	1066,0	699,64	-0,1808	
47,48	0,8668	1066,4	699,71	-0,1840	
47,50	0,8707	1068,6	699,59	-0,1873	
47,52	0,8746	1069,2	699,48	-0,1904	
47,54	0,8787	1068,8	699,55	-0,1934	
47,56	0,8829	1068,9	699,68	-0,1965	
47,58	0,8869	1070,7	699,64	-0,1996	
47,60	0,8908	1072,5	699,49	-0,2028	
47,62	0,8948	1071,5	699,50	-0,2061	
47,64	0,8989	1069,7	699,68	-0,2094	
47,66	0,9030	1070,7	699,74	-0,2125	
47,68	0,9069	1073,7	699,61	-0,2156	
47,70	0,9109	1073,8	699,48	-0,2187	
47,72	0,9150	1072,5	699,54	-0,2219	
47,74	0,9191	1072,8	699,66	-0,2251	
47,76	0,9231	1074,7	699,62	-0,2285	
47,78	0,9270	1075,5	699,47	-0,2318	
47,80	0,9311	1074,0	699,52	-0,2350	
47,82	0,9352	1072,6	699,74	-0,2382	
47,84	0,9392	1074,5	699,81	-0,2412	
47,86	0,9431	1077,7	699,67	-0,2442	
47,88	0,9471	1078,1	699,51	-0,2475	
47,90	0,9512	1077,0	699,52	-0,2509	
47,92	0,9551	1077,4	699,63	-0,2542	
47,94	0,9588	1078,3	699,62	-0,2574	
47,96	0,9627	1078,1	699,49	-0,2606	
47,98	0,9667	1077,0	699,49	-0,2637	
48,00	0,9708	1075,8	699,67	-0,2668	
48,02	0,9749	1076,6	699,74	-0,2700	
48,04	0,9788	1080,2	699,61	-0,2733	
48,06	0,9828	1081,9	699,49	-0,2766	
48,08	0,9869	1079,9	699,55	-0,2799	
48,10	0,9910	1078,6	699,67	-0,2831	
48,12	0,9950	1080,4	699,62	-0,2861	
48,14	0,9989	1081,5	699,48	-0,2892	
48,16	1,003	1079,9	699,51	-0,2924	
48,18	1,007	1078,8	699,69	-0,2956	
48,20	1,011	1080,3	699,74	-0,2989	
48,22	1,015	1082,4	699,60	-0,3023	
48,24	1,019	1082,7	699,48	-0,3055	
48,26	1,023	1082,0	699,57	-0,3087	
48,28	1,027	1082,2	699,72	-0,3119	
48,30	1,031	1084,2	699,68	-0,3151	
48,32	1,035	1085,1	699,53	-0,3184	
48,34	1,039	1083,4	699,49	-0,3217	
48,36	1,043	1082,5	699,61	-0,3251	
48,38	1,047	1083,7	699,68	-0,3283	
48,40	1,051	1085,7	699,58	-0,3314	
48,42	1,055	1086,1	699,47	-0,3345	
48,44	1,059	1084,8	699,56	-0,3376	
48,46	1,063	1083,8	699,72	-0,3409	
48,48	1,067	1085,4	699,70	-0,3443	
48,50	1,071	1087,0	699,53	-0,3476	
48,52	1,075	1086,6	699,49	-0,3508	
48,54	1,079	1085,1	699,64	-0,3541	
48,56	1,083	1085,9	699,72	-0,3572	
48,58	1,087	1088,4	699,60	-0,3604	
48,60	1,091	1089,1	699,47	-0,3636	
48,62	1,095	1087,3	699,55	-0,3669	
48,64	1,099	1086,0	699,72	-0,3703	
48,66	1,103	1087,2	699,72	-0,3736	
48,68	1,107	1089,3	699,57	-0,3768	
48,70	1,111	1089,1	699,50	-0,3799	
48,72	1,115	1087,9	699,59	-0,3831	
48,74	1,119	1089,0	699,65	-0,3865	
48,76	1,123	1091,4	699,55	-0,3898	
48,78	1,127	1090,8	699,46	-0,3931	
48,80	1,131	1087,8	699,58	-0,3963	
48,82	1,135	1086,9	699,73	-0,3995	
48,84	1,139	1089,9	699,67	-0,4027	
48,86	1,143	1092,4	699,52	-0,4059	
48,88	1,147	1091,7	699,50	-0,4093	
48,90	1,151	1090,6	699,63	-0,4127	
48,92	1,155	1091,5	699,67	-0,4160	
48,94	1,159	1092,9	699,55	-0,4192	
48,96	1,163	1092,6	699,48	-0,4224	
48,98	1,167	1090,6	699,61	-0,4255	
49,00	1,171	1090,1	699,73	-0,4287	
49,02	1,175	1091,8	699,64	-0,4321	
49,04	1,179	1093,0	699,50	-0,4355	
49,06	1,183	1091,6	699,53	-0,4388	
49,08	1,187	1090,8	699,66	-0,4421	
49,10	1,191	1093,2	699,65	-0,4452	
49,12	1,195	1095,1	699,51	-0,4484	
49,14	1,199	1093,5	699,49	-0,4517	
49,16	1,203	1090,6	699,66	-0,4550	
49,18	1,207	1091,5	699,74	-0,4583	
49,20	1,211	1094,7	699,61	-0,4616	
49,22	1,215	1095,8	699,48	-0,4650	
49,24	1,219	1094,1	699,55	-0,4683	
49,26	1,223	1093,4	699,70	-0,4716	
49,28	1,227	1094,9	699,68	-0,4748	
49,30	1,231	1096,2	699,52	-0,4780	
49,32	1,235	1095,0	699,48	-0,4814	
49,34	1,239	1093,3	699,64	-0,4848	
49,36	1,243	1093,9	699,73	-0,4880	
49,38	1,247	1095,7	699,61	-0,4913	
49,40	1,251	1096,1	699,48	-0,4945	
49,42	1,255	1094,9	699,54	-0,4977	
49,44	1,259	1094,0	699,70	-0,5009	
49,46	1,263	1095,0	699,68	-0,5043	
49,48	1,267	1096,3	699,52	-0,5077	
49,50	1,271	1095,2	699,49	-0,5111	
49,52	1,275	1093,4	699,66	-0,5143	
49,54	1,279	1094,8	699,75	-0,5176	
49,56	1,283	1097,9	699,63	-0,5208	
49,58	1,287	1098,3	699,50	-0,5241	
49,60	1,291	1096,9	699,55	-0,5275	
49,62	1,295	1096,1	699,66	-0,5309	
49,64	1,299	1097,6	699,61	-0,5342	
49,66	1,303	1098,6	699,48	-0,5375	
49,68	1,307	1096,0	699,54	-0,5407	
49,70	1,311	1093,4	699,76	-0,5439	
49,72	1,315	1094,8	699,81	-0,5472	
49,74	1,319	1098,2	699,63	-0,5506	
49,76	1,323	1099,8	699,52	-0,5539	
49,78	1,327	1098,2	699,62	-0,5573	
49,80	1,331	1097,9	699,67	-0,5605	
49,82	1,335	1099,0	699,54	-0,5637	
49,84	1,339	1098,1	699,47	-0,5669	
49,86	1,343	1094,5	699,64	-0,5703	
49,88	1,347	1093,8	699,78	-0,5737	
49,90	1,351	1096,8	699,68	-0,5771	
49,92	1,355	1099,3	699,51	-0,5805	
49,94	1,359	1098,3	699,53	-0,5837	
49,96	1,363	1097,1	699,66	-0,5870	
49,98	1,367	1098,3	699,64	-0,5902	
50,00	1,371	1099,5	699,50	-0,5936	
50,02	1,375	1097,7	699,51	-0,5970	
50,04	1,379	1095,7	699,70	-0,6004	
50,06	1,383	1096,9	699,74	-0,6038	
50,08	1,387	1099,1	699,59	-0,6070	
50,10	1,391	1099,2	699,50	-0,6102	
50,12	1,395	1097,4	699,58	-0,6135	
50,14	1,399	1097,6	699,64	-0,6168	
50,16	1,403	1099,2	699,54	-0,6202	
50,18	1,407	1099,0	699,46	-0,6236	
50,20	1,411	1096,3	699,61	-0,6271	
50,22	1,415	1096,0	699,76	-0,6304	
50,24	1,419	1098,9	699,68	-0,6336	
50,26	1,423	1101,1	699,52	-0,6368	
50,28	1,427	1099,1	699,53	-0,6401	
50,30	1,431	1097,5	699,66	-0,6435	
50,32	1,435	1099,5	699,63	-0,6469	
50,34	1,439	1100,8	699,49	-0,6503	
50,36	1,443	1098,2	699,52	-0,6537	
50,38	1,447	1095,8	699,70	-0,6569	
50,40	1,451	1097,8	699,73	-0,6601	
50,42	1,455	1100,8	699,57	-0,6634	
50,44	1,459	1100,1	699,51	-0,6668	
50,46	1,463	1097,5	699,61	-0,6702	
50,48	1,467	1097,5	699,65	-0,6736	
50,50	1,471	1099,2	699,52	-0,6769	
50,52	1,475	1099,0	699,46	-0,6802	
50,54	1,479	1095,8	699,67	-0,6836	
50,56	1,483	1095,3	699,86	-0,6869	
50,58	1,487	1097,7	699,77	-0,6902	
50,60	1,491	1099,8	699,56	-0,6936	
50,62	1,495	1099,1	699,54	-0,6970	
50,64	1,499	1097,9	699,65	-0,7004	
50,66	1,503	1099,8	699,61	-0,7037	
50,68	1,507	1100,9	699,47	-0,7069	
50,70	1,511	1098,0	699,53	-0,7102	
50,72	1,515	1094,9	699,73	-0,7136	
50,74	1,519	1096,3	699,76	-0,7170	
50,76	1,523	1098,8	699,60	-0,7204	
50,78	1,527	1097,8	699,50	-0,7238	
50,80	1,531	1096,0	699,59	-0,7271	
50,82	1,535	1096,3	699,64	-0,7304	
50,84	1,539	1098,3	699,54	-0,7337	
50,86	1,543	1097,4	699,48	-0,7371	
50,88	1,547	1094,1	699,63	-0,7406	
50,90	1,551	1093,4	699,76	-0,7440	
50,92	1,555	1096,5	699,66	-0,7473	
50,94	1,559	1099,1	699,50	-0,7506	
50,96	1,563	1098,1	699,54	-0,7539	
50,98	1,567	1096,4	699,69	-0,7573	
51,00	1,571	1097,4	699,68	-0,7606	
51,02	1,575	1098,9	699,52	-0,7641	
51,04	1,579	1096,7	699,51	-0,7675	
51,06	1,583	1094,2	699,67	-0,7710	
51,08	1,587	1095,4	699,70	-0,7743	
51,10	1,591	1098,2	699,56	-0,7775	
51,12	1,595	1097,4	699,49	-0,7808	
51,14	1,599	1094,4	699,62	-0,7841	
51,16	1,603	1094,2	699,70	-0,7876	
51,18	1,607	1096,9	699,58	-0,7910	
51,20	1,611	1097,0	699,49	-0,7944	
51,22	1,615	1094,1	699,60	-0,7978	
51,24	1,619	1093,2	699,71	-0,8010	
51,26	1,623	1096,1	699,62	-0,8042	
51,28	1,627	1097,4	699,48	-0,8076	
51,30	1,631	1095,0	699,58	-0,8111	
51,32	1,635	1093,6	699,75	-0,8146	
51,34	1,639	1096,0	699,70	-0,8180	
51,36	1,643	1097,4	699,53	-0,8214	
51,38	1,647	1095,1	699,52	-0,8247	
51,40	1,651	1092,7	699,67	-0,8280	
51,42	1,655	1094,1	699,66	-0,8314	
51,44	1,659	1096,1	699,50	-0,8348	
51,46	1,663	1094,3	699,49	-0,8382	
51,48	1,667	1092,1	699,67	-0,8416	
51,50	1,671	1093,2	699,72	-0,8450	
51,52	1,675	1095,6	699,58	-0,8483	
51,54	1,679	1095,0	699,51	-0,8517	
51,56	1,683	1091,5	699,61	-0,8551	
51,58	1,687	1091,6	699,64	-0,8586	
51,60	1,691	1094,5	699,51	-0,8621	
51,62	1,695	1093,8	699,49	-0,8655	
51,64	1,699	1090,0	699,69	-0,8689	
51,66	1,703	1089,4	699,79	-0,8723	
51,68	1,707	1092,7	699,64	-0,8755	
51,70	1,711	1093,5	699,48	-0,8789	
51,72	1,715	1091,0	699,57	-0,8823	
51,74	1,719	1089,9	699,72	-0,8857	
51,76	1,723	1091,5	699,67	-0,8891	
51,78	1,727	1092,9	699,51	-0,8925	
51,80	1,731	1091,6	699,51	-0,8959	
51,82	1,735	1089,9	699,65	-0,8992	
51,84	1,739	1091,2	699,65	-0,9027	
51,86	1,743	1093,1	699,51	-0,9061	
51,88	1,747	1091,4	699,50	-0,9096	
51,90	1,751	1089,1	699,69	-0,9132	
51,92	1,755	1090,2	699,76	-0,9165	
51,94	1,759	1093,0	699,61	-0,9198	
51,96	1,763	1092,9	699,50	-0,9232	
51,98	1,767	1090,6	699,60	-0,9265	
52,00	1,771	1090,0	699,65	-0,9300	
52,02	1,775	1091,9	699,53	-0,9335	
52,04	1,779	1092,1	699,47	-0,9370	
52,06	1,783	1088,8	699,65	-0,9404	
52,08	1,787	1087,7	699,78	-0,9438	
52,10	1,791	1090,5	699,67	-0,9471	
52,12	1,795	1091,8	699,51	-0,9504	
52,14	1,799	1089,1	699,55	-0,9538	
52,16	1,803	1087,2	699,69	-0,9573	
52,18	1,807	1088,7	699,64	-0,9608	
52,20	1,811	1089,8	699,48	-0,9643	
52,22	1,815	1088,2	699,51	-0,9677	
52,24	1,819	1086,2	699,74	-0,9710	
52,26	1,823	1087,0	699,80	-0,9743	
52,28	1,827	1089,0	699,63	-0,9778	
52,30	1,831	1089,1	699,50	-0,9813	
52,32	1,835	1087,3	699,58	-0,9848	
52,34	1,839	1087,3	699,64	-0,9883	
52,36	1,843	1088,9	699,54	-0,9918	
52,38	1,847	1088,8	699,46	-0,9951	
52,40	1,851	1085,4	699,63	-0,9985	
52,42	1,855	1083,8	699,77	-1,002	
52,44	1,859	1086,3	699,67	-1,005	
52,46	1,863	1088,7	699,51	-1,009	
52,48	1,867	1086,5	699,56	-1,012	
52,50	1,871	1084,3	699,70	-1,016	
52,52	1,875	1086,2	699,65	-1,019	
52,54	1,879	1087,4	699,51	-1,022	
52,56	1,883	1084,8	699,55	-1,026	
52,58	1,887	1082,5	699,69	-1,029	
52,60	1,891	1084,5	699,65	-1,033	
52,62	1,895	1087,3	699,50	-1,036	
52,64	1,899	1085,0	699,55	-1,040	
52,66	1,903	1082,2	699,71	-1,043	
52,68	1,907	1084,0	699,67	-1,046	
52,70	1,911	1086,3	699,50	-1,050	
52,72	1,915	1084,3	699,53	-1,053	
52,74	1,919	1081,5	699,70	-1,057	
52,76	1,923	1082,9	699,70	-1,060	
52,78	1,927	1085,4	699,53	-1,064	
52,80	1,931	1084,0	699,52	-1,067	
52,82	1,935	1080,7	699,68	-1,071	
52,84	1,939	1081,3	699,71	-1,074	
52,86	1,943	1084,5	699,55	-1,077	
52,88	1,947	1083,8	699,53	-1,081	
52,90	1,951	1080,7	699,64	-1,084	
52,92	1,955	1081,4	699,61	-1,088	
52,94	1,959	1084,4	699,47	-1,091	
52,96	1,963	1083,0	699,54	-1,095	
52,98	1,967	1079,1	699,80	-1,098	
53,00	1,971	1079,6	699,85	-1,101	
53,02	1,975	1081,9	699,65	-1,105	
53,04	1,979	1082,2	699,54	-1,108	
53,06	1,983	1080,2	699,66	-1,112	
53,08	1,987	1081,1	699,67	-1,115	
53,10	1,991	1083,0	699,52	-1,119	
53,12	1,995	1081,0	699,50	-1,122	
53,14	1,999	1076,3	699,67	-1,126	
53,16	2,003	1076,6	699,72	-1,129	
53,18	2,007	1080,1	699,56	-1,133	
53,20	2,011	1079,9	699,49	-1,136	
53,22	2,015	1077,3	699,64	-1,140	
53,24	2,019	1077,9	699,70	-1,143	
53,26	2,023	1081,0	699,56	-1,147	
53,28	2,027	1080,4	699,50	-1,150	
53,30	2,031	1076,6	699,65	-1,153	
53,32	2,035	1076,1	699,72	-1,157	
53,34	2,039	1078,8	699,59	-1,160	
53,36	2,043	1077,9	699,50	-1,164	
53,38	2,047	1075,0	699,60	-1,167	
53,40	2,051	1075,3	699,64	-1,171	
53,42	2,055	1077,8	699,52	-1,174	
53,44	2,059	1077,3	699,48	-1,178	
53,46	2,063	1074,0	699,66	-1,181	
53,48	2,067	1073,2	699,78	-1,185	
53,50	2,071	1076,1	699,65	-1,188	
53,52	2,075	1076,7	699,51	-1,192	
53,54	2,079	1074,1	699,60	-1,195	
53,56	2,083	1073,3	699,68	-1,199	
53,58	2,087	1076,2	699,57	-1,202	
53,60	2,091	1076,7	699,48	-1,205	
53,62	2,095	1072,8	699,64	-1,209	
53,64	2,099	1071,8	699,78	-1,213	
53,66	2,103	1075,5	699,68	-1,216	
53,68	2,107	1077,1	699,52	-1,220	
53,70	2,111	1074,3	699,58	-1,223	
53,72	2,115	1073,1	699,68	-1,227	
53,74	2,119	1075,5	699,60	-1,230	
53,76	2,123	1075,9	699,49	-1,234	
53,78	2,127	1071,8	699,59	-1,237	
53,80	2,131	1069,6	699,69	-1,241	
53,82	2,135	1072,5	699,59	-1,244	
53,84	2,139	1074,7	699,47	-1,247	
53,86	2,143	1072,2	699,61	-1,251	
53,88	2,147	1070,3	699,79	-1,254	
53,90	2,151	1072,6	699,72	-1,258	
53,92	2,155	1074,1	699,54	-1,261	
53,94	2,159	1071,8	699,55	-1,265	
53,96	2,163	1070,4	699,64	-1,268	
53,98	2,167	1072,7	699,57	-1,272	
54,00	2,171	1073,2	699,48	-1,275	
54,02	2,175	1068,7	699,62	-1,279	
54,04	2,179	1066,2	699,76	-1,282	
54,06	2,183	1069,1	699,67	-1,286	
54,08	2,187	1071,9	699,51	-1,289	
54,10	2,191	1069,8	699,56	-1,293	
54,12	2,195	1067,4	699,71	-1,296	
54,14	2,199	1069,5	699,66	-1,300	
54,16	2,203	1071,4	699,51	-1,303	
54,18	2,207	1069,1	699,53	-1,307	
54,20	2,211	1067,1	699,67	-1,310	
54,22	2,215	1069,3	699,65	-1,314	
54,24	2,219	1071,3	699,50	-1,318	
54,26	2,223	1068,6	699,53	-1,321	
54,28	2,227	1065,7	699,71	-1,324	
54,30	2,231	1067,3	699,72	-1,328	
54,32	2,235	1070,3	699,56	-1,331	
54,34	2,239	1069,1	699,52	-1,335	
54,36	2,243	1066,5	699,63	-1,338	
54,38	2,247	1067,0	699,63	-1,342	
54,40	2,251	1068,7	699,51	-1,345	
54,42	2,255	1067,3	699,51	-1,349	
54,44	2,259	1064,1	699,67	-1,352	
54,46	2,263	1064,4	699,71	-1,356	
54,48	2,267	1067,5	699,57	-1,359	
54,50	2,271	1067,3	699,50	-1,363	
54,52	2,275	1064,3	699,64	-1,367	
54,54	2,279	1064,5	699,69	-1,370	
54,56	2,283	1067,6	699,55	-1,374	
54,58	2,287	1067,1	699,50	-1,377	
54,60	2,291	1063,5	699,65	-1,381	
54,62	2,295	1064,0	699,70	-1,384	
54,64	2,299	1067,5	699,56	-1,388	
54,66	2,303	1067,1	699,51	-1,391	
54,68	2,307	1063,4	699,66	-1,395	
54,70	2,311	1062,6	699,71	-1,398	
54,72	2,315	1064,7	699,56	-1,402	
54,74	2,319	1064,0	699,51	-1,405	
54,76	2,323	1061,0	699,65	-1,409	
54,78	2,327	1061,3	699,69	-1,412	
54,80	2,331	1064,4	699,54	-1,416	
54,82	2,335	1063,8	699,51	-1,419	
54,84	2,339	1059,6	699,69	-1,423	
54,86	2,343	1059,4	699,75	-1,426	
54,88	2,347	1062,5	699,59	-1,430	
54,90	2,351	1062,1	699,52	-1,433	
54,92	2,355	1059,1	699,63	-1,437	
54,94	2,359	1060,3	699,66	-1,440	
54,96	2,363	1063,4	699,52	-1,444	
54,98	2,367	1061,6	699,53	-1,448	
55,00	2,371	1058,1	699,68	-1,451	
55,02	2,375	1058,6	699,69	-1,455	
55,04	2,379	1061,3	699,53	-1,458	
55,06	2,383	1060,5	699,52	-1,462	
55,08	2,387	1057,4	699,69	-1,465	
55,10	2,391	1057,9	699,71	-1,469	
55,12	2,395	1061,0	699,55	-1,472	
55,14	2,399	1060,6	699,52	-1,476	
55,16	2,403	1057,5	699,69	-1,479	
55,18	2,407	1057,9	699,72	-1,483	
55,20	2,411	1060,5	699,56	-1,487	
55,22	2,415	1059,2	699,51	-1,490	
55,24	2,419	1055,0	699,66	-1,494	
55,26	2,423	1054,6	699,70	-1,497	
55,28	2,427	1057,6	699,56	-1,501	
55,30	2,431	1057,3	699,50	-1,504	
55,32	2,435	1054,2	699,66	-1,508	
55,34	2,439	1054,4	699,72	-1,511	
55,36	2,443	1057,7	699,57	-1,515	
55,38	2,447	1057,9	699,52	-1,518	
55,40	2,451	1054,7	699,66	-1,522	
55,42	2,455	1054,7	699,67	-1,526	
55,44	2,459	1057,6	699,53	-1,529	
55,46	2,463	1056,9	699,52	-1,533	
55,48	2,467	1053,3	699,66	-1,536	
55,50	2,471	1054,0	699,66	-1,540	
55,52	2,475	1056,8	699,52	-1,543	
55,54	2,479	1054,8	699,52	-1,547	
55,56	2,483	1050,8	699,71	-1,550	
55,58	2,487	1051,0	699,74	-1,554	
55,60	2,491	1054,2	699,57	-1,558	
55,62	2,495	1053,9	699,51	-1,561	
55,64	2,499	1050,9	699,66	-1,565	
55,66	2,503	1051,2	699,70	-1,568	
55,68	2,507	1054,3	699,56	-1,572	
55,70	2,511	1053,8	699,50	-1,575	
55,72	2,515	1050,2	699,65	-1,579	
55,74	2,519	1050,6	699,69	-1,582	
55,76	2,523	1053,4	699,55	-1,586	
55,78	2,527	1051,7	699,51	-1,590	
55,80	2,531	1047,7	699,67	-1,593	
55,82	2,535	1047,8	699,71	-1,597	
55,84	2,539	1050,9	699,55	-1,600	
55,86	2,543	1050,6	699,50	-1,604	
55,88	2,547	1047,5	699,67	-1,607	
55,90	2,551	1047,7	699,75	-1,611	
55,92	2,555	1050,8	699,62	-1,615	
55,94	2,559	1050,8	699,50	-1,618	
55,96	2,563	1047,8	699,59	-1,622	
55,98	2,567	1047,3	699,70	-1,625	
56,00	2,571	1049,9	699,60	-1,629	
56,02	2,575	1050,2	699,49	-1,632	
56,04	2,579	1046,8	699,61	-1,636	
56,06	2,583	1045,9	699,75	-1,640	
56,08	2,587	1049,0	699,66	-1,643	
56,10	2,591	1050,5	699,51	-1,647	
56,12	2,595	1047,1	699,60	-1,650	
56,14	2,599	1045,5	699,70	-1,654	
56,16	2,603	1048,3	699,60	-1,657	
56,18	2,607	1048,5	699,50	-1,661	
56,20	2,611	1044,4	699,61	-1,665	
56,22	2,615	1042,6	699,70	-1,668	
56,24	2,619	1045,9	699,58	-1,672	
56,26	2,623	1047,4	699,49	-1,675	
56,28	2,627	1044,0	699,64	-1,679	
56,30	2,631	1042,8	699,75	-1,683	
56,32	2,635	1046,1	699,63	-1,686	
56,34	2,639	1047,5	699,51	-1,690	
56,36	2,643	1044,1	699,62	-1,693	
56,38	2,647	1042,8	699,70	-1,697	
56,40	2,651	1045,9	699,58	-1,701	
56,42	2,655	1046,6	699,49	-1,704	
56,44	2,659	1042,9	699,62	-1,708	
56,46	2,664	1041,7	699,70	-1,711	
56,48	2,667	1044,1	699,58	-1,715	
56,50	2,671	1043,9	699,49	-1,719	
56,52	2,675	1040,8	699,64	-1,722	
56,54	2,679	1039,7	699,77	-1,726	
56,56	2,683	1042,5	699,66	-1,729	
56,58	2,687	1043,5	699,51	-1,733	
56,60	2,691	1040,8	699,58	-1,736	
56,62	2,695	1039,6	699,70	-1,740	
56,64	2,699	1042,4	699,61	-1,744	
56,66	2,703	1043,1	699,51	-1,747	
56,68	2,707	1039,5	699,61	-1,751	
56,70	2,711	1038,4	699,68	-1,755	
56,72	2,715	1042,1	699,56	-1,758	
56,74	2,719	1043,2	699,49	-1,762	
56,76	2,723	1039,5	699,66	-1,765	
56,78	2,727	1038,3	699,76	-1,769	
56,80	2,731	1040,9	699,63	-1,773	
56,82	2,735	1041,9	699,51	-1,776	
56,84	2,739	1039,1	699,61	-1,780	
56,86	2,743	1038,3	699,69	-1,783	
56,88	2,747	1040,8	699,56	-1,787	
56,90	2,751	1040,4	699,50	-1,791	
56,92	2,755	1036,1	699,65	-1,794	
56,94	2,759	1035,0	699,72	-1,798	
56,96	2,763	1038,8	699,59	-1,802	
56,98	2,767	1039,9	699,50	-1,805	
57,00	2,771	1036,8	699,61	-1,809	
57,02	2,775	1035,8	699,71	-1,812	
57,04	2,779	1038,0	699,60	-1,816	
57,06	2,783	1038,1	699,51	-1,820	
57,08	2,787	1034,9	699,62	-1,823	
57,10	2,791	1034,5	699,69	-1,827	
57,12	2,795	1037,4	699,56	-1,830	
57,14	2,799	1037,1	699,50	-1,834	
57,16	2,803	1033,5	699,66	-1,838	
57,18	2,807	1033,8	699,72	-1,841	
57,20	2,811	1037,3	699,57	-1,845	
57,22	2,815	1037,1	699,52	-1,849	
57,24	2,819	1033,4	699,70	-1,852	
57,26	2,823	1033,8	699,74	-1,856	
57,28	2,827	1037,3	699,58	-1,859	
57,30	2,831	1037,0	699,53	-1,863	
57,32	2,835	1033,4	699,64	-1,867	
57,34	2,839	1033,9	699,64	-1,870	
57,36	2,843	1036,6	699,51	-1,874	
57,38	2,847	1034,7	699,55	-1,878	
57,40	2,851	1030,8	699,73	-1,881	
57,42	2,855	1031,7	699,72	-1,885	
57,44	2,859	1034,8	699,56	-1,888	
57,46	2,863	1033,8	699,56	-1,892	
57,48	2,867	1031,4	699,64	-1,896	
57,50	2,871	1033,0	699,56	-1,899	
57,52	2,875	1034,4	699,49	-1,903	
57,54	2,879	1030,1	699,64	-1,907	
57,56	2,883	1026,6	699,79	-1,910	
57,58	2,887	1029,3	699,67	-1,914	
57,60	2,891	1032,4	699,54	-1,917	
57,62	2,895	1030,1	699,65	-1,921	
57,64	2,899	1029,5	699,69	-1,925	
57,66	2,903	1033,1	699,56	-1,928	
57,68	2,907	1033,4	699,53	-1,932	
57,70	2,911	1028,9	699,66	-1,936	
57,72	2,915	1027,7	699,67	-1,939	
57,74	2,919	1030,5	699,53	-1,943	
57,76	2,923	1030,3	699,52	-1,947	
57,78	2,927	1027,4	699,69	-1,950	
57,80	2,931	1027,7	699,73	-1,954	
57,82	2,935	1030,9	699,58	-1,957	
57,84	2,939	1030,5	699,53	-1,961	
57,86	2,943	1027,5	699,65	-1,965	
57,88	2,947	1027,8	699,65	-1,968	
57,90	2,951	1030,2	699,51	-1,972	
57,92	2,955	1028,2	699,54	-1,976	
57,94	2,959	1024,9	699,69	-1,979	
57,96	2,963	1026,6	699,66	-1,983	
57,98	2,967	1030,0	699,52	-1,987	
58,00	2,971	1028,1	699,57	-1,990	
58,02	2,975	1024,8	699,73	-1,994	
58,04	2,979	1026,4	699,68	-1,998	
58,06	2,983	1029,1	699,53	-2,001	
58,08	2,987	1026,9	699,58	-2,005	
58,10	2,991	1024,9	699,68	-2,008	
58,12	2,995	1027,1	699,60	-2,012	
58,14	2,999	1028,8	699,49	-2,016	
58,16	3,003	1025,2	699,61	-2,020	
58,18	3,007	1022,7	699,72	-2,023	
58,20	3,011	1025,6	699,62	-2,027	
58,22	3,015	1027,4	699,49	-2,030	
58,24	3,019	1024,8	699,60	-2,034	
58,26	3,023	1023,3	699,73	-2,038	
58,28	3,027	1025,8	699,65	-2,041	
58,30	3,031	1027,2	699,51	-2,045	
58,32	3,035	1024,3	699,61	-2,049	
58,34	3,039	1023,0	699,72	-2,052	
58,36	3,043	1025,9	699,63	-2,056	
58,38	3,047	1026,6	699,53	-2,060	
58,40	3,051	1022,9	699,63	-2,063	
58,42	3,055	1021,9	699,66	-2,067	
58,44	3,059	1025,6	699,53	-2,071	
58,46	3,063	1025,7	699,54	-2,075	
58,48	3,067	1021,1	699,75	-2,078	
58,50	3,071	1020,7	699,78	-2,082	
58,52	3,075	1023,9	699,61	-2,085	
58,54	3,079	1023,9	699,55	-2,089	
58,56	3,083	1021,0	699,68	-2,093	
58,58	3,087	1022,0	699,66	-2,096	
58,60	3,091	1024,7	699,52	-2,100	
58,62	3,095	1022,4	699,58	-2,104	
58,64	3,099	1018,5	699,73	-2,108	
58,66	3,103	1020,1	699,67	-2,111	
58,68	3,107	1023,4	699,54	-2,115	
58,70	3,111	1021,5	699,61	-2,119	
58,72	3,115	1019,6	699,66	-2,122	
58,74	3,119	1022,3	699,55	-2,126	
58,76	3,123	1023,1	699,50	-2,130	
58,78	3,127	1018,9	699,66	-2,133	
58,80	3,132	1017,4	699,74	-2,137	
58,82	3,135	1020,4	699,61	-2,141	
58,84	3,139	1021,0	699,53	-2,144	
58,86	3,143	1018,0	699,62	-2,148	
58,88	3,147	1017,9	699,62	-2,151	
58,90	3,151	1020,1	699,49	-2,155	
58,92	3,155	1018,2	699,54	-2,159	
58,94	3,159	1014,8	699,72	-2,163	
58,96	3,163	1016,5	699,73	-2,166	
58,98	3,167	1020,0	699,56	-2,170	
59,00	3,171	1019,1	699,53	-2,174	
59,02	3,175	1016,6	699,68	-2,177	
59,04	3,179	1017,6	699,68	-2,181	
59,06	3,183	1020,3	699,54	-2,185	
59,08	3,187	1018,3	699,55	-2,189	
59,10	3,191	1014,9	699,68	-2,192	
59,12	3,195	1016,6	699,65	-2,196	
59,14	3,199	1019,9	699,51	-2,199	
59,16	3,203	1016,9	699,60	-2,203	
59,18	3,207	1013,4	699,75	-2,207	
59,20	3,211	1015,5	699,67	-2,211	
59,22	3,215	1017,9	699,52	-2,214	
59,24	3,219	1015,1	699,59	-2,218	
59,26	3,223	1012,8	699,68	-2,221	
59,28	3,227	1015,4	699,58	-2,225	
59,30	3,231	1016,4	699,49	-2,229	
59,32	3,235	1012,8	699,63	-2,233	
59,34	3,239	1011,5	699,77	-2,236	
59,36	3,243	1015,0	699,66	-2,240	
59,38	3,247	1017,0	699,55	-2,244	
59,40	3,251	1014,2	699,68	-2,247	
59,42	3,255	1014,0	699,76	-2,251	
59,44	3,259	1017,3	699,60	-2,255	
59,46	3,263	1017,2	699,54	-2,258	
59,48	3,267	1013,0	699,67	-2,262	
59,50	3,271	1012,4	699,69	-2,266	
59,52	3,275	1014,7	699,54	-2,270	
59,54	3,279	1013,8	699,54	-2,273	
59,56	3,283	1009,9	699,70	-2,277	
59,58	3,287	1010,3	699,70	-2,281	
59,60	3,291	1013,7	699,54	-2,284	
59,62	3,295	1012,2	699,59	-2,288	
59,64	3,299	1009,7	699,72	-2,292	
59,66	3,303	1012,2	699,64	-2,296	
59,68	3,307	1014,5	699,52	-2,299	
59,70	3,311	1011,6	699,61	-2,303	
59,72	3,315	1008,6	699,70	-2,307	
59,74	3,319	1010,3	699,58	-2,310	
59,76	3,323	1010,8	699,52	-2,314	
59,78	3,327	1007,2	699,67	-2,318	
59,80	3,331	1007,0	699,71	-2,322	
59,82	3,335	1010,5	699,56	-2,325	
59,84	3,339	1010,4	699,53	-2,329	
59,86	3,343	1006,7	699,69	-2,333	
59,88	3,347	1007,0	699,70	-2,336	
59,90	3,351	1009,9	699,55	-2,340	
59,92	3,355	1008,2	699,56	-2,344	
59,94	3,359	1004,8	699,69	-2,348	
59,96	3,363	1006,6	699,64	-2,351	
59,98	3,367	1010,1	699,50	-2,355	
60,00	3,371	1008,3	699,57	-2,359	
60,02	3,375	1004,9	699,73	-2,362	
60,04	3,379	1006,0	699,69	-2,366	
60,06	3,383	1008,4	699,52	-2,370	
60,08	3,387	1006,5	699,57	-2,374	
60,10	3,391	1003,9	699,72	-2,377	
60,12	3,395	1005,7	699,67	-2,381	
60,14	3,399	1007,8	699,52	-2,385	
60,16	3,403	1005,1	699,60	-2,388	
60,18	3,408	1002,8	699,73	-2,392	
60,20	3,411	1005,3	699,64	-2,396	
60,22	3,415	1006,3	699,54	-2,400	
60,24	3,419	1002,8	699,61	-2,403	
60,26	3,423	1001,7	699,63	-2,407	
60,28	3,427	1004,7	699,50	-2,411	
60,30	3,431	1004,1	699,54	-2,414	
60,32	3,435	999,99	699,78	-2,418	
60,34	3,439	1000,1	699,82	-2,422	
60,36	3,443	1003,7	699,62	-2,426	
60,38	3,447	1004,4	699,56	-2,430	
60,40	3,451	1001,9	699,69	-2,433	
60,42	3,455	1002,7	699,66	-2,437	
60,44	3,459	1004,9	699,53	-2,441	
60,46	3,463	1002,3	699,61	-2,444	
60,48	3,467	999,03	699,72	-2,448	
60,50	3,471	1001,5	699,62	-2,452	
60,52	3,475	1002,8	699,54	-2,456	
60,54	3,479	998,88	699,67	-2,459	
60,56	3,483	997,39	699,70	-2,463	
60,58	3,487	1000,2	699,57	-2,467	
60,60	3,491	1000,1	699,54	-2,470	
60,62	3,495	996,62	699,66	-2,474	
60,64	3,499	997,02	699,65	-2,478	
60,66	3,503	1000,4	699,51	-2,482	
60,68	3,507	998,89	699,57	-2,485	
60,70	3,511	995,87	699,74	-2,489	
60,72	3,515	997,69	699,69	-2,493	
60,74	3,519	1000,5	699,54	-2,496	
60,76	3,523	998,16	699,60	-2,500	
60,78	3,527	995,89	699,71	-2,504	
60,80	3,531	998,52	699,61	-2,508	
60,82	3,535	999,61	699,51	-2,512	
60,84	3,539	995,54	699,63	-2,515	
60,86	3,543	993,78	699,73	-2,519	
60,88	3,547	996,74	699,61	-2,523	
60,90	3,551	997,64	699,53	-2,526	
60,92	3,555	993,95	699,68	-2,530	
60,94	3,559	993,69	699,74	-2,534	
60,96	3,563	997,00	699,59	-2,538	
60,98	3,567	996,34	699,56	-2,541	
61,00	3,571	992,46	699,67	-2,545	
61,02	3,575	993,41	699,63	-2,549	
61,04	3,579	995,85	699,51	-2,553	
61,06	3,583	992,43	699,60	-2,556	
61,08	3,587	988,72	699,72	-2,560	
61,10	3,591	991,21	699,62	-2,564	
61,12	3,595	993,96	699,51	-2,567	
61,14	3,599	992,12	699,60	-2,571	
61,16	3,604	991,27	699,68	-2,575	
61,18	3,607	993,64	699,57	-2,579	
61,20	3,611	993,44	699,51	-2,583	
61,22	3,615	989,66	699,66	-2,586	
61,24	3,619	988,71	699,73	-2,590	
61,26	3,623	992,12	699,58	-2,594	
61,28	3,627	992,46	699,55	-2,597	
61,30	3,631	989,02	699,68	-2,601	
61,32	3,635	989,88	699,66	-2,605	
61,34	3,639	993,06	699,53	-2,609	
61,36	3,643	991,13	699,59	-2,613	
61,38	3,647	987,18	699,70	-2,616	
61,40	3,651	988,56	699,60	-2,620	
61,42	3,655	990,79	699,51	-2,624	
61,44	3,659	988,04	699,69	-2,627	
61,46	3,663	985,80	699,82	-2,631	
61,48	3,667	988,43	699,68	-2,635	
61,50	3,671	989,58	699,55	-2,639	
61,52	3,675	985,93	699,68	-2,642	
61,54	3,679	985,15	699,75	-2,644	
61,56	3,683	988,71	699,59	-2,646	
61,58	3,687	988,48	699,58	-2,649	
61,60	3,691	984,12	699,75	-2,653	
61,62	3,695	984,43	699,73	-2,657	
61,64	3,699	987,56	699,56	-2,660	
61,66	3,703	985,59	699,61	-2,664	
61,68	3,707	982,34	699,72	-2,668	
61,70	3,711	984,76	699,62	-2,672	
61,72	3,715	986,80	699,51	-2,675	
61,74	3,719	983,24	699,64	-2,679	
61,76	3,723	981,50	699,72	-2,684	
61,78	3,727	984,99	699,59	-2,690	
61,80	3,731	985,65	699,55	-2,695	
61,82	3,735	981,82	699,68	-2,699	
61,84	3,739	981,70	699,67	-2,703	
61,86	3,743	984,25	699,53	-2,706	
61,88	3,747	982,20	699,58	-2,710	
61,90	3,751	978,88	699,72	-2,714	
61,92	3,755	981,22	699,64	-2,718	
61,94	3,759	983,85	699,52	-2,722	
61,96	3,763	980,76	699,62	-2,725	
61,98	3,767	978,49	699,72	-2,729	
62,00	3,771	981,46	699,61	-2,733	
62,02	3,775	982,69	699,53	-2,737	
62,04	3,779	979,18	699,66	-2,740	
62,06	3,784	978,09	699,68	-2,744	
62,08	3,787	981,19	699,54	-2,748	
62,10	3,791	980,49	699,57	-2,752	
62,12	3,795	976,94	699,72	-2,756	
62,14	3,799	977,55	699,67	-2,759	
62,16	3,803	980,01	699,54	-2,763	
62,18	3,807	977,88	699,62	-2,767	
62,20	3,811	975,83	699,68	-2,771	
62,22	3,815	978,52	699,55	-2,775	
62,24	3,819	978,84	699,53	-2,778	
62,26	3,823	973,77	699,73	-2,782	
62,28	3,827	972,69	699,77	-2,786	
62,30	3,831	976,36	699,60	-2,790	
62,32	3,835	976,09	699,57	-2,793	
62,34	3,839	972,35	699,70	-2,797	
62,36	3,843	973,72	699,65	-2,801	
62,38	3,847	976,83	699,51	-2,805	
62,40	3,851	974,13	699,63	-2,808	
62,42	3,855	970,30	699,80	-2,812	
62,44	3,859	971,77	699,71	-2,816	
62,46	3,863	973,80	699,57	-2,820	
62,48	3,867	970,60	699,66	-2,824	
62,50	3,871	969,70	699,68	-2,827	
62,52	3,875	973,03	699,54	-2,831	
62,54	3,879	973,02	699,56	-2,835	
62,56	3,883	969,10	699,70	-2,838	
62,58	3,887	969,19	699,65	-2,842	
62,60	3,891	971,17	699,52	-2,846	
62,62	3,895	968,28	699,62	-2,850	
62,64	3,899	965,68	699,72	-2,854	
62,66	3,903	968,31	699,61	-2,857	
62,68	3,907	970,01	699,52	-2,861	
62,70	3,911	966,46	699,66	-2,865	
62,72	3,915	965,78	699,73	-2,869	
62,74	3,919	969,39	699,58	-2,872	
62,76	3,923	969,81	699,53	-2,876	
62,78	3,927	966,25	699,70	-2,880	
62,80	3,931	966,37	699,73	-2,884	
62,82	3,935	969,42	699,58	-2,887	
62,84	3,939	967,69	699,58	-2,891	
62,86	3,943	963,63	699,70	-2,895	
62,88	3,947	964,88	699,63	-2,899	
62,90	3,951	967,15	699,52	-2,903	
62,92	3,955	964,43	699,63	-2,906	
62,94	3,959	961,41	699,73	-2,910	
62,96	3,963	964,02	699,62	-2,914	
62,98	3,967	965,65	699,51	-2,918	
63,00	3,971	962,27	699,65	-2,921	
63,02	3,976	960,96	699,74	-2,925	
63,04	3,979	964,17	699,59	-2,929	
63,06	3,983	964,73	699,55	-2,933	
63,08	3,987	961,75	699,70	-2,937	
63,10	3,991	962,14	699,71	-2,940	
63,12	3,995	964,44	699,55	-2,944	
63,14	3,999	962,11	699,58	-2,948	
63,16	4,003	958,55	699,71	-2,952	
63,18	4,007	960,86	699,63	-2,956	
63,20	4,011	963,15	699,53	-2,959	
63,22	4,015	959,27	699,66	-2,963	
63,24	4,019	957,10	699,72	-2,967	
63,26	4,023	959,78	699,58	-2,971	
63,28	4,027	959,72	699,57	-2,974	
63,30	4,031	956,22	699,70	-2,978	
63,32	4,035	956,66	699,65	-2,982	
63,34	4,039	959,35	699,54	-2,986	
63,36	4,043	956,38	699,65	-2,990	
63,38	4,047	953,51	699,73	-2,993	
63,40	4,051	957,08	699,59	-2,997	
63,42	4,055	958,36	699,56	-3,001	
63,44	4,059	954,07	699,73	-3,005	
63,46	4,064	953,36	699,72	-3,009	
63,48	4,067	956,48	699,57	-3,012	
63,50	4,072	955,09	699,61	-3,016	
63,52	4,076	951,99	699,67	-3,020	
63,54	4,080	954,33	699,56	-3,024	
63,56	4,083	955,56	699,54	-3,028	
63,58	4,087	951,75	699,68	-3,031	
63,60	4,091	950,28	699,69	-3,035	
63,62	4,095	952,92	699,54	-3,039	
63,64	4,099	951,73	699,56	-3,043	
63,66	4,103	948,05	699,70	-3,047	
63,68	4,107	949,33	699,65	-3,050	
63,70	4,111	952,08	699,53	-3,054	
63,72	4,115	949,56	699,62	-3,058	
63,74	4,119	947,82	699,71	-3,062	
63,76	4,123	950,08	699,60	-3,066	
63,78	4,127	950,57	699,55	-3,069	
63,80	4,131	946,83	699,69	-3,073	
63,82	4,135	946,53	699,71	-3,077	
63,84	4,139	949,79	699,56	-3,081	
63,86	4,143	948,52	699,59	-3,085	
63,88	4,147	945,30	699,69	-3,088	
63,90	4,151	947,60	699,60	-3,092	
63,92	4,155	949,80	699,51	-3,096	
63,94	4,160	945,96	699,66	-3,100	
63,96	4,164	943,68	699,74	-3,104	
63,98	4,167	946,27	699,59	-3,107	
64,00	4,171	946,36	699,56	-3,111	
64,02	4,175	942,78	699,72	-3,115	
64,04	4,179	942,99	699,71	-3,119	
64,06	4,183	946,06	699,55	-3,123	
64,08	4,187	944,35	699,60	-3,127	
64,10	4,191	940,96	699,71	-3,130	
64,12	4,195	942,11	699,60	-3,134	
64,14	4,199	943,29	699,52	-3,138	
64,16	4,203	939,52	699,66	-3,142	
64,18	4,207	937,71	699,71	-3,146	
64,20	4,211	940,60	699,57	-3,149	
64,22	4,215	940,18	699,57	-3,153	
64,24	4,219	936,76	699,69	-3,157	
64,26	4,223	937,98	699,62	-3,161	
64,28	4,227	940,29	699,52	-3,165	
64,30	4,231	937,81	699,66	-3,169	
64,32	4,235	935,53	699,76	-3,172	
64,34	4,239	938,09	699,61	-3,176	
64,36	4,243	939,13	699,57	-3,180	
64,38	4,247	935,68	699,75	-3,184	
64,40	4,252	935,51	699,77	-3,188	
64,42	4,255	938,77	699,58	-3,191	
64,44	4,259	937,62	699,55	-3,195	
64,46	4,264	933,58	699,69	-3,199	
64,48	4,268	934,41	699,68	-3,203	
64,50	4,271	936,75	699,54	-3,207	
64,52	4,276	933,66	699,63	-3,210	
64,54	4,279	930,22	699,76	-3,214	
64,56	4,283	932,31	699,65	-3,218	
64,58	4,287	934,45	699,56	-3,222	
64,60	4,291	930,71	699,69	-3,226	
64,62	4,295	929,28	699,71	-3,230	
64,64	4,299	932,45	699,56	-3,233	
64,66	4,303	931,41	699,59	-3,237	
64,68	4,307	927,16	699,71	-3,241	
64,70	4,311	928,45	699,63	-3,245	
64,72	4,315	930,92	699,54	-3,249	
64,74	4,319	928,10	699,66	-3,253	
64,76	4,323	926,64	699,71	-3,256	
64,78	4,327	929,44	699,56	-3,260	
64,80	4,331	929,49	699,55	-3,264	
64,82	4,335	926,02	699,71	-3,268	
64,84	4,339	925,76	699,69	-3,272	
64,86	4,343	927,61	699,55	-3,276	
64,88	4,347	925,35	699,58	-3,279	
64,90	4,352	922,53	699,68	-3,283	
64,92	4,355	924,77	699,59	-3,287	
64,94	4,359	926,45	699,52	-3,291	
64,96	4,363	922,80	699,68	-3,295	
64,98	4,367	920,94	699,74	-3,299	
65,00	4,371	923,82	699,60	-3,302	
65,02	4,375	923,53	699,58	-3,306	
65,04	4,379	920,07	699,71	-3,310	
65,06	4,383	921,12	699,66	-3,314	
65,08	4,387	923,41	699,55	-3,318	
65,10	4,391	920,27	699,67	-3,321	
65,12	4,395	917,43	699,76	-3,325	
65,14	4,399	920,48	699,61	-3,329	
65,16	4,403	921,56	699,56	-3,333	
65,18	4,407	917,25	699,73	-3,337	
65,20	4,411	916,48	699,73	-3,341	
65,22	4,415	919,60	699,57	-3,345	
65,24	4,419	918,32	699,59	-3,348	
65,26	4,423	913,88	699,73	-3,352	
65,28	4,427	915,00	699,66	-3,356	
65,30	4,431	917,63	699,53	-3,360	
65,32	4,435	914,86	699,62	-3,364	
65,34	4,439	912,00	699,72	-3,368	
65,36	4,443	914,49	699,62	-3,372	
65,38	4,447	916,23	699,54	-3,375	
65,40	4,452	913,14	699,66	-3,379	
65,42	4,455	912,93	699,68	-3,383	
65,44	4,459	915,79	699,56	-3,387	
65,46	4,463	914,23	699,59	-3,391	
65,48	4,467	910,20	699,70	-3,394	
65,50	4,471	911,26	699,62	-3,398	
65,52	4,475	912,95	699,53	-3,402	
65,54	4,479	910,18	699,63	-3,406	
65,56	4,483	908,22	699,69	-3,410	
65,58	4,487	911,07	699,55	-3,414	
65,60	4,491	911,01	699,56	-3,417	
65,62	4,495	906,47	699,78	-3,421	
65,64	4,499	905,90	699,80	-3,425	
65,66	4,503	909,44	699,61	-3,429	
65,68	4,507	909,04	699,60	-3,433	
65,70	4,511	905,56	699,75	-3,437	
65,72	4,515	907,04	699,69	-3,441	
65,74	4,519	909,32	699,56	-3,444	
65,76	4,523	905,95	699,72	-3,448	
65,78	4,527	902,93	699,86	-3,452	
65,80	4,531	905,22	699,71	-3,456	
65,82	4,535	907,38	699,58	-3,460	
65,84	4,539	903,83	699,83	-3,464	
65,86	4,544	901,92	700,00	-3,468	
65,88	4,547	903,49	699,82	-3,471	
65,90	4,551	904,40	699,61	-3,475	
65,92	4,555	900,49	699,68	-3,479	
65,94	4,559	899,07	699,72	-3,483	
65,96	4,563	901,89	699,58	-3,487	
65,98	4,567	900,69	699,59	-3,490	
66,00	4,571	896,97	699,71	-3,494	
66,02	4,575	898,15	699,63	-3,498	
66,04	4,579	900,69	699,54	-3,502	
66,06	4,583	897,99	699,64	-3,506	
66,08	4,587	895,85	699,68	-3,510	
66,10	4,591	898,59	699,56	-3,514	
66,12	4,595	898,47	699,57	-3,518	
66,14	4,599	895,33	699,69	-3,522	
66,16	4,603	896,09	699,62	-3,525	
66,18	4,607	898,51	699,52	-3,529	
66,20	4,611	895,44	699,65	-3,533	
66,22	4,615	892,77	699,74	-3,537	
66,24	4,619	894,96	699,60	-3,541	
66,26	4,623	895,57	699,60	-3,545	
66,28	4,627	892,48	699,76	-3,549	
66,30	4,631	892,65	699,71	-3,552	
66,32	4,635	895,45	699,56	-3,556	
66,34	4,639	892,57	699,66	-3,560	
66,36	4,643	888,35	699,77	-3,564	
66,38	4,647	890,31	699,64	-3,568	
66,40	4,651	891,35	699,59	-3,572	
66,42	4,655	887,81	699,71	-3,575	
66,44	4,659	887,61	699,68	-3,579	
66,46	4,663	890,07	699,56	-3,583	
66,48	4,667	888,02	699,65	-3,587	
66,50	4,671	884,79	699,72	-3,591	
66,52	4,675	887,11	699,58	-3,595	
66,54	4,679	888,52	699,56	-3,599	
66,56	4,683	885,11	699,73	-3,603	
66,58	4,687	883,72	699,73	-3,606	
66,60	4,691	886,14	699,57	-3,610	
66,62	4,695	884,83	699,59	-3,614	
66,64	4,699	882,11	699,70	-3,618	
66,66	4,703	884,28	699,61	-3,622	
66,68	4,707	886,15	699,55	-3,626	
66,70	4,711	882,16	699,71	-3,630	
66,72	4,715	879,80	699,76	-3,633	
66,74	4,719	882,42	699,60	-3,637	
66,76	4,723	882,52	699,61	-3,641	
66,78	4,727	879,60	699,74	-3,645	
66,80	4,731	880,86	699,67	-3,649	
66,82	4,735	882,63	699,56	-3,653	
66,84	4,739	878,66	699,66	-3,657	
66,86	4,743	875,72	699,70	-3,660	
66,88	4,747	878,32	699,56	-3,664	
66,90	4,751	877,71	699,60	-3,668	
66,92	4,755	874,21	699,73	-3,672	
66,94	4,759	875,25	699,64	-3,676	
66,96	4,763	877,35	699,54	-3,680	
66,98	4,767	874,28	699,70	-3,683	
67,00	4,771	871,57	699,78	-3,687	
67,02	4,775	874,03	699,62	-3,691	
67,04	4,779	874,85	699,57	-3,695	
67,06	4,783	871,52	699,73	-3,699	
67,08	4,787	871,87	699,73	-3,703	
67,10	4,791	874,51	699,56	-3,707	
67,12	4,795	872,04	699,61	-3,711	
67,14	4,799	868,09	699,73	-3,715	
67,16	4,803	870,12	699,64	-3,718	
67,18	4,807	872,40	699,55	-3,722	
67,20	4,811	868,64	699,69	-3,726	
67,22	4,815	866,28	699,75	-3,730	
67,24	4,819	868,99	699,60	-3,734	
67,26	4,823	868,74	699,61	-3,738	
67,28	4,827	864,83	699,75	-3,742	
67,30	4,831	865,28	699,68	-3,745	
67,32	4,835	867,34	699,58	-3,749	
67,34	4,839	864,33	699,72	-3,753	
67,36	4,843	861,96	699,77	-3,757	
67,38	4,847	864,78	699,61	-3,761	
67,40	4,851	864,90	699,62	-3,765	
67,42	4,855	861,34	699,74	-3,769	
67,44	4,859	861,95	699,65	-3,773	
67,46	4,863	863,82	699,58	-3,776	
67,48	4,867	860,81	699,74	-3,780	
67,50	4,871	858,60	699,76	-3,784	
67,52	4,875	861,49	699,59	-3,788	
67,54	4,879	861,41	699,68	-3,792	
67,56	4,883	857,21	699,90	-3,796	
67,58	4,887	857,23	699,84	-3,800	
67,60	4,891	859,53	699,62	-3,804	
67,62	4,895	857,23	699,69	-3,807	
67,64	4,899	854,16	699,83	-3,811	
67,66	4,903	856,16	699,70	-3,815	
67,68	4,907	857,48	699,62	-3,819	
67,70	4,911	853,57	699,83	-3,823	
67,72	4,915	852,01	699,87	-3,827	
67,74	4,919	855,17	699,66	-3,831	
67,76	4,923	855,16	699,60	-3,835	
67,78	4,927	851,38	699,72	-3,838	
67,80	4,931	851,38	699,66	-3,842	
67,82	4,935	853,07	699,54	-3,846	
67,84	4,939	850,59	699,65	-3,850	
67,86	4,943	848,14	699,70	-3,854	
67,88	4,947	850,67	699,57	-3,858	
67,90	4,951	851,19	699,59	-3,862	
67,92	4,955	846,91	699,77	-3,866	
67,94	4,959	846,56	699,75	-3,870	
67,96	4,963	849,55	699,58	-3,873	
67,98	4,967	848,03	699,65	-3,877	
68,00	4,971	845,26	699,75	-3,881	
68,02	4,975	847,35	699,62	-3,885	
68,04	4,979	847,97	699,58	-3,889	
68,06	4,983	843,12	699,75	-3,893	
68,08	4,987	841,64	699,75	-3,897	
68,10	4,991	845,15	699,58	-3,901	
68,12	4,995	844,44	699,64	-3,904	
68,14	4,999	841,13	699,79	-3,908	
68,16	5,003	842,03	699,70	-3,912	
68,18	5,007	843,45	699,58	-3,916	
68,20	5,011	839,98	699,69	-3,920	
68,22	5,015	837,68	699,71	-3,924	
68,24	5,019	840,02	699,56	-3,928	
68,26	5,023	838,98	699,60	-3,932	
68,28	5,027	835,23	699,70	-3,935	
68,30	5,031	836,42	699,61	-3,939	
68,32	5,035	838,74	699,54	-3,943	
68,34	5,039	835,71	699,69	-3,947	
68,36	5,043	833,78	699,73	-3,951	
68,38	5,047	836,52	699,58	-3,955	
68,40	5,051	836,28	699,59	-3,959	
68,42	5,055	832,78	699,73	-3,963	
68,44	5,059	833,71	699,67	-3,967	
68,46	5,063	836,07	699,56	-3,971	
68,48	5,067	833,13	699,67	-3,975	
68,50	5,071	830,79	699,71	-3,979	
68,52	5,075	833,30	699,57	-3,982	
68,54	5,079	833,14	699,56	-3,986	
68,56	5,083	829,18	699,69	-3,990	
68,58	5,087	828,95	699,65	-3,994	
68,60	5,091	830,65	699,53	-3,998	
68,62	5,095	827,74	699,64	-4,002	
68,64	5,099	824,91	699,75	-4,006	
68,66	5,103	827,24	699,63	-4,010	
68,68	5,107	828,00	699,56	-4,013	
68,70	5,111	823,60	699,68	-4,017	
68,72	5,115	822,51	699,66	-4,021	
68,74	5,119	825,50	699,53	-4,025	
68,76	5,123	824,43	699,63	-4,029	
68,78	5,127	821,02	699,78	-4,033	
68,80	5,131	822,36	699,68	-4,037	
68,82	5,135	824,26	699,57	-4,041	
68,84	5,139	820,45	699,73	-4,045	
68,86	5,143	818,58	699,80	-4,049	
68,88	5,147	821,72	699,63	-4,053	
68,90	5,151	821,78	699,63	-4,057	
68,92	5,155	816,93	699,80	-4,060	
68,94	5,159	816,45	699,75	-4,064	
68,96	5,163	819,10	699,59	-4,068	
68,98	5,167	816,10	699,76	-4,072	
69,00	5,171	812,63	699,92	-4,076	
69,02	5,175	814,54	699,77	-4,080	
69,04	5,179	816,64	699,62	-4,084	
69,06	5,183	813,27	699,77	-4,088	
69,08	5,187	811,61	699,81	-4,092	
69,10	5,191	813,87	699,62	-4,095	
69,12	5,195	813,28	699,65	-4,099	
69,14	5,199	808,46	699,86	-4,103	
69,16	5,203	808,33	699,81	-4,107	
69,18	5,207	811,15	699,61	-4,111	
69,20	5,211	808,62	699,71	-4,115	
69,22	5,215	804,94	699,84	-4,119	
69,24	5,219	807,25	699,71	-4,123	
69,26	5,223	809,31	699,60	-4,127	
69,28	5,227	805,80	699,73	-4,131	
69,30	5,231	804,34	699,74	-4,135	
69,32	5,235	807,08	699,58	-4,139	
69,34	5,239	806,29	699,62	-4,143	
69,36	5,243	802,65	699,75	-4,146	
69,38	5,247	803,68	699,66	-4,150	
69,40	5,251	805,58	699,57	-4,154	
69,42	5,255	801,81	699,72	-4,158	
69,44	5,259	799,30	699,78	-4,162	
69,46	5,263	801,83	699,62	-4,166	
69,48	5,267	801,65	699,65	-4,170	
69,50	5,271	797,16	699,89	-4,174	
69,52	5,275	796,94	699,87	-4,178	
69,54	5,279	799,86	699,63	-4,182	
69,56	5,283	798,83	699,68	-4,186	
69,58	5,287	794,96	699,90	-4,189	
69,60	5,291	795,73	699,83	-4,193	
69,62	5,295	797,63	699,63	-4,197	
69,64	5,299	794,77	699,67	-4,201	
69,66	5,303	791,26	699,76	-4,205	
69,68	5,307	793,70	699,63	-4,209	
69,70	5,311	794,56	699,63	-4,213	
69,72	5,315	789,61	699,91	-4,217	
69,74	5,319	787,92	699,96	-4,221	
69,76	5,323	790,96	699,72	-4,225	
69,78	5,327	790,93	699,62	-4,229	
69,80	5,331	787,79	699,74	-4,233	
69,82	5,335	788,23	699,71	-4,237	
69,84	5,339	790,23	699,56	-4,240	
69,86	5,343	787,78	699,69	-4,244	
69,88	5,347	784,18	699,84	-4,248	
69,90	5,351	786,20	699,70	-4,252	
69,92	5,355	787,93	699,62	-4,256	
69,94	5,359	783,63	699,83	-4,260	
69,96	5,363	781,59	699,87	-4,264	
69,98	5,367	784,37	699,65	-4,268	
70,00	5,371	784,03	699,65	-4,272	
70,02	5,375	779,87	699,86	-4,276	
70,04	5,379	779,98	699,83	-4,279	
70,06	5,383	782,55	699,61	-4,283	
70,08	5,387	780,41	699,71	-4,287	
70,10	5,391	777,00	699,92	-4,291	
70,12	5,395	778,01	699,82	-4,295	
70,14	5,399	780,17	699,64	-4,299	
70,16	5,403	777,15	699,76	-4,303	
70,18	5,407	774,53	699,83	-4,307	
70,20	5,411	777,01	699,66	-4,311	
70,22	5,415	777,18	699,64	-4,315	
70,24	5,419	772,54	699,82	-4,319	
70,26	5,423	771,86	699,78	-4,323	
70,28	5,427	775,06	699,59	-4,327	
70,30	5,431	773,05	699,76	-4,330	
70,32	5,435	768,40	700,03	-4,334	
70,34	5,439	769,21	699,97	-4,338	
70,36	5,443	771,70	699,69	-4,342	
70,38	5,447	769,61	699,63	-4,346	
70,40	5,451	766,09	699,73	-4,350	
70,42	5,455	767,74	699,64	-4,354	
70,44	5,459	769,26	699,58	-4,358	
70,46	5,463	765,39	699,77	-4,362	
70,48	5,467	762,61	699,83	-4,366	
70,50	5,471	765,46	699,64	-4,370	
70,52	5,475	766,38	699,67	-4,374	
70,54	5,479	763,09	699,89	-4,377	
70,56	5,483	763,38	699,85	-4,381	
70,58	5,487	765,87	699,63	-4,385	
70,60	5,491	763,70	699,70	-4,389	
70,62	5,495	760,25	699,83	-4,393	
70,64	5,499	761,42	699,70	-4,397	
70,66	5,503	762,60	699,63	-4,401	
70,68	5,507	758,72	699,88	-4,405	
70,70	5,511	756,45	699,97	-4,409	
70,72	5,515	758,56	699,75	-4,413	
70,74	5,519	759,50	699,62	-4,417	
70,76	5,523	755,99	699,73	-4,421	
70,78	5,527	755,78	699,70	-4,425	
70,80	5,531	757,79	699,57	-4,429	
70,82	5,535	754,82	699,72	-4,432	
70,84	5,539	750,71	699,87	-4,436	
70,86	5,543	752,45	699,73	-4,440	
70,88	5,547	754,47	699,63	-4,444	
70,90	5,551	750,24	699,92	-4,448	
70,92	5,555	747,93	700,08	-4,452	
70,94	5,559	749,75	699,88	-4,456	
70,96	5,563	750,59	699,63	-4,460	
70,98	5,567	746,98	699,68	-4,464	
71,00	5,571	746,09	699,70	-4,468	
71,02	5,575	748,51	699,57	-4,472	
71,04	5,579	746,75	699,61	-4,476	
71,06	5,583	742,60	699,72	-4,479	
71,08	5,587	743,42	699,63	-4,483	
71,10	5,591	746,10	699,54	-4,487	
71,12	5,595	743,03	699,71	-4,491	
71,14	5,599	741,24	699,79	-4,495	
71,16	5,603	744,49	699,62	-4,499	
71,18	5,607	744,69	699,63	-4,503	
71,20	5,611	740,21	699,84	-4,507	
71,22	5,615	739,88	699,81	-4,511	
71,24	5,619	742,31	699,61	-4,515	
71,26	5,623	739,78	699,75	-4,519	
71,28	5,627	734,94	699,99	-4,523	
71,30	5,631	735,30	699,91	-4,527	
71,32	5,635	737,30	699,65	-4,530	
71,34	5,639	734,76	699,70	-4,534	
71,36	5,643	731,63	699,84	-4,538	
71,38	5,647	733,33	699,71	-4,542	
71,40	5,651	734,61	699,59	-4,546	
71,42	5,655	730,55	699,83	-4,550	
71,44	5,659	727,48	699,98	-4,554	
71,46	5,663	730,07	699,80	-4,558	
71,48	5,667	731,99	699,63	-4,562	
71,50	5,671	728,80	699,76	-4,566	
71,52	5,675	727,48	699,80	-4,570	
71,54	5,679	729,85	699,63	-4,574	
71,56	5,683	728,60	699,67	-4,578	
71,58	5,687	724,19	699,83	-4,582	
71,60	5,691	724,80	699,74	-4,586	
71,62	5,695	727,47	699,58	-4,590	
71,64	5,699	724,12	699,78	-4,594	
71,66	5,703	720,49	699,97	-4,597	
71,68	5,707	721,50	699,82	-4,601	
71,70	5,711	722,97	699,62	-4,605	
71,72	5,715	719,54	699,71	-4,609	
71,74	5,719	717,78	699,75	-4,613	
71,76	5,723	721,03	699,60	-4,617	
71,78	5,727	721,10	699,71	-4,621	
71,80	5,731	716,22	699,98	-4,625	
71,82	5,735	715,36	699,95	-4,629	
71,84	5,739	718,12	699,69	-4,633	
71,86	5,743	716,95	699,70	-4,637	
71,88	5,747	713,13	699,90	-4,641	
71,90	5,751	713,84	699,84	-4,645	
71,92	5,755	715,88	699,63	-4,649	
71,94	5,759	712,69	699,70	-4,653	
71,96	5,763	709,19	699,82	-4,657	
71,98	5,767	710,76	699,68	-4,660	
72,00	5,771	712,24	699,61	-4,664	
72,02	5,775	708,46	699,87	-4,668	
72,04	5,779	706,69	699,98	-4,672	
72,06	5,783	708,63	699,76	-4,676	
72,08	5,787	708,60	699,62	-4,680	
72,10	5,791	704,71	699,77	-4,684	
72,12	5,795	704,16	699,79	-4,688	
72,14	5,799	706,56	699,61	-4,692	
72,16	5,803	704,39	699,64	-4,696	
72,18	5,807	700,40	699,77	-4,700	
72,20	5,811	702,17	699,67	-4,704	
72,22	5,815	704,11	699,58	-4,708	
72,24	5,819	700,61	699,71	-4,712	
72,26	5,823	698,41	699,73	-4,716	
72,28	5,827	701,08	699,57	-4,720	
72,30	5,831	700,23	699,65	-4,724	
72,32	5,835	695,78	699,82	-4,728	
72,34	5,839	696,04	699,73	-4,731	
72,36	5,843	698,51	699,59	-4,735	
72,38	5,847	695,36	699,77	-4,739	
72,40	5,851	692,28	699,89	-4,743	
72,42	5,855	694,33	699,71	-4,747	
72,44	5,859	695,62	699,63	-4,751	
72,46	5,863	691,76	699,86	-4,755	
72,48	5,867	690,05	699,91	-4,759	
72,50	5,871	692,10	699,69	-4,763	
72,52	5,875	691,59	699,63	-4,767	
72,54	5,879	687,32	699,83	-4,771	
72,56	5,883	686,77	699,83	-4,775	
72,58	5,887	689,18	699,62	-4,779	
72,60	5,891	687,39	699,74	-4,783	
72,62	5,895	682,82	700,01	-4,787	
72,64	5,899	683,09	699,96	-4,791	
72,66	5,903	684,83	699,69	-4,795	
72,68	5,907	683,12	699,69	-4,798	
72,70	5,911	679,29	699,97	-4,802	
72,72	5,915	679,98	699,99	-4,806	
72,74	5,919	681,60	699,73	-4,810	
72,76	5,923	680,25	699,64	-4,814	
72,78	5,927	677,06	699,77	-4,818	
72,80	5,931	678,16	699,71	-4,822	
72,82	5,935	680,33	699,58	-4,826	
72,84	5,939	677,53	699,85	-4,830	
72,86	5,943	673,33	700,13	-4,834	
72,88	5,947	673,75	700,03	-4,838	
72,90	5,951	675,69	699,72	-4,842	
72,92	5,955	674,17	699,61	-4,846	
72,94	5,959	672,16	699,63	-4,850	
72,96	5,963	673,91	699,54	-4,854	
72,98	5,967	673,49	699,53	-4,858	
73,00	5,971	668,42	699,74	-4,862	
73,02	5,975	665,80	699,79	-4,866	
73,04	5,979	669,04	699,62	-4,869	
73,06	5,983	670,24	699,66	-4,873	
73,08	5,987	667,00	699,83	-4,877	
73,10	5,991	666,75	699,76	-4,881	
73,12	5,995	668,52	699,60	-4,885	
73,14	5,999	665,60	699,69	-4,889	
73,16	6,003	662,85	699,76	-4,893	
73,18	6,007	664,62	699,61	-4,897	
73,20	6,011	664,94	699,68	-4,901	
73,22	6,015	660,63	699,96	-4,905	
73,24	6,019	659,23	699,97	-4,909	
73,26	6,023	661,62	699,71	-4,913	
73,28	6,027	661,13	699,63	-4,917	
73,30	6,031	657,28	699,75	-4,921	
73,32	6,035	657,89	699,69	-4,924	
73,34	6,039	659,36	699,58	-4,928	
73,36	6,043	655,71	699,72	-4,932	
73,38	6,047	652,21	699,79	-4,936	
73,40	6,051	654,46	699,63	-4,940	
73,42	6,055	654,95	699,60	-4,944	
73,44	6,059	651,29	699,73	-4,948	
73,46	6,063	651,54	699,67	-4,952	
73,48	6,067	653,94	699,57	-4,956	
73,50	6,071	650,73	699,71	-4,960	
73,52	6,075	647,46	699,78	-4,964	
73,54	6,079	649,88	699,62	-4,968	
73,56	6,083	650,49	699,62	-4,972	
73,58	6,087	646,25	699,81	-4,976	
73,60	6,091	645,86	699,76	-4,980	
73,62	6,095	648,15	699,60	-4,983	
73,64	6,099	645,44	699,74	-4,987	
73,66	6,103	642,08	699,88	-4,991	
73,68	6,107	643,49	699,73	-4,995	
73,70	6,111	644,45	699,60	-4,999	
73,72	6,115	640,44	699,81	-5,003	
73,74	6,119	638,54	699,91	-5,007	
73,76	6,123	640,98	699,72	-5,011	
73,78	6,127	641,40	699,63	-5,015	
73,80	6,131	637,36	699,80	-5,019	
73,82	6,135	635,87	699,80	-5,023	
73,84	6,139	638,22	699,61	-5,027	
73,86	6,143	637,48	699,70	-5,031	
73,88	6,147	633,39	699,94	-5,035	
73,90	6,151	632,91	699,88	-5,039	
73,92	6,155	635,27	699,65	-5,043	
73,94	6,159	633,74	699,67	-5,046	
73,96	6,163	630,52	699,79	-5,051	
73,98	6,167	631,10	699,68	-5,054	
74,00	6,171	631,88	699,60	-5,058	
74,02	6,175	627,91	699,83	-5,062	
74,04	6,179	625,40	699,92	-5,066	
74,06	6,183	627,42	699,72	-5,070	
74,08	6,187	628,16	699,65	-5,074	
74,10	6,191	624,33	699,82	-5,078	
74,12	6,195	624,31	699,79	-5,082	
74,14	6,199	626,86	699,61	-5,086	
74,16	6,203	624,31	699,70	-5,090	
74,18	6,207	620,02	699,83	-5,094	
74,20	6,211	621,51	699,70	-5,098	
74,22	6,215	623,60	699,60	-5,102	
74,24	6,219	620,14	699,82	-5,106	
74,26	6,223	617,74	699,94	-5,110	
74,28	6,227	619,86	699,74	-5,114	
74,30	6,231	620,03	699,67	-5,118	
74,32	6,235	615,43	699,96	-5,122	
74,34	6,239	614,01	700,08	-5,126	
74,36	6,243	615,91	699,85	-5,130	
74,38	6,247	616,51	699,62	-5,134	
74,40	6,251	612,90	699,67	-5,138	
74,42	6,255	611,91	699,69	-5,141	
74,44	6,259	613,65	699,57	-5,145	
74,46	6,263	611,29	699,68	-5,149	
74,48	6,267	607,68	699,82	-5,153	
74,50	6,271	608,55	699,70	-5,157	
74,52	6,275	610,80	699,58	-5,161	
74,54	6,279	607,84	699,75	-5,165	
74,56	6,283	606,16	699,82	-5,169	
74,58	6,287	608,19	699,64	-5,173	
74,60	6,291	607,67	699,62	-5,177	
74,62	6,295	603,40	699,82	-5,181	
74,64	6,299	602,79	699,80	-5,185	
74,66	6,303	605,24	699,60	-5,189	
74,68	6,307	603,58	699,77	-5,193	
74,70	6,311	599,65	700,07	-5,197	
74,72	6,315	599,96	700,03	-5,201	
74,74	6,319	601,26	699,75	-5,205	
74,76	6,323	599,42	699,69	-5,209	
74,78	6,327	595,61	699,86	-5,213	
74,80	6,331	596,26	699,82	-5,217	
74,82	6,335	597,83	699,63	-5,221	
74,84	6,339	594,84	699,74	-5,225	
74,86	6,343	591,66	699,91	-5,229	
74,88	6,347	593,12	699,79	-5,233	
74,90	6,351	594,68	699,61	-5,236	
74,92	6,355	591,47	699,73	-5,240	
74,94	6,360	588,89	699,82	-5,244	
74,96	6,363	590,68	699,66	-5,248	
74,98	6,367	590,70	699,65	-5,252	
75,00	6,371	586,38	699,90	-5,256	
75,02	6,375	585,27	699,93	-5,260	
75,04	6,379	587,96	699,70	-5,264	
75,06	6,383	587,55	699,65	-5,268	
75,08	6,387	583,80	699,76	-5,272	
75,10	6,391	584,56	699,67	-5,276	
75,12	6,395	586,01	699,60	-5,280	
75,14	6,399	582,86	699,79	-5,284	
75,16	6,403	580,17	699,86	-5,288	
75,18	6,407	582,46	699,67	-5,292	
75,20	6,411	582,32	699,69	-5,296	
75,22	6,415	577,60	699,93	-5,300	
75,24	6,419	576,29	699,91	-5,304	
75,26	6,423	578,43	699,67	-5,308	
75,28	6,427	577,58	699,68	-5,311	
75,30	6,431	573,62	699,86	-5,315	
75,32	6,435	573,50	699,79	-5,319	
75,34	6,439	575,24	699,61	-5,323	
75,36	6,443	572,06	699,78	-5,327	
75,38	6,447	568,25	699,99	-5,331	
75,40	6,451	569,31	699,87	-5,335	
75,42	6,455	570,94	699,64	-5,339	
75,44	6,459	567,98	699,74	-5,343	
75,46	6,463	566,02	699,85	-5,347	
75,48	6,467	567,77	699,70	-5,351	
75,50	6,471	568,53	699,65	-5,355	
75,52	6,475	564,42	699,92	-5,359	
75,54	6,479	562,39	700,01	-5,363	
75,56	6,483	564,20	699,79	-5,367	
75,58	6,487	565,56	699,63	-5,371	
75,60	6,491	562,31	699,86	-5,375	
75,62	6,495	560,36	700,00	-5,379	
75,64	6,499	561,43	699,81	-5,383	
75,66	6,503	561,31	699,64	-5,386	
75,68	6,507	557,09	699,79	-5,390	
75,70	6,511	555,40	699,83	-5,394	
75,72	6,515	557,68	699,64	-5,398	
75,74	6,519	557,29	699,65	-5,402	
75,76	6,523	552,75	699,86	-5,406	
75,78	6,527	551,61	699,83	-5,410	
75,80	6,531	554,24	699,62	-5,414	
75,82	6,535	553,12	699,62	-5,418	
75,84	6,539	549,29	699,74	-5,422	
75,86	6,543	549,87	699,65	-5,426	
75,88	6,547	551,20	699,58	-5,430	
75,90	6,551	547,49	699,81	-5,434	
75,92	6,555	544,86	699,92	-5,438	
75,94	6,559	546,76	699,72	-5,442	
75,96	6,563	547,42	699,63	-5,446	
75,98	6,567	543,79	699,88	-5,449	
76,00	6,571	542,66	699,96	-5,454	
76,02	6,575	543,57	699,75	-5,457	
76,04	6,579	542,59	699,65	-5,461	
76,06	6,583	538,38	699,84	-5,465	
76,08	6,587	538,17	699,88	-5,469	
76,10	6,591	540,73	699,67	-5,473	
76,12	6,595	539,60	699,69	-5,477	
76,14	6,599	535,02	699,88	-5,481	
76,16	6,603	534,77	699,83	-5,485	
76,18	6,607	537,41	699,63	-5,489	
76,20	6,611	534,94	699,76	-5,493	
76,22	6,615	531,31	699,92	-5,497	
76,24	6,619	532,21	699,79	-5,501	
76,26	6,623	533,28	699,62	-5,505	
76,28	6,627	530,07	699,76	-5,509	
76,30	6,631	527,39	699,84	-5,513	
76,32	6,635	529,28	699,67	-5,517	
76,34	6,639	529,16	699,62	-5,521	
76,36	6,643	524,62	699,81	-5,525	
76,38	6,647	523,72	699,80	-5,529	
76,40	6,651	526,02	699,62	-5,533	
76,42	6,655	524,03	699,74	-5,537	
76,44	6,659	520,96	699,93	-5,541	
76,46	6,663	522,33	699,82	-5,545	
76,48	6,667	524,71	699,62	-5,548	
76,50	6,671	521,31	699,80	-5,552	
76,52	6,675	517,32	700,02	-5,556	
76,54	6,679	517,38	699,91	-5,560	
76,56	6,683	518,84	699,66	-5,564	
76,58	6,687	516,51	699,75	-5,568	
76,60	6,691	513,55	699,91	-5,572	
76,62	6,695	513,99	699,78	-5,576	
76,64	6,699	515,08	699,61	-5,580	
76,66	6,703	511,23	699,80	-5,584	
76,68	6,707	507,61	699,96	-5,588	
76,70	6,711	509,16	699,80	-5,592	
76,72	6,715	510,65	699,63	-5,596	
76,74	6,719	507,51	699,77	-5,600	
76,76	6,723	505,51	699,85	-5,604	
76,78	6,727	507,37	699,67	-5,608	
76,80	6,731	506,92	699,71	-5,612	
76,82	6,735	501,68	700,03	-5,616	
76,84	6,739	500,33	700,08	-5,620	
76,86	6,743	502,31	699,82	-5,624	
76,88	6,747	502,49	699,63	-5,628	
76,90	6,751	498,94	699,72	-5,632	
76,92	6,755	498,26	699,73	-5,636	
76,94	6,759	499,86	699,60	-5,640	
76,96	6,763	497,31	699,71	-5,644	
76,98	6,767	493,86	699,84	-5,648	
77,00	6,771	494,91	699,71	-5,651	
77,02	6,775	496,35	699,62	-5,655	
77,04	6,779	492,20	699,85	-5,659	
77,06	6,783	489,59	699,94	-5,663	
77,08	6,787	491,42	699,74	-5,667	
77,10	6,791	491,82	699,62	-5,671	
77,12	6,795	487,75	699,81	-5,675	
77,14	6,799	486,96	699,85	-5,679	
77,16	6,803	489,26	699,65	-5,683	
77,18	6,807	487,69	699,68	-5,687	
77,20	6,811	483,06	699,89	-5,691	
77,22	6,815	483,62	699,84	-5,695	
77,24	6,819	486,24	699,63	-5,699	
77,26	6,823	483,68	699,71	-5,703	
77,28	6,828	479,64	699,88	-5,707	
77,30	6,832	479,89	699,77	-5,711	
77,32	6,835	481,27	699,60	-5,715	
77,34	6,839	477,94	699,76	-5,719	
77,36	6,843	474,84	699,87	-5,723	
77,38	6,847	476,39	699,70	-5,726	
77,40	6,851	477,62	699,64	-5,731	
77,42	6,855	473,83	699,88	-5,735	
77,44	6,859	471,75	699,94	-5,739	
77,46	6,863	473,65	699,71	-5,742	
77,48	6,867	473,40	699,62	-5,746	
77,50	6,871	469,52	699,75	-5,750	
77,52	6,875	469,36	699,71	-5,754	
77,54	6,879	470,97	699,59	-5,758	
77,56	6,883	467,89	699,70	-5,762	
77,58	6,887	464,20	699,80	-5,766	
77,60	6,891	465,72	699,65	-5,770	
77,62	6,895	466,93	699,65	-5,774	
77,64	6,899	462,83	699,93	-5,778	
77,66	6,903	460,46	699,98	-5,782	
77,68	6,907	461,75	699,75	-5,786	
77,70	6,911	461,68	699,65	-5,790	
77,72	6,915	457,73	699,88	-5,794	
77,74	6,919	456,47	699,94	-5,798	
77,76	6,923	457,88	699,71	-5,802	
77,78	6,927	458,00	699,65	-5,806	
77,80	6,931	454,31	699,89	-5,810	
77,82	6,935	453,13	699,95	-5,814	
77,84	6,939	454,59	699,73	-5,818	
77,86	6,943	453,62	699,67	-5,822	
77,88	6,947	449,39	699,86	-5,826	
77,90	6,951	449,02	699,84	-5,830	
77,92	6,955	451,11	699,63	-5,834	
77,94	6,959	449,40	699,70	-5,838	
77,96	6,963	444,68	699,97	-5,842	
77,98	6,967	444,76	699,95	-5,846	
78,00	6,971	446,52	699,70	-5,850	
78,02	6,975	444,66	699,67	-5,854	
78,04	6,979	441,19	699,83	-5,858	
78,06	6,983	441,55	699,77	-5,861	
78,08	6,987	442,63	699,58	-5,865	
78,10	6,991	439,56	699,74	-5,869	
78,12	6,995	435,04	699,99	-5,873	
78,14	6,999	435,20	699,92	-5,877	
78,16	7,003	437,60	699,67	-5,881	
78,18	7,007	435,99	699,69	-5,885	
78,20	7,011	433,02	699,83	-5,889	
78,22	7,015	433,40	699,73	-5,893	
78,24	7,019	434,42	699,61	-5,897	
78,26	7,023	430,85	699,86	-5,901	
78,28	7,027	427,72	700,06	-5,905	
78,30	7,031	428,95	699,90	-5,909	
78,32	7,035	430,22	699,67	-5,913	
78,34	7,039	427,05	699,76	-5,917	
78,36	7,043	424,87	699,84	-5,921	
78,38	7,047	426,22	699,67	-5,925	
78,40	7,051	425,69	699,64	-5,929	
78,42	7,055	420,46	699,96	-5,933	
78,44	7,059	417,97	700,09	-5,937	
78,46	7,063	419,68	699,88	-5,941	
78,48	7,067	420,63	699,63	-5,945	
78,50	7,071	417,40	699,70	-5,949	
78,52	7,075	415,63	699,77	-5,953	
78,54	7,079	417,14	699,63	-5,957	
78,56	7,083	416,38	699,67	-5,961	
78,58	7,087	411,86	699,89	-5,965	
78,60	7,091	410,58	699,86	-5,969	
78,62	7,095	413,17	699,65	-5,973	
78,64	7,099	412,21	699,72	-5,977	
78,66	7,103	408,33	699,92	-5,981	
78,68	7,107	408,46	699,84	-5,985	
78,70	7,111	409,88	699,64	-5,989	
78,72	7,115	406,55	699,82	-5,993	
78,74	7,119	402,31	700,07	-5,997	
78,76	7,123	402,37	699,98	-6,001	
78,78	7,127	403,93	699,70	-6,005	
78,80	7,131	402,36	699,68	-6,009	
78,82	7,135	399,08	699,87	-6,013	
78,84	7,139	399,18	699,81	-6,017	
78,86	7,143	400,07	699,63	-6,021	
78,88	7,147	396,52	699,79	-6,025	
78,90	7,151	392,62	700,01	-6,029	
78,92	7,155	393,83	699,91	-6,033	
78,94	7,159	395,47	699,66	-6,037	
78,96	7,163	393,44	699,73	-6,041	
78,98	7,167	390,16	699,97	-6,045	
79,00	7,171	389,93	699,93	-6,049	
79,02	7,175	390,22	699,67	-6,053	
79,04	7,179	388,18	699,66	-6,057	
79,06	7,183	384,63	699,84	-6,061	
79,08	7,187	384,89	699,79	-6,065	
79,10	7,191	386,24	699,62	-6,069	
79,12	7,195	383,02	699,78	-6,073	
79,14	7,199	379,20	699,96	-6,077	
79,16	7,203	380,44	699,83	-6,081	
79,18	7,207	382,12	699,62	-6,085	
79,20	7,211	378,67	699,87	-6,089	
79,22	7,215	375,28	700,16	-6,093	
79,24	7,219	375,66	700,07	-6,097	
79,26	7,223	375,84	699,76	-6,101	
79,28	7,227	374,53	699,65	-6,105	
79,30	7,231	371,53	699,88	-6,109	
79,32	7,235	370,42	699,94	-6,113	
79,34	7,239	370,95	699,71	-6,116	
79,36	7,243	370,43	699,66	-6,120	
79,38	7,247	365,93	700,00	-6,125	
79,40	7,251	364,47	700,13	-6,129	
79,42	7,255	365,28	699,92	-6,133	
79,44	7,259	365,53	699,65	-6,137	
79,46	7,263	363,07	699,77	-6,141	
79,48	7,267	360,81	699,98	-6,145	
79,50	7,271	360,48	699,88	-6,149	
79,52	7,275	361,20	699,66	-6,153	
79,54	7,279	358,72	699,79	-6,157	
79,56	7,283	355,77	700,01	-6,161	
79,58	7,287	356,14	699,92	-6,165	
79,60	7,291	357,38	699,67	-6,169	
79,62	7,295	354,45	699,78	-6,173	
79,64	7,300	350,64	700,02	-6,177	
79,66	7,304	350,56	699,94	-6,181	
79,68	7,307	351,46	699,67	-6,185	
79,70	7,311	349,71	699,68	-6,189	
79,72	7,315	345,90	699,90	-6,193	
79,74	7,319	345,58	699,88	-6,197	
79,76	7,323	346,96	699,65	-6,201	
79,78	7,327	344,63	699,72	-6,204	
79,80	7,331	340,63	699,96	-6,209	
79,82	7,335	340,76	699,93	-6,213	
79,84	7,339	341,83	699,69	-6,217	
79,86	7,343	339,74	699,67	-6,221	
79,88	7,347	335,88	699,78	-6,225	
79,90	7,351	335,80	699,68	-6,228	
79,92	7,355	336,53	699,61	-6,232	
79,94	7,359	332,72	699,87	-6,237	
79,96	7,363	329,90	700,00	-6,241	
79,98	7,367	331,11	699,81	-6,245	
80,00	7,371	331,67	699,64	-6,249	
80,02	7,375	327,64	699,87	-6,253	
80,04	7,379	325,10	700,03	-6,257	
80,06	7,383	325,10	699,86	-6,261	
80,08	7,387	325,07	699,65	-6,265	
80,10	7,391	321,34	699,82	-6,269	
80,12	7,395	318,19	700,00	-6,273	
80,14	7,399	319,01	699,86	-6,277	
80,16	7,403	320,48	699,64	-6,281	
80,18	7,407	316,83	699,83	-6,285	
80,20	7,411	312,82	700,06	-6,289	
80,22	7,415	313,16	699,95	-6,293	
80,24	7,419	314,33	699,68	-6,297	
80,26	7,423	312,58	699,76	-6,301	
80,28	7,427	309,42	700,07	-6,305	
80,30	7,431	308,85	700,08	-6,309	
80,32	7,435	308,48	699,79	-6,313	
80,34	7,439	307,29	699,64	-6,317	
80,36	7,443	303,76	699,88	-6,321	
80,38	7,447	302,51	699,99	-6,325	
80,40	7,451	303,36	699,79	-6,329	
80,42	7,455	303,49	699,65	-6,333	
80,44	7,459	299,26	699,85	-6,337	
80,46	7,463	296,89	699,94	-6,341	
80,48	7,467	297,81	699,73	-6,345	
80,50	7,471	297,33	699,64	-6,349	
80,52	7,475	292,98	699,88	-6,353	
80,54	7,479	291,11	699,95	-6,357	
80,56	7,483	291,76	699,74	-6,361	
80,58	7,487	290,86	699,63	-6,365	
80,60	7,491	286,27	699,82	-6,369	
80,62	7,495	284,27	699,87	-6,373	
80,64	7,499	285,04	699,67	-6,377	
80,66	7,503	283,58	699,72	-6,381	
80,68	7,507	278,62	700,02	-6,385	
80,70	7,511	276,20	700,05	-6,389	
80,72	7,515	276,55	699,80	-6,393	
80,74	7,519	275,63	699,62	-6,397	
80,76	7,523	271,53	699,69	-6,401	
80,78	7,527	271,17	699,67	-6,405	
80,80	7,531	272,88	699,57	-6,409	
80,82	7,535	269,56	699,75	-6,413	
80,84	7,539	264,23	699,88	-6,417	
80,86	7,543	264,22	699,73	-6,421	
80,88	7,547	265,68	699,66	-6,425	
80,90	7,551	261,61	699,97	-6,430	
80,92	7,555	258,38	700,11	-6,434	
80,94	7,559	258,53	699,90	-6,438	
80,96	7,563	258,56	699,64	-6,442	
80,98	7,567	254,80	699,81	-6,446	
81,00	7,571	251,84	700,02	-6,450	
81,02	7,575	251,38	699,91	-6,454	
81,04	7,579	251,15	699,65	-6,458	
81,06	7,583	247,82	699,75	-6,462	
81,08	7,587	243,16	699,98	-6,466	
81,10	7,591	242,18	699,91	-6,470	
81,12	7,595	242,97	699,68	-6,474	
81,14	7,599	239,45	699,81	-6,478	
81,16	7,603	234,67	700,04	-6,482	
81,18	7,607	234,11	699,94	-6,486	
81,20	7,611	234,57	699,67	-6,490	
81,22	7,615	232,32	699,72	-6,494	
81,24	7,619	227,93	699,97	-6,498	
81,26	7,623	226,05	699,95	-6,502	
81,28	7,627	225,64	699,70	-6,506	
81,30	7,631	222,64	699,74	-6,511	
81,32	7,635	217,36	699,98	-6,515	
81,34	7,639	215,09	699,93	-6,519	
81,36	7,643	214,31	699,68	-6,523	
81,38	7,647	210,04	699,76	-6,527	
81,40	7,651	202,52	700,01	-6,531	
81,42	7,655	197,78	699,97	-6,534	
81,44	7,659	194,07	699,70	-6,535	
81,46	7,662	187,47	699,75	-6,537	
81,48	7,664	176,26	700,20	-6,538	
81,50	7,666	166,84	700,34	-6,539	
81,52	7,666	158,92	700,10	-6,539	
81,54	7,666	151,00	699,74	-6,539	
81,56	7,666	142,65	699,71	-6,540	
81,58	7,666	135,91	699,91	-6,540	
81,60	7,666	131,18	699,86	-6,540	
81,62	7,666	127,93	699,66	-6,541	
81,64	7,666	122,36	699,80	-6,541	
81,66	7,666	116,18	699,99	-6,542	
81,68	7,666	114,40	699,87	-6,542	
81,70	7,666	114,70	699,65	-6,542	
81,72	7,666	110,33	699,92	-6,542	
81,74	7,666	104,05	700,29	-6,543	
81,76	7,666	101,74	700,24	-6,543	
81,78	7,666	100,95	699,90	-6,543	
81,80	7,666	99,27	699,65	-6,543	
81,82	7,666	95,82	699,89	-6,543	
81,84	7,666	94,34	700,13	-6,543	
81,86	7,666	94,81	700,00	-6,543	
81,88	7,666	95,81	699,70	-6,543	
81,90	7,666	95,62	699,77	-6,544	
81,92	7,666	95,10	700,03	-6,544	
81,94	7,666	95,15	699,98	-6,544	
81,96	7,666	95,82	699,71	-6,544	
81,98	7,666	95,69	699,75	-6,544	
82,00	7,666	95,05	700,03	-6,544	
82,02	7,666	95,06	700,02	-6,545	
82,04	7,666	95,70	699,75	-6,544	
82,06	7,666	95,78	699,72	-6,545	
82,08	7,666	95,20	699,98	-6,545	
82,10	7,666	95,14	700,00	-6,545	
82,12	7,666	95,72	699,75	-6,545	
82,14	7,666	95,80	699,69	-6,545	
82,16	7,666	95,23	699,90	-6,545	
82,18	7,666	95,17	699,90	-6,545	
82,20	7,666	95,80	699,67	-6,545	
82,22	7,666	95,75	699,69	-6,545	
82,24	7,666	95,18	699,90	-6,546	
82,26	7,666	95,13	699,86	-6,546	
82,28	7,666	95,79	699,66	-6,546	
82,30	7,666	95,40	699,83	-6,546	
82,32	7,666	93,13	700,09	-6,546	
82,34	7,666	84,81	700,02	-6,546	
82,36	7,666	77,11	699,72	-6,546	
82,38	7,666	72,33	699,74	-6,546	
82,40	7,666	68,35	700,09	-6,547	
82,42	7,666	67,54	700,16	-6,547	
82,44	7,666	68,22	699,89	-6,546	
82,46	7,666	69,05	699,66	-6,546	
82,48	7,666	66,48	699,97	-6,547	
82,50	7,666	64,40	700,31	-6,547	
82,52	7,666	64,63	700,21	-6,547	
82,54	7,666	65,26	699,87	-6,547	
82,56	7,666	65,88	699,67	-6,547	
82,58	7,666	65,25	700,00	-6,547	
82,60	7,666	64,91	700,27	-6,547	
82,62	7,666	65,07	700,12	-6,547	
82,64	7,666	65,55	699,78	-6,547	
82,66	7,666	65,25	699,73	-6,547	
82,68	7,666	62,87	700,15	-6,548	
82,70	7,666	62,28	700,33	-6,548	
82,72	7,666	62,21	700,11	-6,548	
82,74	7,666	62,30	699,76	-6,547	
82,76	7,666	62,43	699,70	-6,548	
82,78	7,666	61,71	700,14	-6,548	
82,80	7,666	61,56	700,35	-6,548	
82,82	7,666	61,81	700,15	-6,548	
82,84	7,666	62,28	699,78	-6,548	
82,86	7,666	62,46	699,72	-6,548	
82,88	7,666	61,68	700,14	-6,549	
82,90	7,666	61,49	700,33	-6,549	
82,92	7,666	61,66	700,12	-6,548	
82,94	7,666	61,21	699,77	-6,548	
82,96	7,666	59,75	699,72	-6,548	
82,98	7,666	58,63	700,05	-6,549	
83,00	7,666	59,78	700,14	-6,549	
83,02	7,666	61,27	699,90	-6,549	
83,04	7,666	62,38	699,64	-6,548	
83,06	7,666	60,48	699,99	-6,549	
83,08	7,666	58,29	700,47	-6,549	
83,10	7,666	57,72	700,49	-6,549	
83,12	7,666	56,69	700,17	-6,549	
83,14	7,666	55,99	699,78	-6,549	
83,16	7,666	57,16	699,71	-6,549	
83,18	7,666	58,06	700,02	-6,549	
83,20	7,666	58,34	700,13	-6,549	
83,22	7,666	58,51	699,90	-6,549	
83,24	7,666	58,95	699,67	-6,549	
83,26	7,666	57,24	699,88	-6,549	
83,28	7,666	56,75	700,07	-6,549	
83,30	7,666	57,77	699,91	-6,549	
83,32	7,666	58,98	699,65	-6,549	
83,34	7,666	57,37	699,94	-6,550	
83,36	7,666	54,19	700,46	-6,550	
83,38	7,666	53,89	700,53	-6,550	
83,40	7,666	53,83	700,23	-6,550	
83,42	7,666	53,00	699,84	-6,550	
83,44	7,666	54,20	699,73	-6,550	
83,46	7,666	55,52	700,08	-6,550	
83,48	7,666	55,50	700,24	-6,550	
83,50	7,666	55,19	700,02	-6,550	
83,52	7,666	55,60	699,70	-6,550	
83,54	7,666	55,18	699,83	-6,550	
83,56	7,666	54,03	700,25	-6,550	
83,58	7,666	54,27	700,30	-6,550	
83,60	7,666	54,84	700,01	-6,550	
83,62	7,666	55,58	699,69	-6,550	
83,64	7,666	54,79	699,81	-6,550	
83,66	7,666	54,09	700,15	-6,551	
83,68	7,666	54,54	700,13	-6,551	
83,70	7,666	55,15	699,83	-6,550	
83,72	7,666	55,76	699,65	-6,550	
83,74	7,666	53,97	700,03	-6,551	
83,76	7,666	53,35	700,34	-6,551	
83,78	7,666	54,31	700,22	-6,551	
83,80	7,666	54,32	699,87	-6,551	
83,82	7,666	53,50	699,67	-6,551	
83,84	7,666	52,89	699,99	-6,551	
83,86	7,666	53,84	700,24	-6,551	
83,88	7,666	54,76	700,08	-6,551	
83,90	7,666	55,42	699,74	-6,551	
83,92	7,666	54,99	699,75	-6,551	
83,94	7,666	52,43	700,19	-6,552	
83,96	7,666	51,35	700,34	-6,552	
83,98	7,666	51,55	700,10	-6,551	
84,00	7,666	52,14	699,74	-6,551	
84,02	7,666	52,23	699,73	-6,551	
84,04	7,666	51,54	700,13	-6,552	
84,06	7,666	51,42	700,25	-6,552	
84,08	7,666	51,62	699,98	-6,552	
84,10	7,666	52,27	699,68	-6,551	
84,12	7,666	51,36	699,89	-6,552	
84,14	7,666	50,71	700,27	-6,552	
84,16	7,666	51,15	700,24	-6,552	
84,18	7,666	51,69	699,92	-6,552	
84,20	7,666	52,36	699,68	-6,552	
84,22	7,666	51,25	699,96	-6,552	
84,24	7,666	50,75	700,22	-6,552	
84,26	7,666	51,31	700,08	-6,552	
84,28	7,666	52,02	699,75	-6,552	
84,30	7,666	51,76	699,73	-6,552	
84,32	7,666	50,07	700,15	-6,553	
84,34	7,666	50,45	700,33	-6,553	
84,36	7,666	51,46	700,10	-6,552	
84,38	7,666	51,88	699,72	-6,552	
84,40	7,666	52,46	699,32	-6,552	
84,42	7,666	56,22	698,93	-6,552	
84,44	7,666	61,82	698,55	-6,551	
84,46	7,666	66,47	698,15	-6,551	
84,48	7,666	70,69	697,76	-6,551	
84,50	7,666	75,04	697,38	-6,551	
84,52	7,666	79,55	696,99	-6,551	
84,54	7,666	84,06	696,60	-6,551	
84,56	7,666	88,23	696,22	-6,551	
84,58	7,666	91,85	695,83	-6,551	
84,60	7,666	95,16	695,45	-6,551	
84,62	7,666	98,49	695,05	-6,551	
84,64	7,666	101,93	694,66	-6,551	
84,66	7,666	104,85	694,27	-6,551	
84,68	7,666	107,53	693,88	-6,551	
84,70	7,666	110,27	693,48	-6,551	
84,72	7,666	112,78	693,08	-6,551	
84,74	7,666	115,06	692,66	-6,552	
84,76	7,666	117,30	692,24	-6,552	
84,78	7,666	119,01	691,83	-6,552	
84,80	7,666	120,79	691,41	-6,552	
84,82	7,666	122,26	691,00	-6,552	
84,84	7,666	124,00	690,58	-6,552	
84,86	7,666	125,30	690,16	-6,552	
84,88	7,666	126,00	689,73	-6,552	
84,90	7,666	127,40	689,30	-6,553	
84,92	7,666	128,60	688,88	-6,553	
84,94	7,666	129,05	688,43	-6,553	
84,96	7,666	129,99	687,99	-6,553	
84,98	7,666	131,51	687,55	-6,553	
85,00	7,666	132,33	687,10	-6,553	
85,02	7,666	132,47	686,63	-6,554	
85,04	7,666	132,41	686,17	-6,554	
85,06	7,666	132,40	685,72	-6,554	
85,08	7,666	132,37	685,28	-6,554	
85,10	7,666	132,31	684,83	-6,555	
85,12	7,666	132,33	684,38	-6,555	
85,14	7,666	132,41	683,91	-6,555	
85,16	7,666	132,50	683,45	-6,556	
85,18	7,666	131,71	682,99	-6,556	
85,20	7,666	130,16	682,52	-6,556	
85,22	7,666	129,30	682,04	-6,556	
85,24	7,666	129,06	681,56	-6,557	
85,26	7,666	128,19	681,08	-6,557	
85,28	7,666	126,66	680,60	-6,557	
85,30	7,666	125,79	680,12	-6,558	
85,32	7,666	124,79	679,65	-6,558	
85,34	7,666	123,31	679,18	-6,558	
85,36	7,666	121,71	678,69	-6,558	
85,38	7,666	120,08	678,21	-6,559	
85,40	7,666	118,90	677,73	-6,559	
85,42	7,666	117,26	677,25	-6,560	
85,44	7,666	115,94	676,77	-6,560	
85,46	7,666	114,66	676,27	-6,560	
85,48	7,666	113,13	675,77	-6,560	
85,50	7,666	111,51	675,27	-6,561	
85,52	7,666	109,83	674,79	-6,561	
85,54	7,666	108,78	674,30	-6,561	
85,56	7,666	107,25	673,81	-6,562	
85,58	7,666	105,91	673,31	-6,562	
85,60	7,666	104,63	672,81	-6,562	
85,62	7,666	103,07	672,31	-6,562	
85,64	7,666	102,24	671,82	-6,563	
85,66	7,666	101,78	671,31	-6,563	
85,68	7,666	100,38	670,80	-6,563	
85,70	7,666	99,14	670,29	-6,563	
85,72	7,666	98,72	669,78	-6,564	
85,74	7,666	98,63	669,29	-6,564	
85,76	7,666	98,65	668,80	-6,564	
85,78	7,666	98,69	668,29	-6,564	
85,80	7,666	98,70	667,78	-6,564	
85,82	7,666	98,74	667,28	-6,565	
85,84	7,666	98,73	666,78	-6,565	
85,86	7,666	98,71	666,28	-6,565	
85,88	7,666	98,76	665,77	-6,565	
85,90	7,666	98,73	665,27	-6,565	
85,92	7,666	98,70	664,75	-6,565	
85,94	7,666	98,70	664,23	-6,565	
85,96	7,666	98,77	663,72	-6,566	
85,98	7,666	99,63	663,20	-6,566	
86,00	7,666	101,12	662,69	-6,566	
86,02	7,666	101,99	662,18	-6,566	
86,04	7,666	102,19	661,67	-6,566	
86,06	7,666	102,92	661,16	-6,566	
86,08	7,666	104,38	660,66	-6,566	
86,10	7,666	105,30	660,14	-6,567	
86,12	7,666	106,37	659,63	-6,567	
86,14	7,666	107,92	659,12	-6,567	
86,16	7,666	109,00	658,62	-6,567	
86,18	7,666	110,53	658,11	-6,567	
86,20	7,666	111,84	657,61	-6,567	
86,22	7,666	112,55	657,10	-6,567	
86,24	7,666	113,94	656,59	-6,567	
86,26	7,666	115,19	656,07	-6,567	
86,28	7,666	116,48	655,55	-6,568	
86,30	7,666	118,06	655,06	-6,568	
86,32	7,666	118,95	654,56	-6,568	
86,34	7,666	119,97	654,06	-6,568	
86,36	7,666	121,44	653,56	-6,568	
86,38	7,666	122,52	653,08	-6,568	
86,40	7,666	124,03	652,58	-6,568	
86,42	7,666	125,32	652,06	-6,568	
86,44	7,666	126,60	651,53	-6,568	
86,46	7,666	128,11	651,01	-6,569	
86,48	7,666	128,94	650,49	-6,569	
86,50	7,666	129,94	649,98	-6,569	
86,52	7,666	131,46	649,47	-6,569	
86,54	7,666	132,60	648,96	-6,569	
86,56	7,666	134,11	648,44	-6,569	
86,58	7,666	135,36	647,93	-6,569	
86,60	7,666	136,63	647,44	-6,569	
86,62	7,666	138,17	646,94	-6,569	
86,64	7,666	139,02	646,43	-6,570	
86,66	7,666	140,01	645,92	-6,570	
86,68	7,666	141,48	645,42	-6,570	
86,70	7,666	142,33	644,93	-6,570	
86,72	7,666	143,32	644,44	-6,570	
86,74	7,666	144,88	643,93	-6,570	
86,76	7,666	146,01	643,44	-6,570	
86,78	7,666	147,59	642,94	-6,570	
86,80	7,666	148,89	642,46	-6,570	
86,82	7,666	149,55	641,98	-6,571	
86,84	7,666	150,93	641,49	-6,571	
86,86	7,666	152,19	640,99	-6,571	
86,88	7,666	152,86	640,49	-6,571	
86,90	7,666	154,25	639,99	-6,571	
86,92	7,666	155,48	639,50	-6,571	
86,94	7,666	156,20	639,01	-6,571	
86,96	7,666	157,67	638,52	-6,571	
86,98	7,666	158,98	638,01	-6,572	
87,00	7,666	159,70	637,50	-6,572	
87,02	7,666	161,07	636,98	-6,572	
87,04	7,666	162,26	636,47	-6,572	
87,06	7,666	162,98	635,97	-6,572	
87,08	7,666	164,39	635,47	-6,572	
87,10	7,666	165,66	634,97	-6,572	
87,12	7,666	166,09	634,47	-6,572	
87,14	7,666	166,33	633,98	-6,572	
87,16	7,666	167,64	633,48	-6,572	
87,18	7,666	168,94	632,98	-6,573	
87,20	7,666	169,67	632,48	-6,573	
87,22	7,666	171,07	631,99	-6,573	
87,24	7,666	172,34	631,50	-6,573	
87,26	7,666	172,82	631,03	-6,573	
87,28	7,666	173,64	630,55	-6,573	
87,30	7,666	175,13	630,05	-6,573	
87,32	7,666	176,07	629,55	-6,574	
87,34	7,666	176,52	629,06	-6,574	
87,36	7,666	177,79	628,58	-6,574	
87,38	7,666	179,07	628,09	-6,574	
87,40	7,666	179,58	627,62	-6,574	
87,42	7,666	179,85	627,14	-6,574	
87,44	7,666	181,11	626,66	-6,574	
87,46	7,666	182,36	626,17	-6,575	
87,48	7,666	182,82	625,68	-6,575	
87,50	7,666	183,09	625,20	-6,575	
87,52	7,666	184,40	624,72	-6,575	
87,54	7,666	185,73	624,23	-6,575	
87,56	7,666	186,23	623,75	-6,575	
87,58	7,666	186,34	623,28	-6,575	
87,60	7,666	187,12	622,79	-6,575	
87,62	7,666	188,65	622,30	-6,576	
87,64	7,666	189,53	621,81	-6,576	
87,66	7,666	189,73	621,31	-6,576	
87,68	7,666	190,47	620,82	-6,576	
87,70	7,666	191,98	620,34	-6,576	
87,72	7,666	192,93	619,86	-6,576	
87,74	7,666	193,16	619,38	-6,576	
87,76	7,666	193,93	618,89	-6,576	
87,78	7,666	195,43	618,41	-6,577	
87,80	7,666	196,26	617,93	-6,577	
87,82	7,666	196,46	617,45	-6,577	
87,84	7,666	197,25	616,95	-6,577	
87,86	7,666	198,74	616,46	-6,577	
87,88	7,666	199,63	615,98	-6,577	
87,90	7,666	199,76	615,52	-6,577	
87,92	7,666	200,47	615,06	-6,578	
87,94	7,666	202,04	614,58	-6,578	
87,96	7,666	202,97	614,10	-6,578	
87,98	7,666	203,10	613,61	-6,578	
88,00	7,666	203,28	613,14	-6,578	
88,02	7,666	204,62	612,67	-6,578	
88,04	7,666	205,90	612,20	-6,578	
88,06	7,666	206,39	611,73	-6,578	
88,08	7,666	206,73	611,26	-6,579	
88,10	7,666	208,05	610,78	-6,579	
88,12	7,666	209,26	610,31	-6,579	
88,14	7,666	209,74	609,84	-6,579	
88,16	7,666	210,04	609,37	-6,579	
88,18	7,666	211,37	608,90	-6,579	
88,20	7,666	212,68	608,43	-6,579	
88,22	7,666	213,09	607,96	-6,580	
88,24	7,666	213,34	607,49	-6,580	
88,26	7,666	214,74	607,01	-6,580	
88,28	7,666	216,02	606,53	-6,580	
88,30	7,666	216,47	606,08	-6,580	
88,32	7,666	216,50	605,62	-6,580	
88,34	7,666	217,22	605,14	-6,580	
88,36	7,666	218,74	604,65	-6,581	
88,38	7,666	219,67	604,19	-6,581	
88,40	7,666	219,86	603,72	-6,581	
88,42	7,666	219,81	603,25	-6,581	
88,44	7,666	220,52	602,79	-6,581	
88,46	7,666	222,02	602,32	-6,581	
88,48	7,666	222,96	601,86	-6,581	
88,50	7,666	223,20	601,40	-6,582	
88,52	7,666	223,37	600,94	-6,582	
88,54	7,666	224,71	600,47	-6,582	
88,56	7,666	226,06	600,00	-6,582	
88,58	7,666	226,50	599,54	-6,582	
88,60	7,666	226,69	599,10	-6,582	
88,62	7,666	228,01	598,65	-6,582	
88,64	7,666	229,42	598,20	-6,583	
88,66	7,666	229,92	597,75	-6,583	
88,68	7,666	229,90	597,30	-6,583	
88,70	7,666	230,61	596,85	-6,583	
88,72	7,666	232,12	596,40	-6,583	
88,74	7,666	233,04	595,95	-6,583	
88,76	7,666	233,25	595,49	-6,583	
88,78	7,666	234,02	595,03	-6,584	
88,80	7,666	235,55	594,58	-6,584	
88,82	7,666	236,44	594,13	-6,584	
88,84	7,666	236,66	593,68	-6,584	
88,86	7,666	236,62	593,23	-6,584	
88,88	7,666	236,78	592,79	-6,584	
88,90	7,666	238,12	592,34	-6,584	
88,92	7,666	239,51	591,90	-6,584	
88,94	7,666	240,05	591,45	-6,585	
88,96	7,666	240,13	591,01	-6,585	
88,98	7,666	240,25	590,54	-6,585	
89,00	7,666	241,51	590,09	-6,585	
89,02	7,666	242,78	589,63	-6,585	
89,04	7,666	243,21	589,16	-6,585	
89,06	7,666	243,28	588,70	-6,586	
89,08	7,666	244,00	588,25	-6,586	
89,10	7,666	245,51	587,81	-6,586	
89,12	7,666	246,44	587,36	-6,586	
89,14	7,666	246,71	586,90	-6,586	
89,16	7,666	247,46	586,44	-6,586	
89,18	7,666	248,94	585,99	-6,587	
89,20	7,666	249,81	585,54	-6,587	
89,22	7,666	250,04	585,09	-6,587	
89,24	7,666	250,00	584,63	-6,587	
89,26	7,666	250,19	584,18	-6,587	
89,28	7,666	251,48	583,73	-6,587	
89,30	7,666	252,78	583,28	-6,587	
89,32	7,666	253,38	582,84	-6,588	
89,34	7,666	253,48	582,40	-6,588	
89,36	7,666	253,67	581,96	-6,588	
89,38	7,666	255,02	581,53	-6,588	
89,40	7,666	256,34	581,09	-6,588	
89,42	7,666	256,82	580,66	-6,588	
89,44	7,666	257,03	580,23	-6,588	
89,46	7,666	258,27	579,79	-6,589	
89,48	7,666	259,61	579,36	-6,589	
89,50	7,666	260,10	578,92	-6,589	
89,52	7,666	260,36	578,48	-6,589	
89,54	7,666	261,67	578,04	-6,589	
89,56	7,666	262,93	577,60	-6,589	
89,58	7,666	263,40	577,18	-6,589	
89,60	7,666	263,44	576,75	-6,590	
89,62	7,666	263,40	576,33	-6,590	
89,64	7,666	263,59	575,89	-6,590	
89,66	7,666	264,93	575,46	-6,590	
89,68	7,666	266,31	575,01	-6,590	
89,70	7,666	266,89	574,59	-6,590	
89,72	7,666	266,98	574,17	-6,590	
89,74	7,666	267,61	573,74	-6,591	
89,76	7,666	269,00	573,32	-6,591	
89,78	7,666	269,92	572,90	-6,591	
89,80	7,666	270,19	572,48	-6,591	
89,82	7,666	270,22	572,07	-6,591	
89,84	7,666	270,90	571,65	-6,591	
89,86	7,666	272,37	571,23	-6,591	
89,88	7,666	273,30	570,81	-6,592	
89,90	7,666	273,52	570,39	-6,592	
89,92	7,666	273,52	569,96	-6,592	
89,94	7,666	273,49	569,53	-6,592	
89,96	7,666	274,25	569,11	-6,592	
89,98	7,666	275,84	568,70	-6,592	
90,00	7,666	276,74	568,28	-6,593	
90,02	7,666	276,95	567,86	-6,593	
90,04	7,666	277,73	567,44	-6,593	
90,06	7,666	279,20	567,03	-6,593	
90,08	7,666	279,97	566,62	-6,593	
90,10	7,666	280,15	566,20	-6,593	
90,12	7,666	280,90	565,77	-6,593	
90,14	7,666	282,49	565,34	-6,594	
90,16	7,666	283,41	564,93	-6,594	
90,18	7,666	283,57	564,52	-6,594	
90,20	7,666	283,59	564,09	-6,594	
90,22	7,666	284,37	563,65	-6,594	
90,24	7,666	285,86	563,23	-6,594	
90,26	7,666	286,70	562,82	-6,595	
90,28	7,666	286,88	562,40	-6,595	
90,30	7,666	287,08	561,98	-6,595	
90,32	7,666	288,44	561,57	-6,595	
90,34	7,666	289,79	561,14	-6,595	
90,36	7,666	290,24	560,71	-6,595	
90,38	7,666	290,26	560,29	-6,595	
90,40	7,666	290,98	559,88	-6,596	
90,42	7,666	292,48	559,46	-6,596	
90,44	7,666	293,37	559,05	-6,596	
90,46	7,666	293,59	558,64	-6,596	
90,48	7,666	294,38	558,24	-6,596	
90,50	7,666	295,95	557,84	-6,596	
90,52	7,666	296,92	557,44	-6,597	
90,54	7,666	297,18	557,04	-6,597	
90,56	7,666	297,90	556,66	-6,597	
90,58	7,666	299,40	556,26	-6,597	
90,60	7,666	300,22	555,87	-6,597	
90,62	7,666	300,35	555,48	-6,597	
90,64	7,666	300,54	555,09	-6,597	
90,66	7,666	301,85	554,70	-6,598	
90,68	7,666	303,12	554,30	-6,598	
90,70	7,666	303,65	553,89	-6,598	
90,72	7,666	303,93	553,48	-6,598	
90,74	7,666	305,21	553,07	-6,598	
90,76	7,666	306,54	552,68	-6,598	
90,78	7,666	307,03	552,28	-6,598	