Zeit  1 - Standardmessrate [s]	ZwickWeg [mm]	ZwickKraft [N]	Pyrometer [°C]	Maytec [mm]
0	-0,4290	146,69	150,11	0,01402	
0,02000	-0,4290	146,64	150,11	0,01395	
0,04000	-0,4290	146,67	150,11	0,01390	
0,06000	-0,4291	146,68	150,11	0,01385	
0,08000	-0,4290	146,64	150,10	0,01380	
0,1000	-0,4290	146,56	150,10	0,01382	
0,1200	-0,4290	146,57	150,11	0,01392	
0,1400	-0,4290	146,71	150,11	0,01402	
0,1600	-0,4290	146,78	150,11	0,01404	
0,1800	-0,4290	146,76	150,11	0,01393	
0,2000	-0,4291	146,67	150,10	0,01382	
0,2200	-0,4291	146,62	150,10	0,01381	
0,2400	-0,4291	146,67	150,10	0,01386	
0,2600	-0,4290	146,75	150,10	0,01394	
0,2800	-0,4290	146,77	150,10	0,01405	
0,3000	-0,4290	146,74	150,11	0,01412	
0,3200	-0,4290	146,69	150,11	0,01410	
0,3400	-0,4290	146,66	150,11	0,01398	
0,3600	-0,4291	146,73	150,10	0,01385	
0,3800	-0,4291	146,79	150,10	0,01379	
0,4000	-0,4290	146,81	150,10	0,01377	
0,4200	-0,4290	146,82	150,10	0,01385	
0,4400	-0,4290	146,76	150,10	0,01400	
0,4600	-0,4291	146,71	150,10	0,01401	
0,4800	-0,4291	146,72	150,11	0,01397	
0,5000	-0,4291	146,62	150,11	0,01387	
0,5200	-0,4291	146,60	150,11	0,01378	
0,5400	-0,4291	146,66	150,11	0,01378	
0,5600	-0,4290	146,69	150,10	0,01387	
0,5800	-0,4291	146,70	150,10	0,01392	
0,6000	-0,4291	146,72	150,10	0,01398	
0,6200	-0,4291	146,70	150,10	0,01405	
0,6400	-0,4291	146,69	150,10	0,01404	
0,6600	-0,4291	146,71	150,10	0,01398	
0,6800	-0,4291	146,69	150,11	0,01389	
0,7000	-0,4291	146,66	150,11	0,01379	
0,7200	-0,4291	146,74	150,11	0,01381	
0,7400	-0,4291	146,73	150,10	0,01403	
0,7600	-0,4291	146,68	150,10	0,01415	
0,7800	-0,4291	146,67	150,10	0,01411	
0,8000	-0,4291	146,68	150,10	0,01402	
0,8200	-0,4291	146,68	150,10	0,01387	
0,8400	-0,4291	146,67	150,10	0,01384	
0,8600	-0,4291	146,64	150,11	0,01390	
0,8800	-0,4291	146,66	150,11	0,01396	
0,9000	-0,4291	146,61	150,11	0,01400	
0,9200	-0,4291	146,58	150,11	0,01405	
0,9400	-0,4291	146,62	150,10	0,01406	
0,9600	-0,4291	146,64	150,10	0,01399	
0,9800	-0,4291	146,63	150,10	0,01386	
1,000	-0,4291	146,62	150,10	0,01380	
1,020	-0,4291	146,70	150,11	0,01382	
1,040	-0,4291	146,70	150,11	0,01391	
1,060	-0,4291	146,69	150,11	0,01400	
1,080	-0,4291	146,77	150,11	0,01407	
1,100	-0,4290	146,84	150,10	0,01399	
1,120	-0,4290	146,80	150,10	0,01382	
1,140	-0,4291	146,72	150,10	0,01374	
1,160	-0,4291	146,71	150,10	0,01376	
1,180	-0,4290	146,70	150,10	0,01383	
1,200	-0,4290	146,77	150,11	0,01395	
1,220	-0,4290	146,73	150,11	0,01408	
1,240	-0,4290	146,63	150,11	0,01416	
1,260	-0,4290	146,68	150,11	0,01408	
1,280	-0,4290	146,78	150,10	0,01384	
1,300	-0,4291	146,76	150,10	0,01376	
1,320	-0,4291	146,71	150,10	0,01382	
1,340	-0,4290	146,73	150,10	0,01388	
1,360	-0,4291	146,76	150,10	0,01391	
1,380	-0,4291	146,81	150,10	0,01392	
1,400	-0,4291	146,84	150,10	0,01399	
1,420	-0,4290	146,80	150,10	0,01394	
1,440	-0,4290	146,71	150,10	0,01377	
1,460	-0,4291	146,64	150,11	0,01375	
1,480	-0,4291	146,64	150,11	0,01386	
1,500	-0,4290	146,66	150,11	0,01393	
1,520	-0,4290	146,61	150,11	0,01405	
1,540	-0,4290	146,64	150,10	0,01415	
1,560	-0,4290	146,68	150,10	0,01412	
1,580	-0,4290	146,65	150,10	0,01398	
1,600	-0,4290	146,68	150,10	0,01383	
1,620	-0,4290	146,72	150,10	0,01375	
1,640	-0,4291	146,67	150,10	0,01376	
1,660	-0,4291	146,68	150,11	0,01386	
1,680	-0,4291	146,78	150,11	0,01400	
1,700	-0,4291	146,79	150,11	0,01407	
1,720	-0,4291	146,67	150,10	0,01405	
1,740	-0,4291	146,63	150,10	0,01392	
1,760	-0,4291	146,70	150,10	0,01380	
1,780	-0,4291	146,77	150,10	0,01378	
1,800	-0,4291	146,80	150,10	0,01390	
1,820	-0,4291	146,75	150,11	0,01405	
1,840	-0,4291	146,70	150,11	0,01404	
1,860	-0,4291	146,69	150,11	0,01401	
1,880	-0,4291	146,65	150,11	0,01396	
1,900	-0,4291	146,64	150,10	0,01382	
1,920	-0,4291	146,66	150,10	0,01371	
1,940	-0,4291	146,65	150,10	0,01370	
1,960	-0,4291	146,63	150,10	0,01379	
1,980	-0,4291	146,67	150,10	0,01389	
2,000	-0,4291	146,73	150,10	0,01395	
2,020	-0,4291	146,71	150,11	0,01401	
2,040	-0,4291	146,72	150,11	0,01396	
2,060	-0,4291	146,75	150,11	0,01383	
2,080	-0,4291	146,72	150,10	0,01379	
2,100	-0,4291	146,71	150,10	0,01378	
2,120	-0,4291	146,70	150,10	0,01383	
2,140	-0,4291	146,65	150,10	0,01391	
2,160	-0,4291	146,64	150,10	0,01400	
2,180	-0,4291	146,65	150,10	0,01405	
2,200	-0,4291	146,66	150,10	0,01401	
2,220	-0,4291	146,64	150,10	0,01390	
2,240	-0,4291	146,60	150,11	0,01379	
2,260	-0,4291	146,61	150,11	0,01374	
2,280	-0,4291	146,64	150,11	0,01381	
2,300	-0,4291	146,59	150,10	0,01394	
2,320	-0,4291	146,54	150,10	0,01401	
2,340	-0,4291	146,56	150,10	0,01402	
2,360	-0,4291	146,61	150,10	0,01392	
2,380	-0,4291	146,60	150,10	0,01377	
2,400	-0,4291	146,62	150,10	0,01372	
2,420	-0,4291	146,64	150,10	0,01378	
2,440	-0,4291	146,62	150,11	0,01383	
2,460	-0,4291	146,57	150,11	0,01385	
2,480	-0,4291	146,55	150,11	0,01397	
2,500	-0,4291	146,56	150,10	0,01399	
2,520	-0,4291	146,61	150,10	0,01389	
2,540	-0,4291	146,66	150,10	0,01382	
2,560	-0,4291	146,68	150,10	0,01379	
2,580	-0,4291	146,58	150,10	0,01381	
2,600	-0,4291	146,51	150,10	0,01385	
2,620	-0,4291	146,47	150,11	0,01387	
2,640	-0,4291	146,49	150,11	0,01393	
2,660	-0,4291	146,52	150,11	0,01396	
2,680	-0,4291	146,57	150,11	0,01389	
2,700	-0,4291	146,66	150,10	0,01377	
2,720	-0,4291	146,66	150,10	0,01374	
2,740	-0,4291	146,61	150,10	0,01386	
2,760	-0,4291	146,62	150,10	0,01399	
2,780	-0,4291	146,64	150,11	0,01404	
2,800	-0,4291	146,65	150,11	0,01402	
2,820	-0,4291	146,67	150,11	0,01388	
2,840	-0,4291	146,63	150,11	0,01378	
2,860	-0,4291	146,62	150,11	0,01372	
2,880	-0,4291	146,64	150,10	0,01373	
2,900	-0,4291	146,66	150,10	0,01381	
2,920	-0,4291	146,66	150,10	0,01387	
2,940	-0,4291	146,62	150,10	0,01391	
2,960	-0,4291	146,57	150,10	0,01397	
2,980	-0,4291	146,52	150,11	0,01396	
3,000	-0,4291	146,51	150,11	0,01386	
3,020	-0,4291	146,55	150,11	0,01378	
3,040	-0,4291	146,61	150,11	0,01381	
3,060	-0,4291	146,67	150,10	0,01395	
3,080	-0,4291	146,62	150,10	0,01408	
3,100	-0,4291	146,59	150,10	0,01409	
3,120	-0,4291	146,66	150,11	0,01399	
3,140	-0,4291	146,74	150,11	0,01385	
3,160	-0,4291	146,72	150,11	0,01381	
3,180	-0,4291	146,69	150,11	0,01388	
3,200	-0,4291	146,65	150,10	0,01399	
3,220	-0,4291	146,61	150,10	0,01406	
3,240	-0,4291	146,60	150,10	0,01406	
3,260	-0,4291	146,57	150,10	0,01401	
3,280	-0,4291	146,57	150,10	0,01391	
3,300	-0,4291	146,64	150,11	0,01379	
3,320	-0,4291	146,65	150,11	0,01374	
3,340	-0,4291	146,62	150,11	0,01380	
3,360	-0,4291	146,59	150,11	0,01390	
3,380	-0,4291	146,61	150,10	0,01398	
3,400	-0,4291	146,70	150,10	0,01399	
3,420	-0,4291	146,74	150,10	0,01399	
3,440	-0,4291	146,69	150,10	0,01393	
3,460	-0,4291	146,65	150,10	0,01379	
3,480	-0,4291	146,66	150,10	0,01370	
3,500	-0,4291	146,65	150,11	0,01381	
3,520	-0,4291	146,66	150,11	0,01397	
3,540	-0,4291	146,66	150,11	0,01404	
3,560	-0,4291	146,67	150,11	0,01405	
3,580	-0,4291	146,65	150,10	0,01400	
3,600	-0,4291	146,64	150,10	0,01382	
3,620	-0,4291	146,61	150,10	0,01373	
3,640	-0,4291	146,53	150,10	0,01377	
3,660	-0,4291	146,48	150,10	0,01390	
3,680	-0,4291	146,51	150,10	0,01401	
3,700	-0,4291	146,50	150,11	0,01406	
3,720	-0,4291	146,54	150,11	0,01409	
3,740	-0,4291	146,55	150,11	0,01402	
3,760	-0,4291	146,49	150,11	0,01380	
3,780	-0,4291	146,47	150,10	0,01373	
3,800	-0,4291	146,54	150,10	0,01378	
3,820	-0,4291	146,60	150,10	0,01385	
3,840	-0,4291	146,63	150,10	0,01393	
3,860	-0,4291	146,62	150,10	0,01399	
3,880	-0,4291	146,61	150,11	0,01399	
3,900	-0,4291	146,61	150,11	0,01392	
3,920	-0,4291	146,59	150,11	0,01378	
3,940	-0,4291	146,61	150,11	0,01372	
3,960	-0,4291	146,66	150,10	0,01377	
3,980	-0,4291	146,65	150,10	0,01395	
4,000	-0,4291	146,62	150,10	0,01404	
4,020	-0,4291	146,67	150,10	0,01399	
4,040	-0,4291	146,70	150,09	0,01392	
4,060	-0,4291	146,70	150,09	0,01386	
4,080	-0,4291	146,72	150,09	0,01380	
4,100	-0,4291	146,71	150,10	0,01378	
4,120	-0,4291	146,68	150,11	0,01381	
4,140	-0,4291	146,61	150,11	0,01389	
4,160	-0,4291	146,65	150,11	0,01400	
4,180	-0,4291	146,72	150,11	0,01408	
4,200	-0,4291	146,63	150,10	0,01407	
4,220	-0,4291	146,59	150,10	0,01391	
4,240	-0,4291	146,61	150,10	0,01381	
4,260	-0,4291	146,66	150,10	0,01386	
4,280	-0,4291	146,65	150,10	0,01391	
4,300	-0,4291	146,62	150,11	0,01400	
4,320	-0,4291	146,69	150,11	0,01408	
4,340	-0,4291	146,72	150,11	0,01404	
4,360	-0,4291	146,66	150,11	0,01397	
4,380	-0,4291	146,67	150,11	0,01389	
4,400	-0,4291	146,68	150,10	0,01384	
4,420	-0,4291	146,67	150,10	0,01385	
4,440	-0,4291	146,67	150,10	0,01388	
4,460	-0,4291	146,71	150,10	0,01396	
4,480	-0,4291	146,75	150,11	0,01400	
4,500	-0,4291	146,84	150,11	0,01403	
4,520	-0,4291	146,81	150,11	0,01398	
4,540	-0,4291	146,71	150,10	0,01386	
4,560	-0,4291	146,61	150,10	0,01380	
4,580	-0,4291	146,63	150,10	0,01380	
4,600	-0,4291	146,68	150,10	0,01391	
4,620	-0,4291	146,72	150,10	0,01399	
4,640	-0,4291	146,69	150,11	0,01407	
4,660	-0,4291	146,66	150,11	0,01406	
4,680	-0,4291	146,68	150,11	0,01400	
4,700	-0,4291	146,67	150,11	0,01392	
4,720	-0,4291	146,64	150,10	0,01385	
4,740	-0,4291	146,62	150,10	0,01388	
4,760	-0,4291	146,64	150,10	0,01399	
4,780	-0,4291	146,63	150,10	0,01408	
4,800	-0,4291	146,64	150,10	0,01411	
4,820	-0,4291	146,69	150,11	0,01407	
4,840	-0,4291	146,70	150,11	0,01396	
4,860	-0,4291	146,67	150,11	0,01384	
4,880	-0,4291	146,65	150,10	0,01379	
4,900	-0,4291	146,61	150,10	0,01383	
4,920	-0,4291	146,62	150,10	0,01393	
4,940	-0,4291	146,67	150,10	0,01402	
4,960	-0,4291	146,69	150,10	0,01404	
4,980	-0,4291	146,69	150,10	0,01397	
5,000	-0,4291	146,68	150,11	0,01385	
5,020	-0,4291	146,72	150,11	0,01380	
5,040	-0,4291	146,73	150,11	0,01383	
5,060	-0,4291	146,75	150,11	0,01387	
5,080	-0,4291	146,77	150,10	0,01399	
5,100	-0,4291	146,75	150,10	0,01413	
5,120	-0,4291	146,72	150,10	0,01421	
5,140	-0,4291	146,77	150,10	0,01407	
5,160	-0,4291	146,79	150,10	0,01387	
5,180	-0,4291	146,73	150,11	0,01378	
5,200	-0,4291	146,67	150,11	0,01378	
5,220	-0,4291	146,69	150,11	0,01390	
5,240	-0,4291	146,72	150,10	0,01405	
5,260	-0,4291	146,68	150,10	0,01415	
5,280	-0,4291	146,65	150,10	0,01409	
5,300	-0,4291	146,68	150,10	0,01397	
5,320	-0,4291	146,69	150,10	0,01382	
5,340	-0,4291	146,72	150,10	0,01379	
5,360	-0,4291	146,78	150,11	0,01388	
5,380	-0,4291	146,71	150,11	0,01398	
5,400	-0,4291	146,66	150,11	0,01403	
5,420	-0,4291	146,67	150,11	0,01409	
5,440	-0,4291	146,63	150,10	0,01406	
5,460	-0,4291	146,66	150,10	0,01395	
5,480	-0,4291	146,71	150,10	0,01386	
5,500	-0,4291	146,74	150,10	0,01386	
5,520	-0,4291	146,73	150,11	0,01393	
5,540	-0,4291	146,64	150,11	0,01400	
5,560	-0,4291	146,66	150,11	0,01406	
5,580	-0,4291	146,67	150,11	0,01408	
5,600	-0,4291	146,64	150,10	0,01400	
5,620	-0,4291	146,66	150,10	0,01383	
5,640	-0,4291	146,69	150,10	0,01372	
5,660	-0,4291	146,62	150,10	0,01373	
5,680	-0,4291	146,54	150,10	0,01383	
5,700	-0,4291	146,57	150,10	0,01398	
5,720	-0,4291	146,68	150,11	0,01405	
5,740	-0,4291	146,73	150,11	0,01403	
5,760	-0,4291	146,77	150,11	0,01398	
5,780	-0,4291	146,81	150,10	0,01385	
5,800	-0,4291	146,75	150,10	0,01376	
5,820	-0,4291	146,73	150,10	0,01377	
5,840	-0,4291	146,77	150,10	0,01387	
5,860	-0,4291	146,75	150,10	0,01395	
5,880	-0,4291	146,72	150,10	0,01396	
5,900	-0,4291	146,72	150,11	0,01402	
5,920	-0,4291	146,78	150,11	0,01398	
5,940	-0,4291	146,80	150,11	0,01389	
5,960	-0,4291	146,80	150,10	0,01387	
5,980	-0,4291	146,83	150,10	0,01389	
6,000	-0,4291	146,82	150,10	0,01392	
6,020	-0,4291	146,79	150,10	0,01400	
6,040	-0,4291	146,73	150,10	0,01404	
6,060	-0,4291	146,71	150,10	0,01399	
6,080	-0,4291	146,71	150,10	0,01392	
6,100	-0,4291	146,74	150,11	0,01382	
6,120	-0,4291	146,77	150,11	0,01378	
6,140	-0,4291	146,76	150,11	0,01376	
6,160	-0,4291	146,74	150,11	0,01388	
6,180	-0,4291	146,70	150,11	0,01403	
6,200	-0,4291	146,75	150,10	0,01403	
6,220	-0,4291	146,81	150,10	0,01402	
6,240	-0,4291	146,85	150,10	0,01398	
6,260	-0,4291	146,76	150,10	0,01386	
6,280	-0,4291	146,70	150,11	0,01378	
6,300	-0,4291	146,70	150,11	0,01380	
6,320	-0,4291	146,70	150,11	0,01386	
6,340	-0,4291	146,75	150,11	0,01398	
6,360	-0,4291	146,82	150,10	0,01411	
6,380	-0,4291	146,85	150,10	0,01409	
6,400	-0,4291	146,87	150,10	0,01390	
6,420	-0,4291	146,90	150,10	0,01379	
6,440	-0,4291	146,86	150,10	0,01383	
6,460	-0,4291	146,74	150,11	0,01387	
6,480	-0,4291	146,67	150,11	0,01399	
6,500	-0,4291	146,66	150,11	0,01411	
6,520	-0,4291	146,69	150,11	0,01418	
6,540	-0,4291	146,74	150,10	0,01408	
6,560	-0,4291	146,02	150,10	0,01382	
6,580	-0,4291	145,19	150,10	0,01368	
6,600	-0,4291	145,77	150,10	0,01371	
6,620	-0,4291	146,53	150,11	0,01388	
6,640	-0,4291	146,79	150,11	0,01404	
6,660	-0,4291	146,76	150,11	0,01408	
6,680	-0,4291	146,74	150,11	0,01409	
6,700	-0,4291	146,68	150,11	0,01400	
6,720	-0,4291	146,65	150,10	0,01389	
6,740	-0,4291	146,64	150,10	0,01384	
6,760	-0,4291	146,66	150,10	0,01386	
6,780	-0,4291	146,75	150,10	0,01391	
6,800	-0,4291	146,79	150,11	0,01400	
6,820	-0,4291	146,77	150,11	0,01411	
6,840	-0,4291	146,74	150,11	0,01415	
6,860	-0,4291	146,76	150,11	0,01406	
6,880	-0,4291	146,81	150,10	0,01395	
6,900	-0,4291	146,76	150,10	0,01391	
6,920	-0,4291	146,73	150,10	0,01389	
6,940	-0,4291	146,74	150,10	0,01392	
6,960	-0,4291	146,76	150,10	0,01401	
6,980	-0,4291	146,73	150,10	0,01409	
7,000	-0,4291	146,69	150,10	0,01407	
7,020	-0,4291	146,73	150,11	0,01398	
7,040	-0,4291	146,80	150,11	0,01387	
7,060	-0,4291	146,83	150,11	0,01385	
7,080	-0,4291	146,85	150,11	0,01390	
7,100	-0,4291	146,83	150,10	0,01395	
7,120	-0,4291	146,72	150,10	0,01404	
7,140	-0,4291	146,71	150,10	0,01412	
7,160	-0,4291	146,78	150,10	0,01405	
7,180	-0,4291	146,79	150,10	0,01393	
7,200	-0,4291	146,76	150,11	0,01381	
7,220	-0,4291	146,72	150,11	0,01378	
7,240	-0,4291	146,69	150,11	0,01388	
7,260	-0,4291	146,72	150,11	0,01400	
7,280	-0,4291	146,71	150,10	0,01406	
7,300	-0,4291	146,64	150,10	0,01411	
7,320	-0,4291	146,70	150,10	0,01404	
7,340	-0,4291	146,78	150,10	0,01390	
7,360	-0,4291	146,75	150,10	0,01385	
7,380	-0,4291	146,72	150,11	0,01381	
7,400	-0,4291	146,71	150,11	0,01380	
7,420	-0,4291	146,68	150,11	0,01391	
7,440	-0,4291	146,65	150,11	0,01406	
7,460	-0,4291	146,62	150,10	0,01413	
7,480	-0,4291	146,60	150,10	0,01406	
7,500	-0,4291	146,64	150,10	0,01391	
7,520	-0,4291	146,62	150,10	0,01381	
7,540	-0,4291	146,65	150,10	0,01378	
7,560	-0,4291	146,70	150,11	0,01384	
7,580	-0,4291	146,66	150,11	0,01400	
7,600	-0,4291	146,61	150,11	0,01410	
7,620	-0,4291	147,13	150,13	0,01406	
7,640	-0,4296	147,89	150,22	0,01341	
7,660	-0,4289	120,00	150,06	0,01258	
7,680	-0,4287	74,35	150,03	0,01258	
7,700	-0,4289	31,60	150,07	0,01289	
7,720	-0,4284	-2,877	150,10	0,01311	
7,740	-0,4251	-23,98	150,10	0,01331	
7,760	-0,4187	-11,67	150,11	0,01346	
7,780	-0,4121	30,99	150,11	0,01348	
7,800	-0,4070	78,47	150,11	0,01345	
7,820	-0,4038	117,86	150,11	0,01334	
7,840	-0,4022	144,64	150,10	0,01327	
7,860	-0,4020	159,19	150,10	0,01324	
7,880	-0,4023	164,47	150,10	0,01331	
7,900	-0,4028	164,31	150,10	0,01339	
7,920	-0,4034	162,09	150,10	0,01347	
7,940	-0,4039	158,90	150,10	0,01352	
7,960	-0,4044	155,72	150,11	0,01348	
7,980	-0,4049	153,16	150,11	0,01339	
8,000	-0,4052	150,96	150,11	0,01334	
8,020	-0,4055	148,68	150,11	0,01332	
8,040	-0,4056	147,23	150,10	0,01344	
8,060	-0,4056	146,77	150,10	0,01364	
8,080	-0,4056	146,69	150,10	0,01372	
8,100	-0,4056	146,68	150,10	0,01366	
8,120	-0,4056	146,47	150,10	0,01357	
8,140	-0,4056	145,20	150,10	0,01347	
8,160	-0,4056	143,89	150,11	0,01336	
8,180	-0,4056	144,01	150,11	0,01337	
8,200	-0,4056	145,50	150,11	0,01348	
8,220	-0,4056	146,46	150,11	0,01359	
8,240	-0,4056	146,61	150,10	0,01368	
8,260	-0,4056	146,59	150,10	0,01364	
8,280	-0,4056	146,55	150,10	0,01353	
8,300	-0,4056	146,57	150,10	0,01344	
8,320	-0,4056	146,50	150,10	0,01340	
8,340	-0,4056	146,49	150,11	0,01347	
8,360	-0,4056	146,49	150,11	0,01360	
8,380	-0,4056	146,49	150,11	0,01362	
8,400	-0,4056	146,52	150,11	0,01361	
8,420	-0,4059	146,49	150,10	0,01362	
8,440	-0,4062	146,49	150,10	0,01348	
8,460	-0,4063	146,53	150,11	0,01336	
8,480	-0,4063	146,53	150,11	0,01338	
8,500	-0,4063	146,55	150,11	0,01349	
8,520	-0,4063	146,63	150,11	0,01361	
8,540	-0,4063	146,63	150,11	0,01372	
8,560	-0,4063	146,59	150,10	0,01376	
8,580	-0,4063	146,62	150,10	0,01360	
8,600	-0,4063	146,63	150,10	0,01341	
8,620	-0,4063	146,53	150,10	0,01340	
8,640	-0,4063	146,53	150,10	0,01351	
8,660	-0,4063	146,59	150,10	0,01359	
8,680	-0,4063	146,58	150,10	0,01362	
8,700	-0,4063	146,59	150,10	0,01370	
8,720	-0,4063	146,59	150,11	0,01377	
8,740	-0,4063	146,56	150,11	0,01369	
8,760	-0,4063	146,54	150,11	0,01355	
8,780	-0,4063	146,50	150,11	0,01343	
8,800	-0,4062	146,50	150,10	0,01343	
8,820	-0,4062	146,52	150,10	0,01359	
8,840	-0,4063	146,60	150,10	0,01371	
8,860	-0,4063	146,58	150,10	0,01371	
8,880	-0,4063	146,57	150,10	0,01367	
8,900	-0,4062	146,62	150,10	0,01354	
8,920	-0,4062	146,54	150,10	0,01347	
8,940	-0,4062	146,51	150,11	0,01348	
8,960	-0,4062	146,52	150,11	0,01351	
8,980	-0,4062	146,42	150,11	0,01363	
9,000	-0,4062	146,46	150,10	0,01373	
9,020	-0,4063	146,61	150,10	0,01378	
9,040	-0,4065	146,65	150,10	0,01375	
9,060	-0,4068	146,60	150,10	0,01364	
9,080	-0,4069	146,57	150,10	0,01356	
9,100	-0,4069	145,98	150,10	0,01351	
9,120	-0,4069	145,73	150,10	0,01359	
9,140	-0,4069	146,17	150,10	0,01367	
9,160	-0,4069	146,41	150,11	0,01369	
9,180	-0,4069	146,52	150,11	0,01376	
9,200	-0,4069	146,61	150,11	0,01375	
9,220	-0,4069	146,54	150,10	0,01359	
9,240	-0,4069	146,50	150,10	0,01347	
9,260	-0,4069	146,54	150,10	0,01342	
9,280	-0,4069	146,52	150,10	0,01348	
9,300	-0,4069	146,53	150,10	0,01362	
9,320	-0,4069	146,58	150,10	0,01372	
9,340	-0,4069	146,56	150,10	0,01372	
9,360	-0,4069	146,53	150,11	0,01367	
9,380	-0,4069	146,55	150,11	0,01353	
9,400	-0,4069	146,55	150,11	0,01346	
9,420	-0,4069	146,60	150,10	0,01346	
9,440	-0,4069	146,65	150,10	0,01358	
9,460	-0,4069	146,67	150,10	0,01374	
9,480	-0,4069	146,67	150,10	0,01380	
9,500	-0,4069	146,67	150,10	0,01380	
9,520	-0,4069	146,69	150,10	0,01372	
9,540	-0,4069	146,74	150,10	0,01354	
9,560	-0,4069	146,76	150,10	0,01342	
9,580	-0,4069	146,68	150,11	0,01341	
9,600	-0,4069	146,65	150,11	0,01350	
9,620	-0,4069	146,73	150,11	0,01369	
9,640	-0,4069	146,71	150,11	0,01379	
9,660	-0,4069	146,61	150,10	0,01371	
9,680	-0,4069	146,55	150,10	0,01357	
9,700	-0,4069	146,53	150,10	0,01356	
9,720	-0,4069	146,54	150,10	0,01358	
9,740	-0,4069	146,57	150,10	0,01359	
9,760	-0,4069	146,57	150,10	0,01364	
9,780	-0,4069	146,61	150,11	0,01368	
9,800	-0,4069	146,64	150,11	0,01369	
9,820	-0,4072	146,57	150,11	0,01363	
9,840	-0,4075	146,51	150,10	0,01348	
9,860	-0,4076	146,56	150,10	0,01345	
9,880	-0,4076	146,56	150,10	0,01351	
9,900	-0,4076	146,52	150,10	0,01361	
9,920	-0,4076	146,53	150,09	0,01374	
9,940	-0,4076	146,53	150,09	0,01382	
9,960	-0,4076	146,52	150,10	0,01377	
9,980	-0,4076	146,61	150,10	0,01360	
10,00	-0,4076	146,66	150,10	0,01349	
10,02	-0,4076	146,61	150,10	0,01348	
10,04	-0,4076	146,53	150,11	0,01354	
10,06	-0,4076	146,57	150,11	0,01366	
10,08	-0,4076	146,54	150,10	0,01375	
10,10	-0,4076	146,53	150,10	0,01383	
10,12	-0,4076	146,58	150,10	0,01377	
10,14	-0,4076	146,60	150,10	0,01362	
10,16	-0,4076	146,61	150,09	0,01353	
10,18	-0,4076	146,56	150,09	0,01351	
10,20	-0,4076	146,58	150,09	0,01357	
10,22	-0,4076	146,59	150,10	0,01367	
10,24	-0,4076	146,56	150,10	0,01373	
10,26	-0,4076	146,59	150,10	0,01376	
10,28	-0,4076	146,56	150,10	0,01374	
10,30	-0,4076	146,51	150,10	0,01363	
10,32	-0,4076	146,58	150,11	0,01345	
10,34	-0,4076	146,62	150,11	0,01339	
10,36	-0,4076	146,64	150,10	0,01344	
10,38	-0,4076	146,65	150,10	0,01350	
10,40	-0,4076	146,60	150,10	0,01360	
10,42	-0,4076	146,58	150,10	0,01367	
10,44	-0,4076	146,60	150,10	0,01366	
10,46	-0,4076	146,66	150,10	0,01360	
10,48	-0,4076	146,66	150,10	0,01351	
10,50	-0,4076	146,68	150,10	0,01349	
10,52	-0,4076	146,66	150,10	0,01356	
10,54	-0,4076	146,65	150,11	0,01360	
10,56	-0,4076	146,66	150,11	0,01371	
10,58	-0,4076	146,66	150,11	0,01376	
10,60	-0,4076	146,71	150,11	0,01370	
10,62	-0,4076	146,69	150,10	0,01360	
10,64	-0,4076	146,69	150,10	0,01347	
10,66	-0,4076	146,75	150,10	0,01342	
10,68	-0,4076	146,67	150,10	0,01354	
10,70	-0,4076	146,69	150,10	0,01370	
10,72	-0,4076	146,72	150,10	0,01376	
10,74	-0,4076	146,65	150,11	0,01374	
10,76	-0,4079	146,64	150,11	0,01370	
10,78	-0,4081	146,68	150,11	0,01356	
10,80	-0,4082	146,70	150,10	0,01347	
10,82	-0,4082	146,76	150,10	0,01351	
10,84	-0,4082	146,74	150,10	0,01360	
10,86	-0,4082	146,67	150,10	0,01367	
10,88	-0,4082	146,67	150,10	0,01371	
10,90	-0,4083	146,71	150,10	0,01367	
10,92	-0,4083	146,17	150,10	0,01356	
10,94	-0,4083	145,88	150,11	0,01348	
10,96	-0,4082	146,30	150,11	0,01343	
10,98	-0,4082	146,61	150,11	0,01347	
11,00	-0,4082	146,71	150,10	0,01361	
11,02	-0,4082	146,79	150,10	0,01366	
11,04	-0,4082	146,69	150,09	0,01370	
11,06	-0,4082	146,55	150,10	0,01371	
11,08	-0,4082	146,62	150,10	0,01361	
11,10	-0,4082	146,67	150,10	0,01352	
11,12	-0,4083	146,63	150,10	0,01351	
11,14	-0,4083	146,63	150,10	0,01358	
11,16	-0,4083	146,55	150,11	0,01370	
11,18	-0,4083	146,51	150,11	0,01375	
11,20	-0,4083	146,53	150,11	0,01377	
11,22	-0,4083	146,50	150,10	0,01368	
11,24	-0,4082	146,50	150,10	0,01351	
11,26	-0,4083	146,56	150,10	0,01348	
11,28	-0,4083	146,59	150,10	0,01351	
11,30	-0,4083	146,64	150,10	0,01355	
11,32	-0,4083	146,69	150,10	0,01367	
11,34	-0,4083	146,67	150,10	0,01381	
11,36	-0,4082	146,65	150,11	0,01379	
11,38	-0,4082	146,68	150,11	0,01366	
11,40	-0,4083	146,71	150,11	0,01361	
11,42	-0,4083	146,58	150,10	0,01355	
11,44	-0,4083	146,56	150,10	0,01355	
11,46	-0,4083	146,61	150,10	0,01362	
11,48	-0,4083	146,60	150,10	0,01371	
11,50	-0,4083	146,59	150,10	0,01375	
11,52	-0,4083	146,63	150,10	0,01373	
11,54	-0,4083	146,70	150,10	0,01363	
11,56	-0,4083	146,67	150,11	0,01350	
11,58	-0,4083	146,04	150,10	0,01350	
11,60	-0,4083	145,77	150,10	0,01366	
11,62	-0,4083	146,26	150,10	0,01381	
11,64	-0,4083	146,61	150,10	0,01386	
11,66	-0,4083	146,66	150,10	0,01385	
11,68	-0,4083	146,66	150,10	0,01369	
11,70	-0,4083	146,71	150,10	0,01354	
11,72	-0,4083	146,70	150,09	0,01349	
11,74	-0,4083	146,62	150,10	0,01358	
11,76	-0,4083	146,59	150,10	0,01368	
11,78	-0,4083	146,58	150,10	0,01375	
11,80	-0,4083	146,61	150,11	0,01380	
11,82	-0,4083	146,65	150,11	0,01378	
11,84	-0,4083	146,61	150,11	0,01374	
11,86	-0,4083	146,61	150,11	0,01358	
11,88	-0,4083	146,65	150,10	0,01347	
11,90	-0,4083	146,71	150,10	0,01354	
11,92	-0,4083	146,79	150,10	0,01371	
11,94	-0,4083	146,79	150,10	0,01379	
11,96	-0,4083	146,71	150,10	0,01382	
11,98	-0,4083	146,64	150,11	0,01385	
12,00	-0,4085	146,57	150,11	0,01376	
12,02	-0,4088	146,52	150,11	0,01362	
12,04	-0,4089	146,57	150,10	0,01357	
12,06	-0,4089	146,61	150,10	0,01361	
12,08	-0,4089	146,56	150,10	0,01366	
12,10	-0,4089	146,58	150,10	0,01372	
12,12	-0,4090	146,62	150,10	0,01375	
12,14	-0,4089	146,56	150,10	0,01374	
12,16	-0,4090	146,56	150,10	0,01364	
12,18	-0,4090	146,59	150,11	0,01348	
12,20	-0,4090	146,63	150,11	0,01345	
12,22	-0,4089	146,66	150,11	0,01354	
12,24	-0,4089	146,58	150,11	0,01362	
12,26	-0,4089	145,90	150,10	0,01377	
12,28	-0,4089	144,84	150,10	0,01385	
12,30	-0,4089	144,17	150,10	0,01381	
12,32	-0,4089	143,78	150,10	0,01371	
12,34	-0,4090	144,51	150,10	0,01366	
12,36	-0,4090	145,20	150,10	0,01363	
12,38	-0,4090	145,96	150,11	0,01363	
12,40	-0,4090	146,43	150,11	0,01370	
12,42	-0,4090	146,56	150,11	0,01375	
12,44	-0,4090	146,61	150,11	0,01378	
12,46	-0,4090	146,63	150,10	0,01372	
12,48	-0,4090	146,69	150,10	0,01357	
12,50	-0,4090	146,68	150,10	0,01350	
12,52	-0,4090	146,70	150,10	0,01360	
12,54	-0,4089	146,68	150,10	0,01370	
12,56	-0,4089	146,63	150,11	0,01375	
12,58	-0,4090	146,67	150,11	0,01380	
12,60	-0,4090	146,65	150,11	0,01382	
12,62	-0,4090	146,53	150,11	0,01371	
12,64	-0,4090	146,50	150,10	0,01365	
12,66	-0,4089	146,49	150,10	0,01360	
12,68	-0,4089	146,49	150,10	0,01356	
12,70	-0,4089	146,54	150,10	0,01366	
12,72	-0,4089	146,38	150,10	0,01382	
12,74	-0,4089	145,29	150,11	0,01387	
12,76	-0,4089	145,29	150,11	0,01381	
12,78	-0,4089	146,16	150,11	0,01365	
12,80	-0,4089	146,60	150,11	0,01355	
12,82	-0,4089	146,67	150,10	0,01354	
12,84	-0,4089	146,68	150,10	0,01362	
12,86	-0,4089	146,66	150,10	0,01377	
12,88	-0,4089	146,68	150,10	0,01385	
12,90	-0,4090	146,73	150,11	0,01384	
12,92	-0,4090	146,71	150,11	0,01376	
12,94	-0,4090	146,72	150,11	0,01359	
12,96	-0,4090	146,71	150,11	0,01350	
12,98	-0,4089	146,68	150,10	0,01358	
13,00	-0,4089	146,71	150,10	0,01368	
13,02	-0,4089	146,73	150,10	0,01376	
13,04	-0,4090	146,74	150,10	0,01384	
13,06	-0,4089	146,75	150,10	0,01381	
13,08	-0,4089	146,70	150,11	0,01366	
13,10	-0,4089	146,61	150,11	0,01357	
13,12	-0,4089	146,59	150,11	0,01356	
13,14	-0,4090	146,43	150,11	0,01365	
13,16	-0,4092	145,10	150,10	0,01375	
13,18	-0,4095	143,72	150,10	0,01379	
13,20	-0,4096	143,26	150,10	0,01377	
13,22	-0,4096	143,26	150,10	0,01379	
13,24	-0,4096	143,52	150,10	0,01372	
13,26	-0,4096	144,73	150,10	0,01363	
13,28	-0,4096	144,84	150,10	0,01363	
13,30	-0,4093	144,17	150,11	0,01365	
13,32	-0,4090	144,91	150,11	0,01375	
13,34	-0,4089	146,15	150,11	0,01385	
13,36	-0,4089	146,75	150,10	0,01384	
13,38	-0,4089	146,89	150,10	0,01381	
13,40	-0,4089	146,88	150,10	0,01368	
13,42	-0,4089	146,79	150,10	0,01358	
13,44	-0,4089	146,75	150,10	0,01354	
13,46	-0,4092	146,74	150,10	0,01361	
13,48	-0,4094	146,71	150,10	0,01375	
13,50	-0,4095	146,73	150,10	0,01392	
13,52	-0,4096	146,74	150,11	0,01391	
13,54	-0,4096	146,76	150,11	0,01377	
13,56	-0,4096	146,75	150,11	0,01364	
13,58	-0,4096	146,68	150,11	0,01355	
13,60	-0,4096	146,64	150,10	0,01353	
13,62	-0,4096	146,66	150,10	0,01358	
13,64	-0,4096	146,64	150,10	0,01372	
13,66	-0,4096	146,63	150,10	0,01388	
13,68	-0,4096	146,65	150,11	0,01392	
13,70	-0,4096	146,63	150,11	0,01379	
13,72	-0,4096	146,59	150,11	0,01361	
13,74	-0,4096	146,62	150,11	0,01350	
13,76	-0,4096	146,67	150,11	0,01350	
13,78	-0,4096	146,66	150,10	0,01355	
13,80	-0,4096	146,68	150,10	0,01360	
13,82	-0,4096	146,66	150,10	0,01373	
13,84	-0,4096	146,68	150,10	0,01380	
13,86	-0,4096	146,74	150,10	0,01370	
13,88	-0,4096	146,77	150,11	0,01354	
13,90	-0,4096	146,70	150,11	0,01350	
13,92	-0,4096	146,69	150,11	0,01359	
13,94	-0,4096	146,72	150,11	0,01367	
13,96	-0,4096	146,73	150,10	0,01372	
13,98	-0,4096	146,75	150,10	0,01376	
14,00	-0,4096	146,55	150,10	0,01379	
14,02	-0,4096	145,90	150,10	0,01373	
14,04	-0,4096	146,09	150,10	0,01359	
14,06	-0,4096	146,38	150,11	0,01352	
14,08	-0,4096	145,95	150,11	0,01347	
14,10	-0,4096	146,17	150,11	0,01352	
14,12	-0,4096	146,57	150,11	0,01376	
14,14	-0,4096	146,71	150,10	0,01390	
14,16	-0,4096	146,73	150,10	0,01388	
14,18	-0,4096	146,72	150,10	0,01372	
14,20	-0,4096	146,65	150,10	0,01358	
14,22	-0,4096	146,59	150,10	0,01352	
14,24	-0,4096	146,55	150,10	0,01352	
14,26	-0,4096	146,57	150,10	0,01369	
14,28	-0,4096	146,63	150,11	0,01384	
14,30	-0,4096	146,63	150,11	0,01382	
14,32	-0,4096	146,58	150,11	0,01372	
14,34	-0,4096	146,59	150,11	0,01357	
14,36	-0,4096	146,58	150,10	0,01353	
14,38	-0,4096	146,55	150,10	0,01357	
14,40	-0,4096	146,62	150,10	0,01365	
14,42	-0,4096	146,56	150,10	0,01372	
14,44	-0,4096	146,45	150,10	0,01387	
14,46	-0,4096	146,48	150,10	0,01391	
14,48	-0,4096	146,54	150,11	0,01379	
14,50	-0,4096	146,07	150,11	0,01364	
14,52	-0,4096	145,80	150,11	0,01353	
14,54	-0,4096	145,56	150,10	0,01352	
14,56	-0,4096	144,37	150,10	0,01358	
14,58	-0,4096	143,67	150,10	0,01372	
14,60	-0,4096	144,05	150,10	0,01384	
14,62	-0,4096	144,04	150,10	0,01393	
14,64	-0,4096	144,85	150,10	0,01388	
14,66	-0,4096	145,38	150,10	0,01369	
14,68	-0,4096	144,38	150,11	0,01359	
14,70	-0,4096	144,14	150,11	0,01362	
14,72	-0,4096	144,77	150,11	0,01370	
14,74	-0,4096	144,25	150,10	0,01380	
14,76	-0,4096	144,16	150,10	0,01391	
14,78	-0,4096	145,40	150,10	0,01392	
14,80	-0,4096	145,87	150,10	0,01377	
14,82	-0,4096	145,82	150,10	0,01362	
14,84	-0,4096	146,18	150,11	0,01355	
14,86	-0,4096	146,42	150,11	0,01358	
14,88	-0,4096	146,52	150,11	0,01370	
14,90	-0,4096	146,55	150,11	0,01378	
14,92	-0,4099	146,55	150,10	0,01375	
14,94	-0,4101	146,58	150,10	0,01373	
14,96	-0,4103	146,61	150,10	0,01360	
14,98	-0,4103	146,56	150,10	0,01346	
15,00	-0,4103	146,49	150,10	0,01346	
15,02	-0,4103	146,43	150,10	0,01356	
15,04	-0,4103	146,52	150,11	0,01373	
15,06	-0,4103	146,60	150,11	0,01384	
15,08	-0,4103	146,56	150,11	0,01385	
15,10	-0,4103	146,58	150,11	0,01379	
15,12	-0,4103	146,68	150,10	0,01370	
15,14	-0,4103	146,68	150,10	0,01359	
15,16	-0,4103	146,66	150,10	0,01353	
15,18	-0,4103	146,62	150,10	0,01361	
15,20	-0,4103	146,56	150,10	0,01376	
15,22	-0,4103	146,59	150,11	0,01386	
15,24	-0,4103	146,63	150,11	0,01386	
15,26	-0,4103	146,67	150,11	0,01386	
15,28	-0,4103	146,22	150,10	0,01378	
15,30	-0,4103	145,92	150,10	0,01368	
15,32	-0,4103	146,23	150,10	0,01364	
15,34	-0,4103	145,86	150,10	0,01369	
15,36	-0,4103	145,05	150,10	0,01383	
15,38	-0,4103	145,52	150,10	0,01393	
15,40	-0,4103	145,06	150,10	0,01387	
15,42	-0,4103	143,89	150,11	0,01378	
15,44	-0,4103	143,92	150,11	0,01364	
15,46	-0,4103	144,75	150,11	0,01355	
15,48	-0,4103	144,90	150,10	0,01360	
15,50	-0,4103	145,78	150,10	0,01371	
15,52	-0,4103	146,51	150,10	0,01378	
15,54	-0,4103	146,70	150,10	0,01384	
15,56	-0,4103	146,73	150,10	0,01392	
15,58	-0,4103	146,16	150,10	0,01387	
15,60	-0,4103	145,19	150,10	0,01370	
15,62	-0,4103	145,67	150,11	0,01362	
15,64	-0,4103	146,39	150,11	0,01364	
15,66	-0,4103	146,62	150,11	0,01369	
15,68	-0,4103	146,64	150,11	0,01374	
15,70	-0,4103	146,67	150,10	0,01382	
15,72	-0,4103	146,59	150,10	0,01390	
15,74	-0,4103	146,58	150,10	0,01387	
15,76	-0,4103	146,53	150,10	0,01375	
15,78	-0,4103	145,31	150,10	0,01366	
15,80	-0,4103	144,55	150,11	0,01365	
15,82	-0,4103	145,50	150,11	0,01370	
15,84	-0,4103	146,41	150,11	0,01382	
15,86	-0,4103	146,78	150,10	0,01390	
15,88	-0,4103	146,82	150,10	0,01387	
15,90	-0,4103	146,77	150,10	0,01375	
15,92	-0,4103	146,80	150,10	0,01362	
15,94	-0,4103	146,79	150,10	0,01354	
15,96	-0,4103	146,65	150,10	0,01356	
15,98	-0,4103	146,68	150,10	0,01372	
16,00	-0,4103	146,73	150,10	0,01387	
16,02	-0,4103	146,70	150,11	0,01389	
16,04	-0,4103	146,74	150,11	0,01385	
16,06	-0,4103	146,76	150,11	0,01377	
16,08	-0,4103	146,69	150,10	0,01368	
16,10	-0,4103	146,70	150,10	0,01365	
16,12	-0,4103	146,69	150,10	0,01366	
16,14	-0,4103	146,66	150,10	0,01374	
16,16	-0,4103	146,68	150,10	0,01380	
16,18	-0,4103	146,74	150,11	0,01388	
16,20	-0,4103	146,72	150,11	0,01388	
16,22	-0,4103	146,68	150,11	0,01380	
16,24	-0,4103	146,75	150,11	0,01366	
16,26	-0,4103	146,74	150,10	0,01360	
16,28	-0,4103	146,72	150,10	0,01359	
16,30	-0,4103	146,67	150,10	0,01373	
16,32	-0,4103	146,61	150,10	0,01384	
16,34	-0,4103	146,68	150,10	0,01385	
16,36	-0,4103	146,72	150,10	0,01384	
16,38	-0,4103	146,70	150,10	0,01378	
16,40	-0,4103	146,75	150,11	0,01370	
16,42	-0,4103	146,72	150,11	0,01373	
16,44	-0,4103	146,62	150,11	0,01378	
16,46	-0,4103	146,65	150,11	0,01386	
16,48	-0,4103	146,77	150,10	0,01390	
16,50	-0,4103	146,83	150,10	0,01388	
16,52	-0,4103	146,78	150,10	0,01376	
16,54	-0,4103	146,77	150,11	0,01371	
16,56	-0,4105	146,72	150,11	0,01372	
16,58	-0,4108	146,65	150,11	0,01374	
16,60	-0,4109	146,62	150,11	0,01373	
16,62	-0,4109	146,59	150,11	0,01382	
16,64	-0,4109	146,68	150,10	0,01387	
16,66	-0,4109	146,71	150,10	0,01385	
16,68	-0,4109	146,71	150,10	0,01378	
16,70	-0,4109	146,69	150,10	0,01370	
16,72	-0,4109	146,66	150,10	0,01364	
16,74	-0,4109	146,65	150,10	0,01364	
16,76	-0,4109	146,69	150,10	0,01374	
16,78	-0,4109	146,70	150,11	0,01389	
16,80	-0,4109	146,24	150,11	0,01399	
16,82	-0,4109	145,94	150,11	0,01401	
16,84	-0,4109	146,36	150,11	0,01386	
16,86	-0,4109	146,69	150,10	0,01372	
16,88	-0,4109	146,77	150,10	0,01364	
16,90	-0,4109	146,69	150,10	0,01365	
16,92	-0,4109	146,66	150,10	0,01366	
16,94	-0,4109	146,69	150,10	0,01367	
16,96	-0,4109	146,72	150,10	0,01382	
16,98	-0,4109	146,71	150,10	0,01384	
17,00	-0,4109	146,68	150,10	0,01372	
17,02	-0,4109	146,59	150,11	0,01357	
17,04	-0,4109	145,54	150,11	0,01355	
17,06	-0,4109	145,34	150,11	0,01368	
17,08	-0,4109	146,14	150,10	0,01377	
17,10	-0,4109	146,63	150,10	0,01376	
17,12	-0,4109	146,73	150,10	0,01371	
17,14	-0,4109	146,77	150,10	0,01369	
17,16	-0,4109	146,71	150,09	0,01363	
17,18	-0,4109	146,75	150,09	0,01358	
17,20	-0,4109	146,77	150,10	0,01358	
17,22	-0,4109	146,72	150,10	0,01364	
17,24	-0,4109	146,72	150,10	0,01372	
17,26	-0,4109	146,72	150,10	0,01379	
17,28	-0,4109	146,67	150,10	0,01383	
17,30	-0,4109	146,66	150,11	0,01374	
17,32	-0,4109	146,68	150,11	0,01360	
17,34	-0,4110	146,68	150,11	0,01356	
17,36	-0,4110	146,66	150,10	0,01354	
17,38	-0,4109	146,63	150,10	0,01355	
17,40	-0,4109	146,67	150,10	0,01365	
17,42	-0,4109	146,71	150,10	0,01368	
17,44	-0,4109	146,70	150,10	0,01370	
17,46	-0,4109	146,67	150,10	0,01372	
17,48	-0,4109	146,59	150,10	0,01364	
17,50	-0,4110	146,56	150,10	0,01362	
17,52	-0,4110	146,62	150,11	0,01370	
17,54	-0,4109	146,66	150,11	0,01375	
17,56	-0,4110	146,65	150,11	0,01378	
17,58	-0,4110	146,56	150,10	0,01378	
17,60	-0,4109	146,56	150,10	0,01380	
17,62	-0,4109	146,66	150,10	0,01375	
17,64	-0,4109	146,63	150,10	0,01369	
17,66	-0,4109	146,58	150,09	0,01368	
17,68	-0,4109	146,61	150,09	0,01370	
17,70	-0,4109	146,58	150,10	0,01376	
17,72	-0,4109	146,58	150,10	0,01384	
17,74	-0,4109	146,68	150,10	0,01382	
17,76	-0,4109	146,70	150,10	0,01378	
17,78	-0,4109	146,65	150,11	0,01367	
17,80	-0,4109	146,60	150,11	0,01357	
17,82	-0,4109	146,55	150,11	0,01362	
17,84	-0,4110	146,51	150,10	0,01370	
17,86	-0,4109	146,45	150,10	0,01384	
17,88	-0,4109	146,45	150,10	0,01395	
17,90	-0,4109	146,39	150,10	0,01392	
17,92	-0,4110	146,41	150,10	0,01382	
17,94	-0,4110	146,48	150,10	0,01368	
17,96	-0,4109	146,47	150,10	0,01359	
17,98	-0,4109	146,51	150,10	0,01366	
18,00	-0,4109	146,44	150,10	0,01369	
18,02	-0,4109	145,27	150,10	0,01377	
18,04	-0,4109	144,42	150,11	0,01389	
18,06	-0,4109	144,86	150,11	0,01390	
18,08	-0,4109	145,50	150,10	0,01384	
18,10	-0,4109	146,19	150,10	0,01374	
18,12	-0,4109	145,94	150,10	0,01364	
18,14	-0,4109	145,05	150,10	0,01371	
18,16	-0,4109	145,60	150,10	0,01374	
18,18	-0,4109	146,40	150,10	0,01380	
18,20	-0,4110	146,64	150,10	0,01389	
18,22	-0,4110	146,68	150,10	0,01383	
18,24	-0,4112	146,64	150,10	0,01369	
18,26	-0,4115	146,63	150,10	0,01361	
18,28	-0,4116	146,73	150,10	0,01358	
18,30	-0,4118	147,02	150,14	0,01357	
18,32	-0,4118	142,43	150,14	0,01351	
18,34	-0,4117	131,33	150,12	0,01348	
18,36	-0,4116	118,70	150,11	0,01353	
18,38	-0,4115	106,86	150,10	0,01360	
18,40	-0,4108	95,67	150,10	0,01363	
18,42	-0,4096	87,13	150,10	0,01363	
18,44	-0,4079	84,61	150,10	0,01354	
18,46	-0,4064	84,83	150,10	0,01344	
18,48	-0,4049	84,05	150,10	0,01338	
18,50	-0,4036	83,18	150,10	0,01344	
18,52	-0,4020	83,01	150,09	0,01353	
18,54	-0,4004	84,28	150,09	0,01355	
18,56	-0,3988	87,00	150,09	0,01358	
18,58	-0,3972	90,74	150,09	0,01354	
18,60	-0,3956	94,36	150,09	0,01343	
18,62	-0,3942	96,65	150,09	0,01336	
18,64	-0,3930	98,42	150,10	0,01333	
18,66	-0,3919	98,24	150,10	0,01331	
18,68	-0,3908	97,01	150,10	0,01345	
18,70	-0,3895	96,32	150,10	0,01359	
18,72	-0,3882	96,21	150,10	0,01360	
18,74	-0,3869	96,28	150,11	0,01348	
18,76	-0,3859	96,35	150,11	0,01336	
18,78	-0,3848	95,81	150,10	0,01328	
18,80	-0,3835	94,29	150,10	0,01330	
18,82	-0,3821	93,23	150,10	0,01342	
18,84	-0,3808	92,93	150,10	0,01357	
18,86	-0,3795	92,93	150,10	0,01363	
18,88	-0,3781	92,99	150,09	0,01351	
18,90	-0,3768	92,99	150,10	0,01334	
18,92	-0,3754	92,92	150,10	0,01323	
18,94	-0,3741	92,85	150,10	0,01328	
18,96	-0,3727	92,89	150,10	0,01344	
18,98	-0,3714	92,97	150,11	0,01356	
19,00	-0,3701	93,00	150,11	0,01357	
19,02	-0,3690	92,97	150,11	0,01349	
19,04	-0,3679	92,93	150,10	0,01336	
19,06	-0,3666	92,93	150,10	0,01323	
19,08	-0,3650	92,94	150,10	0,01323	
19,10	-0,3635	92,97	150,10	0,01333	
19,12	-0,3624	92,98	150,10	0,01347	
19,14	-0,3613	93,00	150,10	0,01356	
19,16	-0,3599	92,98	150,10	0,01359	
19,18	-0,3583	92,97	150,09	0,01356	
19,20	-0,3567	93,01	150,09	0,01346	
19,22	-0,3554	92,99	150,10	0,01337	
19,24	-0,3544	92,96	150,10	0,01334	
19,26	-0,3532	92,91	150,10	0,01333	
19,28	-0,3520	92,89	150,10	0,01345	
19,30	-0,3506	92,91	150,11	0,01359	
19,32	-0,3493	92,95	150,10	0,01361	
19,34	-0,3479	92,39	150,10	0,01349	
19,36	-0,3466	90,86	150,10	0,01337	
19,38	-0,3452	89,75	150,10	0,01332	
19,40	-0,3436	89,48	150,09	0,01340	
19,42	-0,3420	89,52	150,09	0,01350	
19,44	-0,3405	89,57	150,09	0,01359	
19,46	-0,3391	89,54	150,09	0,01360	
19,48	-0,3378	89,53	150,09	0,01350	
19,50	-0,3365	89,51	150,09	0,01347	
19,52	-0,3351	89,52	150,10	0,01334	
19,54	-0,3338	89,55	150,10	0,01333	
19,56	-0,3324	89,58	150,09	0,01344	
19,58	-0,3311	89,60	150,10	0,01347	
19,60	-0,3298	89,54	150,10	0,01352	
19,62	-0,3283	89,50	150,11	0,01359	
19,64	-0,3267	89,47	150,11	0,01359	
19,66	-0,3251	89,47	150,11	0,01352	
19,68	-0,3237	89,52	150,11	0,01342	
19,70	-0,3224	89,53	150,10	0,01332	
19,72	-0,3211	89,53	150,10	0,01333	
19,74	-0,3197	89,54	150,10	0,01342	
19,76	-0,3184	89,55	150,10	0,01358	
19,78	-0,3170	89,56	150,10	0,01361	
19,80	-0,3156	89,55	150,10	0,01353	
19,82	-0,3141	89,47	150,10	0,01346	
19,84	-0,3125	89,42	150,10	0,01345	
19,86	-0,3110	89,45	150,10	0,01345	
19,88	-0,3097	89,45	150,10	0,01341	
19,90	-0,3083	89,49	150,11	0,01342	
19,92	-0,3067	89,50	150,10	0,01352	
19,94	-0,3051	89,50	150,10	0,01362	
19,96	-0,3036	88,96	150,10	0,01363	
19,98	-0,3022	87,41	150,10	0,01354	
20,00	-0,3009	86,29	150,10	0,01342	
20,02	-0,2995	86,03	150,10	0,01337	
20,04	-0,2978	86,12	150,10	0,01339	
20,06	-0,2962	86,18	150,10	0,01345	
20,08	-0,2949	86,14	150,10	0,01355	
20,10	-0,2935	86,18	150,11	0,01360	
20,12	-0,2920	86,25	150,11	0,01353	
20,14	-0,2903	86,21	150,11	0,01345	
20,16	-0,2888	86,14	150,10	0,01336	
20,18	-0,2875	86,10	150,10	0,01333	
20,20	-0,2860	86,08	150,10	0,01340	
20,22	-0,2844	86,12	150,10	0,01350	
20,24	-0,2829	86,16	150,10	0,01357	
20,26	-0,2815	86,17	150,10	0,01355	
20,28	-0,2801	86,15	150,10	0,01354	
20,30	-0,2785	86,17	150,10	0,01345	
20,32	-0,2769	86,15	150,10	0,01334	
20,34	-0,2754	86,09	150,11	0,01336	
20,36	-0,2738	86,04	150,11	0,01347	
20,38	-0,2722	85,53	150,11	0,01357	
20,40	-0,2707	84,08	150,10	0,01368	
20,42	-0,2693	82,98	150,10	0,01367	
20,44	-0,2678	82,69	150,31	0,01353	
20,46	-0,2661	82,75	151,21	0,01340	
20,48	-0,2646	82,72	152,45	0,01334	
20,50	-0,2631	82,66	153,39	0,01333	
20,52	-0,2614	82,69	154,35	0,01345	
20,54	-0,2599	82,74	155,26	0,01357	
20,56	-0,2582	82,84	156,25	0,01359	
20,58	-0,2567	82,89	157,04	0,01357	
20,60	-0,2551	82,84	157,75	0,01342	
20,62	-0,2535	82,82	158,94	0,01333	
20,64	-0,2519	82,80	160,42	0,01335	
20,66	-0,2503	82,79	161,74	0,01340	
20,68	-0,2487	82,83	163,05	0,01350	
20,70	-0,2472	82,86	164,57	0,01360	
20,72	-0,2456	82,83	166,11	0,01364	
20,74	-0,2440	82,81	167,45	0,01359	
20,76	-0,2423	82,82	168,75	0,01346	
20,78	-0,2406	82,90	170,20	0,01336	
20,80	-0,2391	82,97	171,80	0,01340	
20,82	-0,2374	82,94	173,63	0,01343	
20,84	-0,2359	82,35	175,41	0,01344	
20,86	-0,2342	80,85	176,93	0,01349	
20,88	-0,2326	79,84	178,50	0,01360	
20,90	-0,2309	79,51	179,95	0,01355	
20,92	-0,2292	79,60	181,17	0,01340	
20,94	-0,2275	80,79	182,41	0,01332	
20,96	-0,2258	82,23	183,77	0,01336	
20,98	-0,2241	82,86	185,17	0,01350	
21,00	-0,2225	82,48	186,43	0,01359	
21,02	-0,2209	80,99	187,57	0,01363	
21,04	-0,2193	79,91	188,84	0,01365	
21,06	-0,2176	79,61	190,17	0,01360	
21,08	-0,2159	79,57	191,51	0,01348	
21,10	-0,2143	79,61	192,86	0,01336	
21,12	-0,2126	79,63	194,23	0,01336	
21,14	-0,2109	79,60	195,61	0,01341	
21,16	-0,2092	79,58	196,98	0,01344	
21,18	-0,2075	79,53	198,30	0,01353	
21,20	-0,2058	78,40	199,59	0,01353	
21,22	-0,2042	76,97	200,99	0,01338	
21,24	-0,2024	76,31	202,48	0,01335	
21,26	-0,2007	76,17	203,95	0,01342	
21,28	-0,1989	76,18	205,31	0,01348	
21,30	-0,1972	76,21	206,55	0,01357	
21,32	-0,1955	76,19	207,78	0,01358	
21,34	-0,1937	76,16	209,05	0,01359	
21,36	-0,1919	76,11	210,29	0,01347	
21,38	-0,1902	76,05	211,59	0,01334	
21,40	-0,1885	76,05	213,00	0,01335	
21,42	-0,1868	76,15	214,45	0,01341	
21,44	-0,1850	76,15	215,91	0,01346	
21,46	-0,1832	76,10	217,33	0,01351	
21,48	-0,1815	76,12	218,71	0,01357	
21,50	-0,1798	76,15	220,07	0,01363	
21,52	-0,1779	76,16	221,50	0,01362	
21,54	-0,1760	76,17	222,94	0,01358	
21,56	-0,1742	76,20	224,35	0,01351	
21,58	-0,1724	76,23	225,71	0,01346	
21,60	-0,1706	76,23	227,06	0,01352	
21,62	-0,1689	76,18	228,40	0,01357	
21,64	-0,1672	76,22	229,74	0,01358	
21,66	-0,1654	76,25	231,07	0,01358	
21,68	-0,1635	76,15	232,39	0,01348	
21,70	-0,1617	75,09	233,75	0,01337	
21,72	-0,1599	74,74	235,16	0,01331	
21,74	-0,1581	75,51	236,58	0,01334	
21,76	-0,1562	76,07	237,97	0,01347	
21,78	-0,1543	76,17	239,35	0,01359	
21,80	-0,1525	76,01	240,76	0,01362	
21,82	-0,1507	74,89	242,20	0,01359	
21,84	-0,1489	73,48	243,63	0,01345	
21,86	-0,1471	72,83	245,07	0,01335	
21,88	-0,1453	72,76	246,49	0,01338	
21,90	-0,1434	72,80	247,92	0,01353	
21,92	-0,1415	72,81	249,35	0,01364	
21,94	-0,1398	72,74	250,75	0,01366	
21,96	-0,1379	72,22	252,13	0,01367	
21,98	-0,1360	70,79	253,51	0,01364	
22,00	-0,1341	69,70	254,91	0,01347	
22,02	-0,1322	69,32	256,35	0,01335	
22,04	-0,1304	69,30	258,01	0,01336	
22,06	-0,1285	69,42	261,09	0,01347	
22,08	-0,1265	69,48	265,56	0,01357	
22,10	-0,1245	69,51	268,96	0,01363	
22,12	-0,1226	69,53	270,96	0,01364	
22,14	-0,1207	69,50	272,38	0,01354	
22,16	-0,1188	69,53	273,74	0,01343	
22,18	-0,1168	69,55	275,34	0,01333	
22,20	-0,1150	69,53	276,94	0,01330	
22,22	-0,1131	69,56	278,44	0,01340	
22,24	-0,1111	69,58	279,97	0,01357	
22,26	-0,1091	69,53	281,41	0,01365	
22,28	-0,1071	69,41	282,77	0,01363	
22,30	-0,1053	69,37	284,26	0,01345	
22,32	-0,1033	69,37	285,87	0,01333	
22,34	-0,1013	69,35	287,43	0,01331	
22,36	-0,09933	69,31	288,94	0,01334	
22,38	-0,09731	69,33	290,49	0,01349	
22,40	-0,09529	69,42	292,04	0,01360	
22,42	-0,09327	69,45	293,56	0,01366	
22,44	-0,09125	69,43	295,02	0,01358	
22,46	-0,08923	69,48	296,61	0,01341	
22,48	-0,08721	69,53	298,28	0,01330	
22,50	-0,08521	69,57	299,87	0,01330	
22,52	-0,08321	69,08	301,43	0,01340	
22,54	-0,08119	67,55	303,04	0,01351	
22,56	-0,07916	66,43	304,64	0,01358	
22,58	-0,07715	66,01	306,20	0,01356	
22,60	-0,07526	65,99	307,76	0,01348	
22,62	-0,07324	66,13	309,40	0,01342	
22,64	-0,07114	66,15	311,05	0,01338	
22,66	-0,06910	65,68	312,66	0,01339	
22,68	-0,06709	64,18	314,28	0,01346	
22,70	-0,06509	63,06	315,95	0,01354	
22,72	-0,06308	62,71	317,62	0,01362	
22,74	-0,06106	62,70	319,32	0,01359	
22,76	-0,05894	62,76	321,02	0,01347	
22,78	-0,05676	62,80	322,72	0,01337	
22,80	-0,05466	62,76	324,42	0,01335	
22,82	-0,05263	62,77	326,10	0,01341	
22,84	-0,05060	62,76	327,81	0,01355	
22,86	-0,04844	62,76	329,49	0,01367	
22,88	-0,04630	62,77	331,18	0,01368	
22,90	-0,04425	62,85	332,94	0,01360	
22,92	-0,04223	62,92	334,70	0,01348	
22,94	-0,04012	62,91	336,46	0,01336	
22,96	-0,03795	62,91	338,24	0,01332	
22,98	-0,03584	63,00	340,02	0,01340	
23,00	-0,03367	62,98	341,79	0,01349	
23,02	-0,03153	62,90	343,62	0,01357	
23,04	-0,02938	62,17	345,47	0,01367	
23,06	-0,02707	60,60	347,08	0,01368	
23,08	-0,02484	64,89	348,03	0,01350	
23,10	-0,02269	76,95	348,44	0,01347	
23,12	-0,02057	91,56	348,63	0,01355	
23,14	-0,01857	105,03	348,88	0,01360	
23,16	-0,01703	116,95	349,27	0,01362	
23,18	-0,01627	123,40	349,81	0,01364	
23,20	-0,01579	121,52	350,54	0,01373	
23,22	-0,01519	116,92	351,37	0,01433	
23,24	-0,01456	115,20	352,19	0,01489	
23,26	-0,01381	115,74	353,00	0,01506	
23,28	-0,01294	116,96	353,85	0,01510	
23,30	-0,01207	118,83	354,69	0,01518	
23,32	-0,01138	120,46	355,53	0,01521	
23,34	-0,01083	120,91	356,30	0,01522	
23,36	-0,01025	120,19	357,05	0,01523	
23,38	-0,00961	117,48	357,94	0,01521	
23,40	-0,00906	114,12	358,85	0,01509	
23,42	-0,00854	112,71	359,64	0,01496	
23,44	-0,00790	111,79	360,44	0,01467	
23,46	-0,00709	110,09	361,30	0,01411	
23,48	-0,00624	109,08	362,13	0,01380	
23,50	-0,00554	109,93	362,90	0,01375	
23,52	-0,00485	109,26	363,72	0,01371	
23,54	-0,00416	107,23	364,55	0,01352	
23,56	-0,00349	105,43	365,37	0,01335	
23,58	-0,00292	104,49	366,17	0,01336	
23,60	-0,00240	103,98	366,96	0,01347	
23,62	-0,00179	103,02	367,81	0,01367	
23,64	-0,00111	100,92	368,72	0,01372	
23,66	-0,00044	100,20	369,54	0,01371	
23,68	0,00016	101,47	370,24	0,01364	
23,70	0,00087	100,41	371,08	0,01351	
23,72	0,00162	97,17	372,02	0,01342	
23,74	0,00224	97,01	372,83	0,01345	
23,76	0,00273	98,60	373,56	0,01349	
23,78	0,00343	98,44	374,38	0,01360	
23,80	0,00422	97,86	375,21	0,01371	
23,82	0,00487	99,32	375,98	0,01373	
23,84	0,00543	99,53	376,84	0,01360	
23,86	0,00602	97,79	377,76	0,01338	
23,88	0,00661	97,16	378,60	0,01332	
23,90	0,00726	97,20	379,35	0,01340	
23,92	0,00792	97,41	380,14	0,01353	
23,94	0,00859	97,41	380,99	0,01368	
23,96	0,00928	97,68	381,85	0,01376	
23,98	0,00987	98,29	382,62	0,01374	
24,00	0,01042	98,77	383,36	0,01362	
24,02	0,01111	98,14	384,24	0,01347	
24,04	0,01174	97,50	385,13	0,01338	
24,06	0,01231	98,54	385,92	0,01339	
24,08	0,01295	99,35	386,71	0,01351	
24,10	0,01365	98,98	387,55	0,01366	
24,12	0,01430	99,09	388,39	0,01371	
24,14	0,01482	100,48	389,21	0,01363	
24,16	0,01538	100,33	390,04	0,01350	
24,18	0,01602	99,11	390,89	0,01342	
24,20	0,01665	99,72	391,69	0,01337	
24,22	0,01725	101,17	392,45	0,01339	
24,24	0,01777	101,47	393,27	0,01352	
24,26	0,01836	101,04	394,14	0,01363	
24,28	0,01899	101,47	394,94	0,01376	
24,30	0,01953	101,08	395,75	0,01369	
24,32	0,02009	100,04	396,62	0,01343	
24,34	0,02062	99,67	397,45	0,01332	
24,36	0,02111	99,69	398,25	0,01335	
24,38	0,02168	99,25	399,08	0,01350	
24,40	0,02220	98,70	399,91	0,01365	
24,42	0,02274	99,56	400,68	0,01368	
24,44	0,02325	101,26	401,43	0,01369	
24,46	0,02382	100,50	402,35	0,01366	
24,48	0,02444	99,03	403,27	0,01355	
24,50	0,02501	99,79	404,05	0,01349	
24,52	0,02555	99,86	404,86	0,01348	
24,54	0,02613	98,42	405,67	0,01349	
24,56	0,02668	98,70	406,46	0,01357	
24,58	0,02717	99,54	407,26	0,01363	
24,60	0,02774	98,61	408,07	0,01366	
24,62	0,02825	98,12	408,89	0,01365	
24,64	0,02878	98,76	409,74	0,01358	
24,66	0,02932	98,86	410,58	0,01356	
24,68	0,02984	99,21	411,40	0,01358	
24,70	0,03042	98,75	412,24	0,01359	
24,72	0,03092	98,79	413,05	0,01366	
24,74	0,03145	99,37	413,85	0,01376	
24,76	0,03209	99,24	414,67	0,01374	
24,78	0,03267	98,84	415,47	0,01357	
24,80	0,03318	99,26	416,30	0,01339	
24,82	0,03364	99,22	417,15	0,01338	
24,84	0,03413	98,97	417,93	0,01343	
24,86	0,03468	98,68	418,75	0,01352	
24,88	0,03523	98,43	419,62	0,01365	
24,90	0,03577	98,94	420,44	0,01374	
24,92	0,03643	99,34	421,26	0,01367	
24,94	0,03700	98,92	422,08	0,01351	
24,96	0,03748	99,21	422,84	0,01344	
24,98	0,03805	99,45	423,69	0,01345	
25,00	0,03861	98,49	424,60	0,01351	
25,02	0,03915	98,33	425,41	0,01366	
25,04	0,03963	99,14	426,19	0,01370	
25,06	0,04018	98,24	427,00	0,01364	
25,08	0,04073	97,37	427,84	0,01357	
25,10	0,04123	98,24	428,62	0,01347	
25,12	0,04182	98,33	429,42	0,01346	
25,14	0,04249	96,99	430,29	0,01347	
25,16	0,04300	96,67	431,13	0,01359	
25,18	0,04352	98,25	431,94	0,01367	
25,20	0,04410	98,99	432,76	0,01367	
25,22	0,04458	99,37	433,55	0,01362	
25,24	0,04517	100,19	434,37	0,01353	
25,26	0,04588	99,58	435,22	0,01344	
25,28	0,04636	99,46	435,97	0,01346	
25,30	0,04681	99,53	436,78	0,01352	
25,32	0,04735	97,79	437,69	0,01359	
25,34	0,04790	97,21	438,53	0,01368	
25,36	0,04853	97,88	439,33	0,01370	
25,38	0,04908	96,88	440,16	0,01364	
25,40	0,04960	95,56	440,97	0,01353	
25,42	0,05015	96,06	441,76	0,01349	
25,44	0,05068	96,53	442,56	0,01351	
25,46	0,05127	95,41	443,40	0,01359	
25,48	0,05187	94,83	444,20	0,01372	
25,50	0,05242	94,52	445,04	0,01379	
25,52	0,05300	93,40	445,92	0,01376	
25,54	0,05352	93,28	446,71	0,01365	
25,56	0,05401	93,76	447,49	0,01353	
25,58	0,05461	92,98	448,32	0,01349	
25,60	0,05522	92,62	449,11	0,01352	
25,62	0,05577	93,31	449,94	0,01364	
25,64	0,05634	92,86	450,80	0,01371	
25,66	0,05693	92,67	451,61	0,01374	
25,68	0,05755	92,66	452,44	0,01372	
25,70	0,05810	91,73	453,28	0,01362	
25,72	0,05862	91,60	454,06	0,01353	
25,74	0,05914	92,25	454,87	0,01349	
25,76	0,05972	91,63	455,73	0,01348	
25,78	0,06028	91,49	456,53	0,01353	
25,80	0,06089	91,54	457,35	0,01363	
25,82	0,06145	91,15	458,18	0,01369	
25,84	0,06198	92,11	458,96	0,01366	
25,86	0,06264	92,23	459,81	0,01353	
25,88	0,06321	90,99	460,68	0,01345	
25,90	0,06370	90,22	461,48	0,01347	
25,92	0,06434	89,54	462,33	0,01355	
25,94	0,06503	88,84	463,15	0,01368	
25,96	0,06555	89,86	463,90	0,01380	
25,98	0,06610	89,88	464,75	0,01379	
26,00	0,06673	89,07	465,58	0,01371	
26,02	0,06731	89,95	466,34	0,01352	
26,04	0,06786	89,97	467,21	0,01340	
26,06	0,06842	88,49	468,08	0,01345	
26,08	0,06901	88,77	468,87	0,01349	
26,10	0,06969	88,92	469,69	0,01354	
26,12	0,07039	88,09	470,51	0,01366	
26,14	0,07097	88,67	471,31	0,01370	
26,16	0,07147	89,52	472,13	0,01359	
26,18	0,07206	88,80	472,95	0,01344	
26,20	0,07272	88,57	473,78	0,01340	
26,22	0,07342	88,76	474,64	0,01349	
26,24	0,07407	88,74	475,46	0,01356	
26,26	0,07473	89,25	476,26	0,01366	
26,28	0,07540	89,19	477,07	0,01380	
26,30	0,07592	88,83	477,86	0,01379	
26,32	0,07646	89,29	478,65	0,01362	
26,34	0,07709	89,23	479,50	0,01341	
26,36	0,07777	88,61	480,38	0,01337	
26,38	0,07837	88,54	481,17	0,01348	
26,40	0,07887	89,26	481,96	0,01354	
26,42	0,07947	88,34	482,82	0,01361	
26,44	0,08013	87,99	483,64	0,01367	
26,46	0,08078	89,09	484,43	0,01369	
26,48	0,08150	89,04	485,29	0,01364	
26,50	0,08216	88,46	486,12	0,01356	
26,52	0,08267	89,38	486,92	0,01352	
26,54	0,08321	89,21	487,77	0,01350	
26,56	0,08382	88,60	488,56	0,01360	
26,58	0,08441	89,10	489,37	0,01368	
26,60	0,08496	88,35	490,25	0,01371	
26,62	0,08551	88,12	491,05	0,01364	
26,64	0,08614	89,04	491,82	0,01351	
26,66	0,08685	89,10	492,65	0,01351	
26,68	0,08750	88,80	493,45	0,01351	
26,70	0,08817	89,13	494,28	0,01352	
26,72	0,08875	88,43	495,16	0,01353	
26,74	0,08923	87,58	495,95	0,01362	
26,76	0,08985	88,14	496,76	0,01368	
26,78	0,09056	88,02	497,61	0,01363	
26,80	0,09117	88,21	498,40	0,01357	
26,82	0,09177	88,83	499,21	0,01350	
26,84	0,09232	88,29	500,06	0,01348	
26,86	0,09286	88,23	500,85	0,01352	
26,88	0,09354	88,77	501,71	0,01360	
26,90	0,09425	88,29	502,57	0,01370	
26,92	0,09485	88,95	503,33	0,01370	
26,94	0,09553	89,55	504,15	0,01359	
26,96	0,09626	88,57	504,99	0,01348	
26,98	0,09684	89,24	505,76	0,01343	
27,00	0,09739	90,57	506,60	0,01346	
27,02	0,09798	89,42	507,48	0,01352	
27,04	0,09858	88,53	508,29	0,01366	
27,06	0,09918	88,73	509,12	0,01373	
27,08	0,09972	87,60	509,94	0,01365	
27,10	0,1003	87,18	510,71	0,01353	
27,12	0,1009	87,29	511,55	0,01341	
27,14	0,1016	86,40	512,35	0,01346	
27,16	0,1022	86,69	513,11	0,01354	
27,18	0,1028	86,50	513,99	0,01356	
27,20	0,1034	85,11	514,86	0,01367	
27,22	0,1039	85,42	515,65	0,01377	
27,24	0,1046	85,48	516,49	0,01376	
27,26	0,1053	84,67	517,30	0,01361	
27,28	0,1059	84,84	518,09	0,01352	
27,30	0,1066	84,53	518,96	0,01349	
27,32	0,1073	83,57	519,75	0,01353	
27,34	0,1079	84,13	520,54	0,01363	
27,36	0,1085	83,72	521,45	0,01372	
27,38	0,1090	83,11	522,22	0,01372	
27,40	0,1096	84,51	522,99	0,01358	
27,42	0,1104	84,05	523,91	0,01344	
27,44	0,1110	83,11	524,74	0,01349	
27,46	0,1116	83,80	525,52	0,01360	
27,48	0,1123	83,22	526,34	0,01364	
27,50	0,1130	81,56	527,14	0,01366	
27,52	0,1136	82,65	527,92	0,01373	
27,54	0,1144	82,99	528,75	0,01376	
27,56	0,1150	81,74	529,59	0,01369	
27,58	0,1157	81,42	530,39	0,01355	
27,60	0,1163	81,23	531,21	0,01349	
27,62	0,1170	80,16	532,06	0,01347	
27,64	0,1177	79,92	532,87	0,01353	
27,66	0,1184	79,96	533,70	0,01361	
27,68	0,1190	79,06	534,53	0,01365	
27,70	0,1197	78,90	535,30	0,01368	
27,72	0,1204	79,30	536,12	0,01362	
27,74	0,1211	78,28	537,01	0,01347	
27,76	0,1217	78,05	537,79	0,01337	
27,78	0,1224	78,65	538,57	0,01337	
27,80	0,1231	76,95	539,49	0,01346	
27,82	0,1238	76,05	540,27	0,01361	
27,84	0,1244	76,68	541,04	0,01372	
27,86	0,1252	74,91	541,93	0,01371	
27,88	0,1258	73,29	542,69	0,01359	
27,90	0,1266	73,75	543,49	0,01340	
27,92	0,1274	72,93	544,39	0,01335	
27,94	0,1281	71,42	545,15	0,01347	
27,96	0,1288	71,43	545,98	0,01364	
27,98	0,1295	69,56	546,91	0,01371	
28,00	0,1301	67,97	547,64	0,01365	
28,02	0,1308	67,70	548,43	0,01361	
28,04	0,1317	65,84	549,34	0,01354	
28,06	0,1324	64,42	550,11	0,01349	
28,08	0,1331	64,23	550,94	0,01344	
28,10	0,1339	62,56	551,79	0,01347	
28,12	0,1347	61,77	552,52	0,01357	
28,14	0,1355	61,46	553,37	0,01367	
28,16	0,1364	59,35	554,24	0,01370	
28,18	0,1371	58,55	554,93	0,01370	
28,20	0,1378	58,40	555,76	0,01367	
28,22	0,1386	55,44	556,81	0,01355	
28,24	0,1395	54,15	557,64	0,01350	
28,26	0,1403	55,84	558,22	0,01352	
28,28	0,1412	55,06	558,98	0,01357	
28,30	0,1422	51,32	560,07	0,01365	
28,32	0,1430	50,98	560,96	0,01372	
28,34	0,1438	52,37	561,60	0,01358	
28,36	0,1446	50,70	562,37	0,01339	
28,38	0,1456	48,02	563,24	0,01338	
28,40	0,1465	48,41	563,94	0,01349	
28,42	0,1474	49,78	564,66	0,01359	
28,44	0,1485	46,45	565,71	0,01363	
28,46	0,1495	43,06	566,74	0,01362	
28,48	0,1504	44,04	567,44	0,01360	
28,50	0,1512	44,37	568,06	0,01355	
28,52	0,1522	42,21	568,90	0,01347	
28,54	0,1532	40,49	569,79	0,01338	
28,56	0,1541	41,66	570,50	0,01341	
28,58	0,1550	40,67	571,36	0,01349	
28,60	0,1560	37,01	572,37	0,01353	
28,62	0,1571	36,35	573,17	0,01356	
28,64	0,1581	37,06	573,87	0,01356	
28,66	0,1592	34,72	574,69	0,01351	
28,68	0,1603	31,81	575,51	0,01340	
28,70	0,1613	32,16	576,20	0,01337	
28,72	0,1624	31,94	576,99	0,01346	
28,74	0,1636	27,96	578,09	0,01360	
28,76	0,1646	26,11	579,02	0,01370	
28,78	0,1657	27,17	579,62	0,01372	
28,80	0,1668	26,54	580,31	0,01362	
28,82	0,1680	23,38	581,31	0,01347	
28,84	0,1692	21,65	582,22	0,01339	
28,86	0,1704	22,80	582,87	0,01334	
28,88	0,1718	20,44	583,72	0,01339	
28,90	0,1730	16,38	584,68	0,01354	
28,92	0,1740	15,86	585,42	0,01366	
28,94	0,1752	15,68	586,15	0,01370	
28,96	0,1765	12,29	586,99	0,01370	
28,98	0,1778	10,05	587,81	0,01359	
29,00	0,1788	10,15	588,58	0,01347	
29,02	0,1799	8,329	589,42	0,01350	
29,04	0,1812	5,912	590,25	0,01355	
29,06	0,1825	5,204	590,98	0,01365	
29,08	0,1839	4,520	591,81	0,01370	
29,10	0,1853	2,033	592,77	0,01370	
29,12	0,1866	0,6254	593,59	0,01361	
29,14	0,1879	-0,7255	594,30	0,01347	
29,16	0,1893	-3,316	595,12	0,01335	
29,18	0,1907	-6,856	596,06	0,01334	
29,20	0,1920	-8,053	596,82	0,01345	
29,22	0,1933	-8,315	597,53	0,01357	
29,24	0,1947	-11,46	598,49	0,01361	
29,26	0,1960	-15,10	599,41	0,01363	
29,28	0,1974	-16,15	600,07	0,01360	
29,30	0,1990	-16,68	600,74	0,01351	
29,32	0,2006	-19,63	601,75	0,01343	
29,34	0,2021	-22,54	602,79	0,01346	
29,36	0,2034	-22,76	603,49	0,01351	
29,38	0,2049	-22,58	604,10	0,01359	
29,40	0,2065	-24,41	605,00	0,01367	
29,42	0,2081	-26,66	606,01	0,01368	
29,44	0,2096	-25,29	606,77	0,01353	
29,46	0,2112	-24,13	607,48	0,01334	
29,48	0,2128	-24,37	608,35	0,01335	
29,50	0,2145	-23,77	609,23	0,01350	
29,52	0,2160	-21,38	609,96	0,01366	
29,54	0,2174	-19,60	610,74	0,01366	
29,56	0,2191	-20,56	611,73	0,01360	
29,58	0,2207	-19,28	612,57	0,01352	
29,60	0,2221	-15,77	613,29	0,01342	
29,62	0,2235	-14,22	614,14	0,01335	
29,64	0,2251	-13,18	615,00	0,01341	
29,66	0,2267	-9,556	615,77	0,01348	
29,68	0,2282	-5,424	616,56	0,01349	
29,70	0,2296	-3,139	617,41	0,01355	
29,72	0,2309	0,8432	618,15	0,01362	
29,74	0,2322	5,491	618,95	0,01363	
29,76	0,2336	7,542	619,92	0,01346	
29,78	0,2349	10,60	620,77	0,01340	
29,80	0,2361	15,41	621,53	0,01348	
29,82	0,2373	18,75	622,38	0,01354	
29,84	0,2383	22,06	623,13	0,01356	
29,86	0,2396	26,46	623,95	0,01368	
29,88	0,2409	29,15	624,88	0,01376	
29,90	0,2419	32,84	625,67	0,01369	
29,92	0,2430	37,25	626,48	0,01348	
29,94	0,2440	39,69	627,34	0,01337	
29,96	0,2451	42,93	628,13	0,01347	
29,98	0,2461	47,69	628,95	0,01358	
30,00	0,2471	51,38	629,76	0,01360	
30,02	0,2479	54,97	630,53	0,01365	
30,04	0,2489	58,75	631,40	0,01368	
30,06	0,2497	61,06	632,22	0,01364	
30,08	0,2504	64,13	632,92	0,01355	
30,10	0,2513	66,37	633,81	0,01348	
30,12	0,2521	66,39	634,75	0,01350	
30,14	0,2527	68,31	635,53	0,01363	
30,16	0,2533	70,39	636,35	0,01367	
30,18	0,2541	70,83	637,14	0,01367	
30,20	0,2549	72,25	637,89	0,01363	
30,22	0,2557	73,35	638,79	0,01349	
30,24	0,2564	72,65	639,61	0,01339	
30,26	0,2570	73,84	640,34	0,01336	
30,28	0,2576	73,86	641,23	0,01339	
30,30	0,2583	71,88	642,08	0,01346	
30,32	0,2590	72,15	642,86	0,01349	
30,34	0,2595	71,72	643,72	0,01347	
30,36	0,2602	69,88	644,52	0,01351	
30,38	0,2610	70,39	645,28	0,01355	
30,40	0,2618	70,39	646,16	0,01346	
30,42	0,2624	69,42	646,93	0,01343	
30,44	0,2631	69,53	647,66	0,01346	
30,46	0,2638	67,46	648,68	0,01356	
30,48	0,2645	64,24	649,68	0,01367	
30,50	0,2651	64,25	650,33	0,01371	
30,52	0,2657	65,42	650,92	0,01366	
30,54	0,2666	62,61	651,86	0,01353	
30,56	0,2675	59,92	652,91	0,01346	
30,58	0,2681	61,63	653,66	0,01346	
30,60	0,2688	62,17	654,31	0,01348	
30,62	0,2695	59,64	655,07	0,01353	
30,64	0,2704	57,47	655,97	0,01357	
30,66	0,2712	56,34	656,89	0,01360	
30,68	0,2718	54,57	657,58	0,01357	
30,70	0,2724	53,43	658,24	0,01350	
30,72	0,2732	50,14	659,26	0,01341	
30,74	0,2739	46,22	660,37	0,01344	
30,76	0,2745	45,47	661,07	0,01354	
30,78	0,2751	45,73	661,60	0,01365	
30,80	0,2760	43,67	662,49	0,01368	
30,82	0,2769	40,82	663,51	0,01369	
30,84	0,2775	41,94	664,28	0,01364	
30,86	0,2782	41,21	665,05	0,01354	
30,88	0,2789	38,12	665,85	0,01347	
30,90	0,2795	36,96	666,56	0,01345	
30,92	0,2802	36,86	667,43	0,01354	
30,94	0,2810	34,13	668,38	0,01366	
30,96	0,2818	31,89	669,18	0,01369	
30,98	0,2825	31,11	669,95	0,01367	
31,00	0,2834	28,84	670,79	0,01353	
31,02	0,2842	27,09	671,58	0,01343	
31,04	0,2849	27,45	672,31	0,01341	
31,06	0,2857	26,38	673,18	0,01347	
31,08	0,2865	23,32	674,09	0,01359	
31,10	0,2872	23,18	674,79	0,01364	
31,12	0,2880	23,41	675,57	0,01366	
31,14	0,2889	20,11	676,59	0,01366	
31,16	0,2897	17,84	677,51	0,01353	
31,18	0,2905	19,21	678,12	0,01343	
31,20	0,2913	19,69	678,79	0,01337	
31,22	0,2923	15,67	679,86	0,01341	
31,24	0,2932	13,44	680,88	0,01352	
31,26	0,2940	14,60	681,50	0,01365	
31,28	0,2947	14,98	682,08	0,01369	
31,30	0,2957	12,72	683,01	0,01359	
31,32	0,2968	10,22	684,10	0,01340	
31,34	0,2976	11,08	684,87	0,01333	
31,36	0,2984	11,50	685,46	0,01343	
31,38	0,2993	9,720	686,27	0,01356	
31,40	0,3004	7,677	687,25	0,01366	
31,42	0,3012	9,534	688,01	0,01366	
31,44	0,3020	10,45	688,77	0,01361	
31,46	0,3030	7,456	689,70	0,01354	
31,48	0,3039	5,550	690,55	0,01346	
31,50	0,3048	5,972	691,25	0,01341	
31,52	0,3057	5,250	692,02	0,01344	
31,54	0,3068	2,882	692,93	0,01349	
31,56	0,3077	2,486	693,75	0,01357	
31,58	0,3086	3,301	694,49	0,01363	
31,60	0,3096	1,956	695,36	0,01359	
31,62	0,3106	-0,1859	696,20	0,01343	
31,64	0,3116	-0,1495	696,98	0,01338	
31,66	0,3126	-0,7225	697,82	0,01342	
31,68	0,3136	-2,343	698,66	0,01349	
31,70	0,3146	-3,317	699,48	0,01358	
31,72	0,3157	-3,872	700,29	0,01365	
31,74	0,3166	-5,334	701,11	0,01364	
31,76	0,3176	-6,547	701,91	0,01357	
31,78	0,3186	-6,057	702,71	0,01344	
31,80	0,3197	-6,103	703,56	0,01337	
31,82	0,3208	-7,295	704,40	0,01337	
31,84	0,3218	-7,794	705,19	0,01345	
31,86	0,3229	-8,403	706,01	0,01356	
31,88	0,3239	-9,924	706,85	0,01361	
31,90	0,3249	-10,61	707,67	0,01365	
31,92	0,3259	-10,16	708,47	0,01361	
31,94	0,3269	-11,04	709,29	0,01346	
31,96	0,3280	-12,08	710,09	0,01342	
31,98	0,3290	-12,38	710,89	0,01344	
32,00	0,3301	-12,51	711,74	0,01352	
32,02	0,3311	-13,18	712,58	0,01358	
32,04	0,3322	-13,39	713,36	0,01353	
32,06	0,3332	-14,51	714,21	0,01351	
32,08	0,3343	-16,28	715,09	0,01349	
32,10	0,3353	-16,81	715,86	0,01345	
32,12	0,3363	-16,97	716,64	0,01341	
32,14	0,3375	-18,05	717,46	0,01341	
32,16	0,3386	-19,43	718,28	0,01352	
32,18	0,3397	-19,66	719,11	0,01362	
32,20	0,3408	-20,43	719,93	0,01368	
32,22	0,3418	-21,06	720,73	0,01368	
32,24	0,3430	-21,76	721,57	0,01357	
32,26	0,3442	-22,39	722,41	0,01347	
32,28	0,3452	-21,89	723,19	0,01343	
32,30	0,3464	-21,78	723,99	0,01341	
32,32	0,3475	-22,31	724,87	0,01344	
32,34	0,3486	-22,29	725,74	0,01356	
32,36	0,3497	-19,96	726,49	0,01369	
32,38	0,3508	-18,73	727,35	0,01370	
32,40	0,3520	-18,73	728,31	0,01362	
32,42	0,3530	-16,60	729,09	0,01351	
32,44	0,3541	-14,45	729,86	0,01350	
32,46	0,3552	-13,76	730,70	0,01350	
32,48	0,3564	-12,06	731,48	0,01358	
32,50	0,3574	-9,199	732,33	0,01368	
32,52	0,3585	-7,091	733,20	0,01369	
32,54	0,3594	-3,966	733,97	0,01364	
32,56	0,3604	-1,345	734,78	0,01351	
32,58	0,3614	0,06536	735,62	0,01339	
32,60	0,3624	2,945	736,40	0,01338	
32,62	0,3634	5,576	737,25	0,01342	
32,64	0,3644	7,210	737,99	0,01355	
32,66	0,3652	9,938	738,73	0,01369	
32,68	0,3662	11,30	739,78	0,01368	
32,70	0,3672	11,29	740,75	0,01359	
32,72	0,3682	12,80	741,47	0,01342	
32,74	0,3691	13,73	742,20	0,01333	
32,76	0,3699	13,83	742,94	0,01334	
32,78	0,3708	15,17	743,77	0,01347	
32,80	0,3718	16,46	744,67	0,01364	
32,82	0,3726	17,39	745,41	0,01375	
32,84	0,3735	18,76	746,20	0,01376	
32,86	0,3745	18,29	747,25	0,01367	
32,88	0,3753	18,76	748,08	0,01354	
32,90	0,3761	21,04	748,81	0,01343	
32,92	0,3770	21,35	749,62	0,01349	
32,94	0,3778	21,25	750,30	0,01361	
32,96	0,3787	22,23	751,18	0,01364	
32,98	0,3796	21,80	752,19	0,01367	
33,00	0,3803	23,23	752,86	0,01369	
33,02	0,3811	25,17	753,68	0,01364	
33,04	0,3821	23,51	754,79	0,01354	
33,06	0,3829	23,43	755,58	0,01352	
33,08	0,3836	25,44	756,23	0,01350	
33,10	0,3845	24,65	757,03	0,01356	
33,12	0,3854	24,00	757,81	0,01365	
33,14	0,3862	26,22	758,61	0,01370	
33,16	0,3870	27,14	759,37	0,01360	
33,18	0,3878	27,03	760,11	0,01343	
33,20	0,3886	27,06	761,08	0,01332	
33,22	0,3895	27,30	761,88	0,01343	
33,24	0,3902	29,91	762,48	0,01358	
33,26	0,3910	29,95	763,59	0,01360	
33,28	0,3918	26,80	764,85	0,01360	
33,30	0,3926	27,12	765,50	0,01360	
33,32	0,3933	29,69	765,90	0,01359	
33,34	0,3941	28,60	766,75	0,01357	
33,36	0,3951	26,30	767,85	0,01346	
33,38	0,3957	29,16	768,56	0,01340	
33,40	0,3964	30,19	769,35	0,01346	
33,42	0,3973	27,49	770,32	0,01363	
33,44	0,3981	28,53	771,01	0,01375	
33,46	0,3988	31,10	771,82	0,01366	
33,48	0,3996	29,26	772,74	0,01355	
33,50	0,4003	28,55	773,38	0,01347	
33,52	0,4010	29,96	774,25	0,01337	
33,54	0,4018	28,31	775,29	0,01338	
33,56	0,4024	28,38	776,00	0,01349	
33,58	0,4033	30,07	776,76	0,01358	
33,60	0,4041	29,16	777,51	0,01366	
33,62	0,4047	29,21	778,18	0,01368	
33,64	0,4055	30,12	779,23	0,01360	
33,66	0,4062	29,06	780,19	0,01349	
33,68	0,4069	30,81	780,82	0,01341	
33,70	0,4077	31,68	781,74	0,01343	
33,72	0,4085	30,43	782,62	0,01352	
33,74	0,4091	32,52	783,29	0,01365	
33,76	0,4098	33,43	784,23	0,01371	
33,78	0,4105	31,70	785,00	0,01362	
33,80	0,4113	33,57	785,65	0,01348	
33,82	0,4122	33,84	786,78	0,01339	
33,84	0,4129	32,35	787,72	0,01349	
33,86	0,4135	34,27	788,31	0,01355	
33,88	0,4142	35,11	789,07	0,01357	
33,90	0,4150	33,68	789,83	0,01366	
33,92	0,4158	35,45	790,61	0,01369	
33,94	0,4166	35,99	791,58	0,01361	
33,96	0,4172	35,11	792,27	0,01350	
33,98	0,4178	37,18	793,02	0,01345	
34,00	0,4186	37,06	794,19	0,01343	
34,02	0,4192	36,62	795,05	0,01350	
34,04	0,4198	38,31	795,70	0,01360	
34,06	0,4206	38,33	796,48	0,01366	
34,08	0,4211	38,54	797,12	0,01366	
34,10	0,4218	40,96	798,01	0,01361	
34,12	0,4226	40,58	799,16	0,01347	
34,14	0,4232	41,79	799,65	0,01343	
34,16	0,4239	46,28	799,72	0,01347	
34,18	0,4246	48,43	799,82	0,01357	
34,20	0,4252	53,07	799,64	0,01369	
34,22	0,4259	61,10	799,58	0,01372	
34,24	0,4267	64,46	799,88	0,01376	
34,26	0,4272	68,06	799,84	0,01363	
34,28	0,4275	76,00	799,61	0,01346	
34,30	0,4281	78,38	799,74	0,01345	
34,32	0,4287	78,55	799,76	0,01354	
34,34	0,4290	84,60	799,55	0,01367	
34,36	0,4295	87,33	799,70	0,01382	
34,38	0,4299	86,09	799,87	0,01393	
34,40	0,4302	90,24	799,65	0,01380	
34,42	0,4306	93,83	799,62	0,01365	
34,44	0,4311	91,68	799,84	0,01356	
34,46	0,4313	93,89	799,71	0,01357	
34,48	0,4316	99,39	799,56	0,01361	
34,50	0,4320	98,02	799,77	0,01363	
34,52	0,4322	97,20	799,77	0,01375	
34,54	0,4324	102,35	799,54	0,01382	
34,56	0,4327	102,96	799,73	0,01369	
34,58	0,4331	100,67	799,94	0,01354	
34,60	0,4332	104,32	799,71	0,01348	
34,62	0,4333	107,82	799,57	0,01346	
34,64	0,4337	105,04	799,79	0,01358	
34,66	0,4339	105,17	799,76	0,01377	
34,68	0,4339	109,31	799,56	0,01388	
34,70	0,4342	107,56	799,72	0,01390	
34,72	0,4345	105,30	799,79	0,01377	
34,74	0,4346	110,03	799,56	0,01359	
34,76	0,4348	111,39	799,64	0,01349	
34,78	0,4352	107,49	799,83	0,01349	
34,80	0,4353	109,52	799,66	0,01366	
34,82	0,4353	112,60	799,58	0,01374	
34,84	0,4356	109,41	799,78	0,01370	
34,86	0,4358	109,03	799,70	0,01364	
34,88	0,4359	112,67	799,53	0,01357	
34,90	0,4361	110,30	799,74	0,01348	
34,92	0,4363	107,79	799,80	0,01347	
34,94	0,4364	111,20	799,58	0,01351	
34,96	0,4366	111,06	799,66	0,01354	
34,98	0,4368	108,11	799,78	0,01360	
35,00	0,4369	111,43	799,59	0,01366	
35,02	0,4372	114,11	799,61	0,01365	
35,04	0,4374	110,39	799,81	0,01355	
35,06	0,4373	111,05	799,67	0,01344	
35,08	0,4373	114,73	799,54	0,01340	
35,10	0,4377	112,13	799,77	0,01350	
35,12	0,4380	110,47	799,79	0,01365	
35,14	0,4379	114,15	799,56	0,01378	
35,16	0,4381	113,24	799,69	0,01378	
35,18	0,4384	109,17	799,83	0,01367	
35,20	0,4385	112,17	799,62	0,01353	
35,22	0,4387	114,83	799,59	0,01343	
35,24	0,4389	111,23	799,78	0,01346	
35,26	0,4390	111,60	799,66	0,01362	
35,28	0,4392	115,68	799,53	0,01377	
35,30	0,4394	113,44	799,75	0,01380	
35,32	0,4395	111,29	799,77	0,01368	
35,34	0,4396	115,84	799,54	0,01350	
35,36	0,4399	115,55	799,67	0,01342	
35,38	0,4401	111,77	799,84	0,01350	
35,40	0,4400	114,34	799,64	0,01363	
35,42	0,4400	116,71	799,57	0,01363	
35,44	0,4404	112,92	799,78	0,01368	
35,46	0,4406	112,63	799,70	0,01373	
35,48	0,4406	116,83	799,53	0,01360	
35,50	0,4408	114,79	799,75	0,01351	
35,52	0,4411	112,24	799,82	0,01348	
35,54	0,4412	116,56	799,58	0,01350	
35,56	0,4413	117,59	799,61	0,01354	
35,58	0,4415	113,28	799,83	0,01366	
35,60	0,4415	114,69	799,69	0,01373	
35,62	0,4418	117,69	799,57	0,01375	
35,64	0,4421	114,19	799,76	0,01367	
35,66	0,4421	113,14	799,72	0,01349	
35,68	0,4419	117,93	799,52	0,01340	
35,70	0,4422	116,75	799,71	0,01348	
35,72	0,4426	113,74	799,83	0,01360	
35,74	0,4426	117,41	799,61	0,01370	
35,76	0,4427	118,48	799,65	0,01372	
35,78	0,4428	114,43	799,84	0,01373	
35,80	0,4430	115,65	799,67	0,01366	
35,82	0,4432	118,72	799,58	0,01351	
35,84	0,4434	115,67	799,81	0,01344	
35,86	0,4434	114,24	799,75	0,01349	
35,88	0,4433	118,17	799,56	0,01358	
35,90	0,4436	116,36	799,73	0,01369	
35,92	0,4439	112,32	799,79	0,01377	
35,94	0,4439	115,80	799,57	0,01373	
35,96	0,4441	117,01	799,66	0,01366	
35,98	0,4443	113,79	799,83	0,01355	
36,00	0,4445	116,18	799,63	0,01346	
36,02	0,4446	118,74	799,59	0,01345	
36,04	0,4448	115,24	799,79	0,01357	
36,06	0,4447	114,64	799,69	0,01371	
36,08	0,4447	118,48	799,55	0,01369	
36,10	0,4451	116,14	799,78	0,01360	
36,12	0,4454	113,37	799,81	0,01355	
36,14	0,4453	116,97	799,57	0,01353	
36,16	0,4454	117,48	799,67	0,01352	
36,18	0,4457	113,91	799,84	0,01357	
36,20	0,4458	116,21	799,64	0,01367	
36,22	0,4460	118,70	799,60	0,01378	
36,24	0,4461	115,49	799,79	0,01383	
36,26	0,4462	115,59	799,67	0,01377	
36,28	0,4465	119,12	799,56	0,01356	
36,30	0,4468	116,39	799,79	0,01340	
36,32	0,4468	114,44	799,77	0,01339	
36,34	0,4466	118,68	799,55	0,01347	
36,36	0,4468	118,46	799,69	0,01354	
36,38	0,4471	114,61	799,81	0,01363	
36,40	0,4473	117,18	799,60	0,01370	
36,42	0,4474	118,91	799,61	0,01369	
36,44	0,4476	115,26	799,76	0,01357	
36,46	0,4477	116,96	799,60	0,01350	
36,48	0,4479	120,25	799,56	0,01349	
36,50	0,4481	116,47	799,82	0,01357	
36,52	0,4481	114,96	799,77	0,01371	
36,54	0,4480	119,02	799,55	0,01373	
36,56	0,4483	117,86	799,70	0,01377	
36,58	0,4486	115,56	799,79	0,01370	
36,60	0,4486	119,91	799,56	0,01351	
36,62	0,4487	121,07	799,60	0,01341	
36,64	0,4489	116,48	799,83	0,01348	
36,66	0,4491	117,25	799,71	0,01362	
36,68	0,4492	121,31	799,54	0,01375	
36,70	0,4495	118,36	799,73	0,01379	
36,72	0,4495	116,48	799,73	0,01375	
36,74	0,4493	120,52	799,53	0,01363	
36,76	0,4496	119,44	799,71	0,01344	
36,78	0,4500	115,27	799,90	0,01338	
36,80	0,4500	117,96	799,69	0,01348	
36,82	0,4500	121,07	799,56	0,01355	
36,84	0,4502	117,31	799,75	0,01359	
36,86	0,4504	117,47	799,69	0,01370	
36,88	0,4506	122,09	799,53	0,01375	
36,90	0,4508	119,53	799,73	0,01370	
36,92	0,4508	115,89	799,81	0,01361	
36,94	0,4507	119,73	799,57	0,01355	
36,96	0,4509	120,49	799,63	0,01355	
36,98	0,4513	115,75	799,83	0,01362	
37,00	0,4514	117,47	799,67	0,01373	
37,02	0,4513	120,63	799,57	0,01378	
37,04	0,4515	116,80	799,74	0,01373	
37,06	0,4518	115,98	799,67	0,01364	
37,08	0,4519	120,83	799,51	0,01351	
37,10	0,4521	119,16	799,74	0,01346	
37,12	0,4522	115,66	799,85	0,01351	
37,14	0,4520	119,07	799,61	0,01357	
37,16	0,4521	120,25	799,61	0,01371	
37,18	0,4525	115,49	799,81	0,01379	
37,20	0,4527	116,69	799,68	0,01368	
37,22	0,4527	121,25	799,54	0,01354	
37,24	0,4529	118,45	799,74	0,01351	
37,26	0,4532	116,39	799,75	0,01355	
37,28	0,4533	120,37	799,53	0,01361	
37,30	0,4534	119,39	799,68	0,01373	
37,32	0,4535	115,24	799,83	0,01383	
37,34	0,4534	118,48	799,63	0,01383	
37,36	0,4534	120,85	799,60	0,01372	
37,38	0,4538	117,32	799,74	0,01360	
37,40	0,4540	118,03	799,59	0,01354	
37,42	0,4541	121,33	799,57	0,01353	
37,44	0,4542	118,83	799,82	0,01363	
37,46	0,4543	117,24	799,77	0,01375	
37,48	0,4545	120,49	799,57	0,01376	
37,50	0,4548	118,62	799,73	0,01377	
37,52	0,4549	115,79	799,78	0,01370	
37,54	0,4547	119,78	799,57	0,01362	
37,56	0,4548	120,45	799,67	0,01352	
37,58	0,4552	115,80	799,83	0,01355	
37,60	0,4553	117,51	799,63	0,01367	
37,62	0,4554	120,53	799,58	0,01377	
37,64	0,4555	116,84	799,78	0,01381	
37,66	0,4556	116,66	799,67	0,01377	
37,68	0,4558	120,79	799,52	0,01369	
37,70	0,4561	118,44	799,74	0,01362	
37,72	0,4562	115,49	799,80	0,01355	
37,74	0,4560	119,64	799,55	0,01360	
37,76	0,4561	120,57	799,63	0,01371	
37,78	0,4566	115,53	799,92	0,01382	
37,80	0,4567	116,16	799,81	0,01383	
37,82	0,4567	120,32	799,56	0,01373	
37,84	0,4568	117,91	799,69	0,01368	
37,86	0,4569	116,08	799,73	0,01363	
37,88	0,4570	120,50	799,54	0,01357	
37,90	0,4574	120,79	799,66	0,01362	
37,92	0,4576	116,44	799,84	0,01381	
37,94	0,4574	118,25	799,64	0,01395	
37,96	0,4574	121,01	799,57	0,01397	
37,98	0,4577	116,93	799,83	0,01390	
38,00	0,4580	115,54	799,80	0,01378	
38,02	0,4580	119,20	799,57	0,01370	
38,04	0,4582	117,77	799,67	0,01371	
38,06	0,4582	115,33	799,71	0,01378	
38,08	0,4581	119,53	799,53	0,01385	
38,10	0,4583	119,72	799,70	0,01392	
38,12	0,4587	115,65	799,88	0,01396	
38,14	0,4587	117,85	799,66	0,01390	
38,16	0,4587	120,64	799,58	0,01375	
38,18	0,4589	116,72	799,74	0,01372	
38,20	0,4591	115,93	799,63	0,01381	
38,22	0,4593	119,93	799,53	0,01386	
38,24	0,4595	117,53	799,77	0,01390	
38,26	0,4596	114,72	799,80	0,01400	
38,28	0,4594	118,39	799,56	0,01392	
38,30	0,4595	118,25	799,67	0,01376	
38,32	0,4599	114,20	799,89	0,01369	
38,34	0,4600	116,56	799,70	0,01370	
38,36	0,4601	119,66	799,58	0,01372	
38,38	0,4602	116,27	799,76	0,01376	
38,40	0,4602	115,47	799,70	0,01389	
38,42	0,4604	119,21	799,53	0,01395	
38,44	0,4608	117,10	799,72	0,01379	
38,46	0,4609	114,24	799,78	0,01362	
38,48	0,4607	117,49	799,55	0,01360	
38,50	0,4608	117,72	799,64	0,01372	
38,52	0,4611	113,79	799,85	0,01385	
38,54	0,4613	115,74	799,68	0,01387	
38,56	0,4614	119,28	799,55	0,01387	
38,58	0,4616	116,24	799,78	0,01391	
38,60	0,4616	115,35	799,78	0,01383	
38,62	0,4614	119,26	799,55	0,01369	
38,64	0,4617	117,85	799,70	0,01356	
38,66	0,4621	114,24	799,87	0,01360	
38,68	0,4621	117,13	799,65	0,01376	
38,70	0,4621	119,14	799,59	0,01383	
38,72	0,4623	114,86	799,82	0,01388	
38,74	0,4624	114,58	799,74	0,01388	
38,76	0,4626	118,62	799,56	0,01371	
38,78	0,4628	116,31	799,71	0,01357	
38,80	0,4629	113,90	799,71	0,01361	
38,82	0,4627	117,21	799,53	0,01374	
38,84	0,4629	116,80	799,72	0,01380	
38,86	0,4632	113,57	799,86	0,01386	
38,88	0,4633	116,65	799,63	0,01396	
38,90	0,4634	118,84	799,62	0,01385	
38,92	0,4636	114,89	799,84	0,01362	
38,94	0,4637	114,82	799,71	0,01352	
38,96	0,4639	118,17	799,56	0,01352	
38,98	0,4642	115,65	799,76	0,01355	
39,00	0,4643	113,88	799,78	0,01372	
39,02	0,4641	117,97	799,56	0,01386	
39,04	0,4642	117,48	799,67	0,01386	
39,06	0,4646	114,09	799,81	0,01379	
39,08	0,4647	116,50	799,60	0,01367	
39,10	0,4648	118,56	799,60	0,01358	
39,12	0,4649	114,68	799,83	0,01364	
39,14	0,4649	114,67	799,72	0,01371	
39,16	0,4648	118,16	799,54	0,01370	
39,18	0,4652	115,61	799,74	0,01365	
39,20	0,4655	113,69	799,80	0,01366	
39,22	0,4654	118,09	799,57	0,01370	
39,24	0,4655	118,33	799,64	0,01365	
39,26	0,4656	113,98	799,84	0,01357	
39,28	0,4658	115,70	799,67	0,01358	
39,30	0,4660	118,61	799,55	0,01357	
39,32	0,4662	115,52	799,74	0,01364	
39,34	0,4662	115,11	799,69	0,01380	
39,36	0,4661	119,11	799,52	0,01379	
39,38	0,4663	117,16	799,70	0,01368	
39,40	0,4666	113,72	799,77	0,01352	
39,42	0,4667	116,77	799,57	0,01347	
39,44	0,4669	117,38	799,67	0,01355	
39,46	0,4669	113,91	799,77	0,01372	
39,48	0,4667	116,01	799,57	0,01381	
39,50	0,4668	118,17	799,60	0,01376	
39,52	0,4672	114,48	799,82	0,01371	
39,54	0,4674	114,60	799,69	0,01359	
39,56	0,4675	118,00	799,54	0,01349	
39,58	0,4676	115,54	799,73	0,01354	
39,60	0,4678	113,89	799,72	0,01366	
39,62	0,4679	117,92	799,52	0,01372	
39,64	0,4682	116,83	799,68	0,01374	
39,66	0,4683	112,81	799,78	0,01378	
39,68	0,4681	115,23	799,57	0,01376	
39,70	0,4682	116,74	799,61	0,01366	
39,72	0,4685	113,05	799,82	0,01361	
39,74	0,4687	114,41	799,68	0,01362	
39,76	0,4688	118,35	799,55	0,01363	
39,78	0,4690	115,81	799,79	0,01371	
39,80	0,4689	113,92	799,79	0,01376	
39,82	0,4689	117,97	799,56	0,01375	
39,84	0,4694	116,76	799,69	0,01367	
39,86	0,4696	112,95	799,82	0,01357	
39,88	0,4695	116,54	799,61	0,01354	
39,90	0,4695	119,04	799,60	0,01359	
39,92	0,4698	114,95	799,83	0,01371	
39,94	0,4701	114,71	799,72	0,01385	
39,96	0,4701	118,14	799,56	0,01383	
39,98	0,4703	115,68	799,72	0,01375	
40,00	0,4703	113,83	799,71	0,01365	
40,02	0,4701	117,91	799,52	0,01355	
40,04	0,4704	117,44	799,72	0,01352	
40,06	0,4708	114,36	799,86	0,01364	
40,08	0,4708	117,31	799,63	0,01380	
40,10	0,4709	118,49	799,62	0,01386	
40,12	0,4710	114,45	799,77	0,01390	
40,14	0,4710	116,01	799,61	0,01382	
40,16	0,4713	119,37	799,56	0,01364	
40,18	0,4716	116,10	799,83	0,01355	
40,20	0,4716	114,62	799,80	0,01357	
40,22	0,4715	118,72	799,57	0,01360	
40,24	0,4717	117,24	799,73	0,01364	
40,26	0,4720	113,73	799,82	0,01377	
40,28	0,4721	117,02	799,58	0,01381	
40,30	0,4722	118,48	799,61	0,01367	
40,32	0,4723	114,42	799,84	0,01352	
40,34	0,4722	115,23	799,71	0,01351	
40,36	0,4722	118,61	799,57	0,01352	
40,38	0,4726	115,20	799,79	0,01357	
40,40	0,4729	113,12	799,80	0,01372	
40,42	0,4728	117,68	799,55	0,01382	
40,44	0,4729	117,51	799,67	0,01380	
40,46	0,4731	113,66	799,87	0,01367	
40,48	0,4732	116,29	799,68	0,01356	
40,50	0,4734	119,18	799,56	0,01347	
40,52	0,4736	115,13	799,80	0,01342	
40,54	0,4736	114,21	799,79	0,01357	
40,56	0,4735	118,69	799,58	0,01378	
40,58	0,4736	117,19	799,71	0,01384	
40,60	0,4739	113,74	799,76	0,01378	
40,62	0,4741	116,73	799,55	0,01364	
40,64	0,4742	117,47	799,65	0,01351	
40,66	0,4743	113,79	799,84	0,01347	
40,68	0,4742	115,14	799,65	0,01361	
40,70	0,4742	117,58	799,60	0,01375	
40,72	0,4746	114,36	799,82	0,01386	
40,74	0,4748	114,52	799,72	0,01387	
40,76	0,4748	118,79	799,54	0,01372	
40,78	0,4749	116,56	799,73	0,01358	
40,80	0,4751	113,31	799,79	0,01355	
40,82	0,4753	116,69	799,55	0,01360	
40,84	0,4755	117,56	799,63	0,01360	
40,86	0,4757	113,86	799,84	0,01366	
40,88	0,4756	115,68	799,68	0,01380	
40,90	0,4755	119,30	799,55	0,01387	
40,92	0,4758	116,34	799,79	0,01370	
40,94	0,4761	115,28	799,79	0,01355	
40,96	0,4761	119,23	799,56	0,01351	
40,98	0,4763	117,50	799,68	0,01354	
41,00	0,4764	113,71	799,80	0,01363	
41,02	0,4765	116,86	799,59	0,01371	
41,04	0,4768	118,42	799,61	0,01373	
41,06	0,4770	114,39	799,80	0,01371	
41,08	0,4769	115,19	799,66	0,01365	
41,10	0,4768	118,60	799,55	0,01353	
41,12	0,4770	115,88	799,78	0,01346	
41,14	0,4773	113,92	799,77	0,01352	
41,16	0,4774	117,90	799,56	0,01366	
41,18	0,4776	117,54	799,71	0,01370	
41,20	0,4777	114,52	799,80	0,01373	
41,22	0,4775	117,32	799,58	0,01367	
41,24	0,4777	118,44	799,64	0,01350	
41,26	0,4782	114,42	799,83	0,01337	
41,28	0,4782	115,23	799,67	0,01339	
41,30	0,4782	118,57	799,55	0,01349	
41,32	0,4784	115,85	799,75	0,01362	
41,34	0,4787	114,44	799,72	0,01373	
41,36	0,4788	118,48	799,54	0,01372	
41,38	0,4790	117,10	799,73	0,01358	
41,40	0,4790	113,77	799,83	0,01342	
41,42	0,4789	117,08	799,60	0,01334	
41,44	0,4790	118,46	799,64	0,01340	
41,46	0,4793	114,49	799,79	0,01354	
41,48	0,4795	115,91	799,61	0,01367	
41,50	0,4796	118,37	799,58	0,01374	
41,52	0,4797	114,57	799,82	0,01368	
41,54	0,4797	113,82	799,75	0,01358	
41,56	0,4797	118,54	799,53	0,01353	
41,58	0,4801	117,29	799,71	0,01354	
41,60	0,4803	114,27	799,84	0,01361	
41,62	0,4802	117,42	799,62	0,01371	
41,64	0,4803	118,09	799,61	0,01374	
41,66	0,4805	114,04	799,77	0,01371	
41,68	0,4807	115,59	799,62	0,01362	
41,70	0,4809	119,13	799,55	0,01354	
41,72	0,4810	116,03	799,78	0,01350	
41,74	0,4810	113,90	799,75	0,01352	
41,76	0,4809	117,79	799,53	0,01352	
41,78	0,4811	116,86	799,70	0,01359	
41,80	0,4815	113,63	799,83	0,01370	
41,82	0,4815	116,92	799,61	0,01372	
41,84	0,4816	118,50	799,61	0,01370	
41,86	0,4818	114,40	799,84	0,01361	
41,88	0,4819	115,07	799,72	0,01357	
41,90	0,4821	118,67	799,58	0,01359	
41,92	0,4824	116,06	799,77	0,01367	
41,94	0,4824	113,98	799,76	0,01374	
41,96	0,4822	117,86	799,55	0,01370	
41,98	0,4824	116,92	799,69	0,01363	
42,00	0,4827	113,66	799,76	0,01365	
42,02	0,4828	116,68	799,55	0,01361	
42,04	0,4830	117,53	799,65	0,01352	
42,06	0,4831	113,82	799,90	0,01356	
42,08	0,4830	114,91	799,74	0,01369	
42,10	0,4829	118,60	799,56	0,01378	
42,12	0,4834	115,99	799,75	0,01375	
42,14	0,4836	114,44	799,75	0,01360	
42,16	0,4836	118,66	799,53	0,01346	
42,18	0,4836	117,99	799,68	0,01340	
42,20	0,4839	114,49	799,81	0,01339	
42,22	0,4840	117,18	799,60	0,01349	
42,24	0,4842	119,15	799,61	0,01361	
42,26	0,4844	115,24	799,82	0,01371	
42,28	0,4843	115,37	799,70	0,01375	
42,30	0,4842	118,55	799,54	0,01363	
42,32	0,4845	115,85	799,73	0,01341	
42,34	0,4848	113,71	799,74	0,01338	
42,36	0,4849	117,74	799,53	0,01345	
42,38	0,4850	117,54	799,66	0,01351	
42,40	0,4851	114,36	799,78	0,01366	
42,42	0,4851	117,13	799,57	0,01377	
42,44	0,4854	118,43	799,63	0,01374	
42,46	0,4857	114,34	799,84	0,01368	
42,48	0,4857	115,03	799,69	0,01360	
42,50	0,4856	118,45	799,57	0,01359	
42,52	0,4858	115,80	799,77	0,01358	
42,54	0,4860	114,42	799,73	0,01363	
42,56	0,4862	118,53	799,54	0,01371	
42,58	0,4864	117,79	799,69	0,01373	
42,60	0,4864	114,79	799,73	0,01372	
42,62	0,4863	118,35	799,53	0,01363	
42,64	0,4864	118,83	799,68	0,01348	
42,66	0,4868	115,18	799,86	0,01350	
42,68	0,4869	117,33	799,66	0,01362	
42,70	0,4870	119,49	799,60	0,01370	
42,72	0,4871	116,00	799,81	0,01375	
42,74	0,4871	115,78	799,73	0,01377	
42,76	0,4873	119,23	799,56	0,01366	
42,78	0,4876	116,56	799,73	0,01353	
42,80	0,4878	113,93	799,75	0,01338	
42,82	0,4876	117,96	799,54	0,01337	
42,84	0,4877	118,30	799,68	0,01344	
42,86	0,4879	114,87	799,82	0,01355	
42,88	0,4881	117,26	799,62	0,01362	
42,90	0,4883	119,25	799,59	0,01358	
42,92	0,4885	115,35	799,79	0,01351	
42,94	0,4884	115,48	799,67	0,01338	
42,96	0,4883	118,61	799,55	0,01330	
42,98	0,4886	115,94	799,77	0,01338	
43,00	0,4889	114,36	799,77	0,01349	
43,02	0,4889	118,65	799,53	0,01353	
43,04	0,4891	118,13	799,66	0,01357	
43,06	0,4892	114,54	799,83	0,01356	
43,08	0,4890	117,13	799,63	0,01345	
43,10	0,4892	119,35	799,58	0,01331	
43,12	0,4896	115,43	799,80	0,01334	
43,14	0,4897	115,36	799,72	0,01358	
43,16	0,4896	119,23	799,54	0,01371	
43,18	0,4898	116,78	799,73	0,01370	
43,20	0,4900	114,00	799,79	0,01364	
43,22	0,4901	118,02	799,56	0,01355	
43,24	0,4904	118,58	799,63	0,01344	
43,26	0,4906	115,03	799,82	0,01342	
43,28	0,4904	117,41	799,65	0,01349	
43,30	0,4903	120,90	799,56	0,01350	
43,32	0,4906	117,20	799,79	0,01355	
43,34	0,4909	115,44	799,74	0,01362	
43,36	0,4910	119,13	799,54	0,01360	
43,38	0,4911	118,06	799,73	0,01352	
43,40	0,4912	115,27	799,85	0,01343	
43,42	0,4910	119,25	799,62	0,01343	
43,44	0,4912	121,10	799,60	0,01344	
43,46	0,4915	116,92	799,81	0,01351	
43,48	0,4916	117,70	799,68	0,01369	
43,50	0,4917	120,85	799,57	0,01379	
43,52	0,4918	117,22	799,79	0,01371	
43,54	0,4919	115,60	799,75	0,01348	
43,56	0,4921	120,47	799,55	0,01333	
43,58	0,4924	119,47	799,71	0,01328	
43,60	0,4925	115,86	799,83	0,01339	
43,62	0,4924	119,33	799,60	0,01356	
43,64	0,4924	121,06	799,60	0,01361	
43,66	0,4926	116,86	799,80	0,01363	
43,68	0,4929	117,58	799,67	0,01352	
43,70	0,4930	121,02	799,54	0,01342	
43,72	0,4931	117,99	799,77	0,01338	
43,74	0,4931	116,10	799,79	0,01341	
43,76	0,4930	120,86	799,55	0,01352	
43,78	0,4932	120,33	799,66	0,01351	
43,80	0,4936	116,10	799,84	0,01354	
43,82	0,4937	118,81	799,64	0,01354	
43,84	0,4937	122,00	799,58	0,01345	
43,86	0,4939	117,91	799,82	0,01338	
43,88	0,4941	117,10	799,77	0,01331	
43,90	0,4942	121,75	799,56	0,01333	
43,92	0,4944	120,05	799,72	0,01343	
43,94	0,4945	117,20	799,78	0,01358	
43,96	0,4944	120,64	799,56	0,01363	
43,98	0,4945	121,34	799,65	0,01358	
44,00	0,4948	117,41	799,81	0,01343	
44,02	0,4949	119,06	799,63	0,01338	
44,04	0,4950	121,73	799,59	0,01335	
44,06	0,4952	118,35	799,75	0,01338	
44,08	0,4951	118,14	799,63	0,01351	
44,10	0,4951	121,45	799,56	0,01360	
44,12	0,4955	119,25	799,78	0,01358	
44,14	0,4957	117,93	799,72	0,01358	
44,16	0,4957	121,84	799,55	0,01347	
44,18	0,4958	120,57	799,76	0,01335	
44,20	0,4959	117,12	799,83	0,01335	
44,22	0,4960	120,00	799,58	0,01344	
44,24	0,4963	121,12	799,61	0,01346	
44,26	0,4965	117,41	799,82	0,01351	
44,28	0,4964	118,97	799,67	0,01355	
44,30	0,4964	122,11	799,55	0,01343	
44,32	0,4966	118,96	799,75	0,01330	
44,34	0,4968	117,55	799,71	0,01322	
44,36	0,4969	121,87	799,51	0,01325	
44,38	0,4971	120,79	799,71	0,01337	
44,40	0,4972	117,06	799,88	0,01346	
44,42	0,4971	120,06	799,65	0,01349	
44,44	0,4972	122,68	799,58	0,01350	
44,46	0,4976	118,74	799,83	0,01350	
44,48	0,4978	119,00	799,78	0,01342	
44,50	0,4977	123,54	799,56	0,01333	
44,52	0,4978	121,39	799,71	0,01336	
44,54	0,4980	117,84	799,80	0,01349	
44,56	0,4982	121,54	799,58	0,01356	
44,58	0,4984	122,72	799,64	0,01351	
44,60	0,4985	118,13	799,87	0,01343	
44,62	0,4984	118,89	799,72	0,01338	
44,64	0,4984	122,44	799,57	0,01334	
44,66	0,4987	119,80	799,72	0,01334	
44,68	0,4989	118,89	799,65	0,01338	
44,70	0,4990	123,20	799,51	0,01337	
44,72	0,4992	121,38	799,75	0,01342	
44,74	0,4992	117,22	799,89	0,01349	
44,76	0,4991	120,13	799,64	0,01339	
44,78	0,4992	122,62	799,59	0,01332	
44,80	0,4997	118,85	799,81	0,01330	
44,82	0,4998	119,37	799,70	0,01333	
44,84	0,4997	123,04	799,55	0,01337	
44,86	0,4998	120,90	799,73	0,01347	
44,88	0,5000	119,31	799,73	0,01356	
44,90	0,5002	123,51	799,53	0,01349	
44,92	0,5004	123,19	799,70	0,01336	
44,94	0,5006	118,84	799,89	0,01325	
44,96	0,5005	121,35	799,67	0,01320	
44,98	0,5004	124,45	799,59	0,01328	
45,00	0,5007	120,47	799,79	0,01347	
45,02	0,5010	120,17	799,70	0,01359	
45,04	0,5010	124,31	799,54	0,01354	
45,06	0,5012	122,55	799,75	0,01343	
45,08	0,5012	120,26	799,78	0,01333	
45,10	0,5011	123,70	799,55	0,01330	
45,12	0,5013	123,16	799,67	0,01330	
45,14	0,5017	118,69	799,82	0,01335	
45,16	0,5017	121,24	799,61	0,01343	
45,18	0,5018	124,26	799,59	0,01352	
45,20	0,5019	120,89	799,81	0,01361	
45,22	0,5021	120,85	799,71	0,01352	
45,24	0,5023	124,75	799,54	0,01333	
45,26	0,5025	122,64	799,75	0,01328	
45,28	0,5026	120,11	799,82	0,01340	
45,30	0,5024	123,58	799,58	0,01350	
45,32	0,5025	123,78	799,64	0,01352	
45,34	0,5027	119,52	799,82	0,01355	
45,36	0,5029	121,52	799,64	0,01352	
45,38	0,5031	124,97	799,56	0,01340	
45,40	0,5032	121,18	799,82	0,01332	
45,42	0,5032	120,26	799,81	0,01334	
45,44	0,5031	124,37	799,57	0,01333	
45,46	0,5033	122,51	799,65	0,01345	
45,48	0,5037	118,76	799,74	0,01361	
45,50	0,5037	122,33	799,54	0,01369	
45,52	0,5038	124,17	799,61	0,01361	
45,54	0,5039	120,64	799,85	0,01347	
45,56	0,5038	121,40	799,72	0,01337	
45,58	0,5039	125,17	799,54	0,01338	
45,60	0,5043	122,73	799,73	0,01342	
45,62	0,5045	120,32	799,76	0,01346	
45,64	0,5044	124,31	799,55	0,01350	
45,66	0,5045	124,38	799,68	0,01358	
45,68	0,5047	121,07	799,82	0,01359	
45,70	0,5049	123,61	799,62	0,01342	
45,72	0,5051	125,35	799,61	0,01336	
45,74	0,5052	121,40	799,80	0,01342	
45,76	0,5052	121,79	799,67	0,01352	
45,78	0,5051	125,19	799,58	0,01359	
45,80	0,5053	122,76	799,81	0,01359	
45,82	0,5055	121,10	799,77	0,01356	
45,84	0,5057	124,91	799,56	0,01347	
45,86	0,5059	123,35	799,71	0,01334	
45,88	0,5060	120,00	799,79	0,01332	
45,90	0,5058	123,20	799,56	0,01335	
45,92	0,5059	124,49	799,65	0,01336	
45,94	0,5063	120,78	799,89	0,01342	
45,96	0,5064	121,51	799,74	0,01348	
45,98	0,5064	125,30	799,56	0,01351	
46,00	0,5066	122,90	799,77	0,01342	
46,02	0,5066	121,09	799,79	0,01339	
46,04	0,5065	125,14	799,56	0,01377	
46,06	0,5068	124,77	799,66	0,01800	
46,08	0,5072	121,27	799,78	0,02661	
46,10	0,5071	123,75	799,58	0,02922	
46,12	0,5072	125,34	799,61	0,03001	
46,14	0,5073	121,33	799,82	0,03774	
46,16	0,5075	122,24	799,68	0,04148	
46,18	0,5077	126,01	799,56	0,04113	
46,20	0,5079	123,45	799,76	0,04586	
46,22	0,5079	121,96	799,75	0,05068	
46,24	0,5078	125,61	799,54	0,04922	
46,26	0,5079	124,83	799,69	0,04811	
46,28	0,5081	121,74	799,81	0,04914	
46,30	0,5083	124,40	799,58	0,04106	
46,32	0,5084	126,28	799,58	0,02642	
46,34	0,5086	122,10	799,85	0,01787	
46,36	0,5086	122,27	799,77	0,00889	
46,38	0,5085	126,50	799,57	-0,00361	
46,40	0,5086	124,16	799,73	-0,00279	
46,42	0,5089	122,15	799,74	0,00672	
46,44	0,5090	126,18	799,55	0,00539	
46,46	0,5092	125,62	799,70	0,00540	
46,48	0,5093	121,57	799,84	0,00795	
46,50	0,5092	123,74	799,61	-0,00226	
46,52	0,5092	126,09	799,61	-0,01205	
46,54	0,5094	122,98	799,86	-0,00604	
46,56	0,5097	123,85	799,75	-0,00057	
46,58	0,5097	128,02	799,57	-0,00581	
46,60	0,5099	124,82	799,78	0,00233	
46,62	0,5100	122,09	799,82	0,01227	
46,64	0,5098	125,72	799,58	0,01101	
46,66	0,5099	125,65	799,63	0,01446	
46,68	0,5103	121,63	799,78	0,03198	
46,70	0,5104	123,60	799,60	0,03742	
46,72	0,5105	126,11	799,58	0,03465	
46,74	0,5106	122,74	799,85	0,03628	
46,76	0,5106	122,15	799,79	0,03893	
46,78	0,5105	126,05	799,56	0,03996	
46,80	0,5106	124,97	799,70	0,04010	
46,82	0,5109	122,45	799,76	0,04010	
46,84	0,5111	126,18	799,55	0,04018	
46,86	0,5112	127,06	799,63	0,04030	
46,88	0,5114	123,47	799,83	0,04038	
46,90	0,5113	125,17	799,66	0,04046	
46,92	0,5112	128,38	799,57	0,04059	
46,94	0,5115	124,98	799,80	0,04068	
46,96	0,5117	124,07	799,78	0,04068	
46,98	0,5118	128,36	799,56	0,04063	
47,00	0,5119	126,83	799,68	0,04063	
47,02	0,5120	123,85	799,75	0,04066	
47,04	0,5118	127,13	799,54	0,04077	
47,06	0,5119	128,05	799,65	0,04088	
47,08	0,5121	124,12	799,88	0,04065	
47,10	0,5123	124,89	799,71	0,04025	
47,12	0,5125	127,80	799,58	0,03998	
47,14	0,5127	124,35	799,79	0,03984	
47,16	0,5126	123,57	799,74	0,03966	
47,18	0,5125	127,74	799,56	0,03947	
47,20	0,5127	126,14	799,71	0,03940	
47,22	0,5130	123,65	799,74	0,03930	
47,24	0,5131	127,10	799,53	0,03908	
47,26	0,5133	127,41	799,66	0,03886	
47,28	0,5134	123,64	799,86	0,03877	
47,30	0,5132	125,33	799,68	0,03886	
47,32	0,5132	128,48	799,57	0,03904	
47,34	0,5135	124,64	799,76	0,03916	
47,36	0,5137	123,68	799,69	0,03922	
47,38	0,5138	127,67	799,55	0,03931	
47,40	0,5140	126,00	799,75	0,03937	
47,42	0,5140	123,76	799,76	0,03939	
47,44	0,5138	127,69	799,55	0,03945	
47,46	0,5139	127,77	799,69	0,03968	
47,48	0,5142	123,93	799,84	0,03998	
47,50	0,5143	126,08	799,62	0,04022	
47,52	0,5145	128,36	799,58	0,04032	
47,54	0,5147	124,07	799,83	0,04030	
47,56	0,5146	123,93	799,77	0,04024	
47,58	0,5145	128,13	799,58	0,04013	
47,60	0,5147	126,26	799,75	0,04003	
47,62	0,5149	123,86	799,77	0,04003	
47,64	0,5151	127,67	799,56	0,04006	
47,66	0,5153	127,76	799,68	0,04008	
47,68	0,5154	123,94	799,79	0,04021	
47,70	0,5152	126,22	799,58	0,04019	
47,72	0,5153	128,40	799,61	0,03994	
47,74	0,5154	124,73	799,84	0,03973	
47,76	0,5156	125,44	799,71	0,03949	
47,78	0,5158	129,25	799,55	0,03918	
47,80	0,5160	126,81	799,74	0,03891	
47,82	0,5160	125,26	799,73	0,03865	
47,84	0,5159	128,99	799,54	0,03834	
47,86	0,5160	127,73	799,70	0,03821	
47,88	0,5162	123,87	799,80	0,03819	
47,90	0,5163	126,46	799,59	0,03812	
47,92	0,5166	127,79	799,62	0,03810	
47,94	0,5167	124,84	799,76	0,03810	
47,96	0,5166	126,88	799,59	0,03820	
47,98	0,5166	129,40	799,56	0,03829	
48,00	0,5167	126,06	799,79	0,03841	
48,02	0,5168	124,97	799,71	0,03877	
48,04	0,5170	128,12	799,54	0,03905	
48,06	0,5173	125,99	799,72	0,03913	
48,08	0,5174	123,62	799,74	0,03931	
48,10	0,5172	127,66	799,52	0,03945	
48,12	0,5173	127,89	799,67	0,03953	
48,14	0,5174	124,39	799,90	0,03959	
48,16	0,5172	126,59	799,72	0,03971	
48,18	0,5173	129,37	799,57	0,03959	
48,20	0,5178	125,38	799,76	0,03949	
48,22	0,5180	124,15	799,73	0,03917	
48,24	0,5179	128,49	799,53	0,03890	
48,26	0,5180	126,95	799,70	0,03882	
48,28	0,5181	123,70	799,82	0,03870	
48,30	0,5179	127,07	799,59	0,03854	
48,32	0,5181	128,89	799,62	0,03812	
48,34	0,5185	124,70	799,86	0,03777	
48,36	0,5186	125,23	799,73	0,03753	
48,38	0,5185	128,59	799,55	0,03746	
48,40	0,5187	125,80	799,72	0,03755	
48,42	0,5187	123,35	799,72	0,03779	
48,44	0,5186	127,42	799,54	0,03784	
48,46	0,5188	127,16	799,73	0,03781	
48,48	0,5192	123,68	799,87	0,03792	
48,50	0,5192	126,52	799,64	0,03810	
48,52	0,5192	128,65	799,61	0,03846	
48,54	0,5194	124,67	799,82	0,03881	
48,56	0,5193	125,26	799,69	0,03909	
48,58	0,5192	129,12	799,54	0,03926	
48,60	0,5195	126,49	799,73	0,03923	
48,62	0,5198	123,77	799,73	0,03908	
48,64	0,5198	127,52	799,53	0,03890	
48,66	0,5200	127,21	799,69	0,03880	
48,68	0,5201	123,69	799,83	0,03871	
48,70	0,5199	126,36	799,61	0,03858	
48,72	0,5200	128,50	799,61	0,03849	
48,74	0,5203	124,71	799,80	0,03841	
48,76	0,5205	125,41	799,67	0,03814	
48,78	0,5206	128,73	799,56	0,03782	
48,80	0,5207	125,90	799,81	0,03754	
48,82	0,5207	123,48	799,82	0,03731	
48,84	0,5205	127,57	799,57	0,03711	
48,86	0,5207	127,28	799,68	0,03713	
48,88	0,5210	123,05	799,84	0,03738	
48,90	0,5212	125,84	799,63	0,03758	
48,92	0,5213	128,52	799,58	0,03775	
48,94	0,5214	124,69	799,81	0,03796	
48,96	0,5213	124,66	799,73	0,03808	
48,98	0,5212	128,51	799,53	0,03806	
49,00	0,5214	126,37	799,71	0,03806	
49,02	0,5217	123,64	799,78	0,03806	
49,04	0,5218	127,54	799,57	0,03813	
49,06	0,5220	127,95	799,67	0,03811	
49,08	0,5221	123,83	799,85	0,03805	
49,10	0,5220	125,17	799,67	0,03788	
49,12	0,5219	128,35	799,58	0,03763	
49,14	0,5221	125,06	799,81	0,03757	
49,16	0,5223	124,10	799,74	0,03757	
49,18	0,5225	127,84	799,56	0,03764	
49,20	0,5227	126,13	799,76	0,03776	
49,22	0,5228	123,42	799,85	0,03794	
49,24	0,5226	126,71	799,62	0,03793	
49,26	0,5226	126,67	799,65	0,03779	
49,28	0,5229	122,11	799,78	0,03768	
49,30	0,5230	124,24	799,59	0,03772	
49,32	0,5232	127,61	799,58	0,03777	
49,34	0,5234	123,83	799,88	0,03781	
49,36	0,5234	123,09	799,83	0,03788	
49,38	0,5232	127,50	799,59	0,03785	
49,40	0,5234	126,17	799,67	0,03779	
49,42	0,5236	123,74	799,71	0,03772	
49,44	0,5237	127,53	799,52	0,03766	
49,46	0,5240	127,40	799,66	0,03762	
49,48	0,5241	123,09	799,87	0,03770	
49,50	0,5240	124,34	799,68	0,03778	
49,52	0,5239	127,70	799,56	0,03778	
49,54	0,5241	124,39	799,80	0,03779	
49,56	0,5244	123,29	799,79	0,03774	
49,58	0,5245	127,52	799,55	0,03766	
49,60	0,5247	126,00	799,68	0,03753	
49,62	0,5248	122,04	799,83	0,03753	
49,64	0,5246	124,78	799,61	0,03762	
49,66	0,5246	126,75	799,59	0,03765	
49,68	0,5248	122,36	799,86	0,03764	
49,70	0,5248	122,12	799,78	0,03763	
49,72	0,5250	126,04	799,56	0,03756	
49,74	0,5253	124,08	799,70	0,03745	
49,76	0,5254	121,42	799,75	0,03740	
49,78	0,5253	125,05	799,56	0,03747	
49,80	0,5254	124,88	799,66	0,03763	
49,82	0,5255	121,22	799,79	0,03768	
49,84	0,5253	123,41	799,58	0,03763	
49,86	0,5255	125,89	799,59	0,03759	
49,88	0,5259	122,23	799,85	0,03750	
49,90	0,5260	122,25	799,76	0,03746	
49,92	0,5260	126,44	799,57	0,03744	
49,94	0,5261	124,37	799,72	0,03750	
49,96	0,5261	122,25	799,71	0,03758	
49,98	0,5260	125,65	799,53	0,03762	
50,00	0,5262	124,96	799,71	0,03760	
50,02	0,5266	121,28	799,82	0,03760	
50,04	0,5266	123,31	799,60	0,03742	
50,06	0,5267	124,55	799,61	0,03729	
50,08	0,5268	121,02	799,81	0,03734	
50,10	0,5267	122,64	799,67	0,03736	
50,12	0,5267	126,41	799,57	0,03740	
50,14	0,5270	123,61	799,81	0,03750	
50,16	0,5273	121,69	799,81	0,03751	
50,18	0,5273	125,48	799,55	0,03740	
50,20	0,5274	124,37	799,67	0,03729	
50,22	0,5275	119,61	799,89	0,03722	
50,24	0,5273	122,08	799,71	0,03725	
50,26	0,5273	124,56	799,59	0,03730	
50,28	0,5277	121,03	799,79	0,03741	
50,30	0,5280	121,17	799,73	0,03747	
50,32	0,5279	125,67	799,55	0,03741	
50,34	0,5281	123,95	799,74	0,03730	
50,36	0,5281	120,73	799,82	0,03721	
50,38	0,5280	124,39	799,59	0,03715	
50,40	0,5281	125,39	799,69	0,03720	
50,42	0,5284	121,76	799,85	0,03738	
50,44	0,5286	123,48	799,65	0,03741	
50,46	0,5287	125,40	799,62	0,03737	
50,48	0,5288	121,31	799,86	0,03731	
50,50	0,5287	120,49	799,77	0,03715	
50,52	0,5286	124,49	799,55	0,03707	
50,54	0,5289	122,90	799,70	0,03712	
50,56	0,5292	120,40	799,74	0,03724	
50,58	0,5293	124,22	799,54	0,03732	
50,60	0,5294	124,55	799,66	0,03731	
50,62	0,5295	121,04	799,85	0,03733	
50,64	0,5293	123,21	799,66	0,03727	
50,66	0,5293	125,98	799,60	0,03713	
50,68	0,5296	122,33	799,83	0,03703	
50,70	0,5298	121,66	799,75	0,03705	
50,72	0,5299	125,18	799,55	0,03716	
50,74	0,5301	123,19	799,72	0,03726	
50,76	0,5301	120,46	799,78	0,03733	
50,78	0,5300	124,25	799,56	0,03738	
50,80	0,5301	124,78	799,65	0,03731	
50,82	0,5303	121,32	799,85	0,03717	
50,84	0,5305	123,34	799,66	0,03705	
50,86	0,5306	126,12	799,58	0,03702	
50,88	0,5308	122,26	799,85	0,03705	
50,90	0,5308	120,93	799,82	0,03716	
50,92	0,5306	125,21	799,59	0,03721	
50,94	0,5307	123,85	799,71	0,03715	
50,96	0,5309	120,60	799,78	0,03706	
50,98	0,5311	124,21	799,56	0,03696	
51,00	0,5313	125,31	799,68	0,03689	
51,02	0,5315	121,05	799,94	0,03690	
51,04	0,5314	121,71	799,77	0,03700	
51,06	0,5313	125,31	799,59	0,03711	
51,08	0,5314	122,83	799,74	0,03721	
51,10	0,5315	121,53	799,70	0,03716	
51,12	0,5317	124,82	799,54	0,03695	
51,14	0,5320	123,02	799,76	0,03685	
51,16	0,5321	119,70	799,88	0,03686	
51,18	0,5320	122,82	799,63	0,03688	
51,20	0,5320	124,76	799,61	0,03692	
51,22	0,5321	121,16	799,80	0,03699	
51,24	0,5322	121,96	799,67	0,03703	
51,26	0,5324	125,22	799,56	0,03697	
51,28	0,5327	121,56	799,81	0,03686	
51,30	0,5328	119,58	799,80	0,03684	
51,32	0,5326	124,03	799,56	0,03682	
51,34	0,5327	123,43	799,68	0,03691	
51,36	0,5328	119,27	799,83	0,03753	
51,38	0,5327	122,20	799,62	0,03829	
51,40	0,5329	124,45	799,62	0,03852	
51,42	0,5333	119,82	799,86	0,03845	
51,44	0,5334	119,85	799,75	0,03838	
51,46	0,5333	124,41	799,58	0,03835	
51,48	0,5334	121,90	799,76	0,03845	
51,50	0,5335	119,21	799,77	0,03853	
51,52	0,5334	123,59	799,55	0,03855	
51,54	0,5337	123,26	799,68	0,03853	
51,56	0,5340	118,55	799,86	0,03841	
51,58	0,5340	120,55	799,65	0,03824	
51,60	0,5340	123,57	799,60	0,03759	
51,62	0,5342	120,34	799,82	0,03697	
51,64	0,5341	120,48	799,72	0,03679	
51,66	0,5341	124,77	799,56	0,03688	
51,68	0,5346	123,13	799,75	0,03694	
51,70	0,5348	120,53	799,77	0,03686	
51,72	0,5347	124,04	799,56	0,03670	
51,74	0,5347	123,23	799,67	0,03658	
51,76	0,5348	119,25	799,77	0,03662	
51,78	0,5347	122,30	799,55	0,03670	
51,80	0,5349	124,37	799,65	0,03672	
51,82	0,5353	120,34	799,95	0,03681	
51,84	0,5354	120,73	799,82	0,03695	
51,86	0,5353	124,98	799,59	0,03687	
51,88	0,5355	122,10	799,75	0,03670	
51,90	0,5355	119,21	799,78	0,03660	
51,92	0,5354	123,12	799,57	0,03656	
51,94	0,5356	122,54	799,72	0,03656	
51,96	0,5360	118,27	799,89	0,03669	
51,98	0,5360	120,57	799,67	0,03681	
52,00	0,5360	123,67	799,58	0,03679	
52,02	0,5362	120,23	799,77	0,03669	
52,04	0,5361	119,76	799,68	0,03654	
52,06	0,5360	123,61	799,54	0,03645	
52,08	0,5364	121,05	799,76	0,03655	
52,10	0,5367	118,66	799,80	0,03670	
52,12	0,5367	122,88	799,57	0,03672	
52,14	0,5368	123,38	799,69	0,03672	
52,16	0,5369	119,57	799,87	0,03671	
52,18	0,5367	122,17	799,67	0,03653	
52,20	0,5367	124,67	799,59	0,03635	
52,22	0,5371	120,52	799,79	0,03636	
52,24	0,5373	119,71	799,70	0,03646	
52,26	0,5373	123,35	799,56	0,03651	
52,28	0,5375	120,83	799,76	0,03659	
52,30	0,5375	118,63	799,77	0,03672	
52,32	0,5373	122,75	799,55	0,03660	
52,34	0,5376	122,65	799,69	0,03641	
52,36	0,5380	118,89	799,83	0,03632	
52,38	0,5380	121,33	799,61	0,03635	
52,40	0,5381	123,81	799,59	0,03643	
52,42	0,5382	119,68	799,86	0,03655	
52,44	0,5381	119,68	799,79	0,03662	
52,46	0,5381	123,26	799,56	0,03656	
52,48	0,5384	120,47	799,71	0,03639	
52,50	0,5387	117,55	799,77	0,03626	
52,52	0,5387	121,47	799,56	0,03621	
52,54	0,5388	121,72	799,69	0,03619	
52,56	0,5389	118,07	799,82	0,03628	
52,58	0,5387	120,51	799,61	0,03638	
52,60	0,5388	123,46	799,59	0,03644	
52,62	0,5391	119,50	799,83	0,03648	
52,64	0,5372	119,01	799,74	0,03638	
52,66	0,5191	122,67	799,54	0,03620	
52,68	0,4988	120,20	799,73	0,03616	
52,70	0,4905	117,45	799,81	0,03628	
52,72	0,4897	121,36	799,58	0,03634	
52,74	0,4902	121,71	799,66	0,03639	
52,76	0,4905	117,96	799,82	0,03642	
52,78	0,4904	119,80	799,64	0,03636	
52,80	0,4904	122,65	799,59	0,03629	
52,82	0,4904	119,13	799,82	0,03618	
52,84	0,4905	118,88	799,73	0,03616	
52,86	0,4908	122,64	799,54	0,03619	
52,88	0,4911	120,29	799,73	0,03628	
52,90	0,4911	117,07	799,80	0,03635	
52,92	0,4910	120,71	799,58	0,03621	
52,94	0,4910	121,39	799,69	0,03598	
52,96	0,4912	118,11	799,85	0,03577	
52,98	0,4913	121,30	799,64	0,03559	
53,00	0,4917	125,60	799,62	0,03546	
53,02	0,4922	124,49	799,87	0,03543	
53,04	0,4926	127,46	799,78	0,03531	
53,06	0,4932	135,28	799,59	0,03503	
53,08	0,4940	138,00	799,72	0,03464	
53,10	0,4946	141,07	799,70	0,03420	
53,12	0,4953	150,48	799,53	0,03373	
53,14	0,4962	156,33	799,69	0,03334	
53,16	0,4973	160,24	799,74	0,03299	
53,18	0,4981	170,47	799,54	0,03265	
53,20	0,4993	179,26	799,69	0,03221	
53,22	0,5006	184,10	799,89	0,03172	
53,24	0,5018	194,97	799,68	0,03115	
53,26	0,5031	206,88	799,59	0,03048	
53,28	0,5046	213,43	799,76	0,02987	
53,30	0,5059	223,84	799,63	0,02938	
53,32	0,5074	238,77	799,56	0,02882	
53,34	0,5093	247,45	799,85	0,02825	
53,36	0,5111	256,96	799,87	0,02773	
53,38	0,5128	273,41	799,59	0,02715	
53,40	0,5148	285,99	799,68	0,02641	
53,42	0,5169	294,62	799,87	0,02563	
53,44	0,5188	310,31	799,68	0,02483	
53,46	0,5209	326,34	799,60	0,02394	
53,48	0,5232	336,30	799,82	0,02311	
53,50	0,5255	349,68	799,74	0,02241	
53,52	0,5278	367,13	799,55	0,02164	
53,54	0,5303	378,82	799,74	0,02076	
53,56	0,5329	389,71	799,84	0,01975	
53,58	0,5354	407,67	799,60	0,01859	
53,60	0,5381	422,45	799,62	0,01742	
53,62	0,5409	432,07	799,80	0,01637	
53,64	0,5437	448,03	799,64	0,01538	
53,66	0,5467	465,09	799,59	0,01428	
53,68	0,5499	475,24	799,82	0,01306	
53,70	0,5529	487,89	799,73	0,01172	
53,72	0,5560	504,77	799,55	0,01025	
53,74	0,5594	516,24	799,77	0,00880	
53,76	0,5628	526,58	799,86	0,00747	
53,78	0,5661	543,17	799,61	0,00608	
53,80	0,5697	556,91	799,68	0,00459	
53,82	0,5734	565,16	799,89	0,00308	
53,84	0,5768	578,04	799,70	0,00154	
53,86	0,5805	592,61	799,59	-0,00015	
53,88	0,5845	600,64	799,78	-0,00190	
53,90	0,5885	610,99	799,68	-0,00353	
53,92	0,5924	624,90	799,55	-0,00519	
53,94	0,5966	632,21	799,80	-0,00681	
53,96	0,6007	638,56	799,85	-0,00837	
53,98	0,6045	650,77	799,59	-0,01007	
54,00	0,6084	658,39	799,64	-0,01187	
54,02	0,6122	661,27	799,80	-0,01362	
54,04	0,6160	669,99	799,61	-0,01539	
54,06	0,6200	678,77	799,59	-0,01725	
54,08	0,6242	680,51	799,92	-0,01900	
54,10	0,6282	684,89	799,90	-0,02063	
54,12	0,6321	694,55	799,61	-0,02234	
54,14	0,6362	698,28	799,67	-0,02415	
54,16	0,6403	699,47	799,74	-0,02599	
54,18	0,6442	707,25	799,54	-0,02787	
54,20	0,6482	712,35	799,64	-0,02978	
54,22	0,6524	711,61	799,92	-0,03159	
54,24	0,6563	715,99	799,78	-0,03323	
54,26	0,6602	723,51	799,59	-0,03505	
54,28	0,6644	724,01	799,78	-0,03689	
54,30	0,6684	725,06	799,79	-0,03872	
54,32	0,6723	731,72	799,56	-0,04064	
54,34	0,6764	733,56	799,70	-0,04261	
54,36	0,6805	731,65	799,85	-0,04445	
54,38	0,6844	736,49	799,64	-0,04620	
54,40	0,6882	741,14	799,60	-0,04797	
54,42	0,6921	739,34	799,82	-0,04977	
54,44	0,6959	741,73	799,73	-0,05161	
54,46	0,6999	748,22	799,56	-0,05357	
54,48	0,7040	747,86	799,75	-0,05559	
54,50	0,7081	746,91	799,78	-0,05750	
54,52	0,7119	752,65	799,57	-0,05939	
54,54	0,7161	753,93	799,72	-0,06125	
54,56	0,7202	751,72	799,87	-0,06300	
54,58	0,7241	755,92	799,64	-0,06483	
54,60	0,7281	759,10	799,60	-0,06681	
54,62	0,7323	755,93	799,83	-0,06880	
54,64	0,7362	757,10	799,72	-0,07074	
54,66	0,7402	762,53	799,53	-0,07265	
54,68	0,7443	761,44	799,74	-0,07453	
54,70	0,7484	759,02	799,84	-0,07630	
54,72	0,7523	763,52	799,60	-0,07816	
54,74	0,7564	765,56	799,63	-0,08015	
54,76	0,7605	762,72	799,85	-0,08216	
54,78	0,7644	765,09	799,70	-0,08415	
54,80	0,7683	769,71	799,56	-0,08613	
54,82	0,7725	767,09	799,78	-0,08811	
54,84	0,7766	765,65	799,80	-0,08989	
54,86	0,7805	770,66	799,57	-0,09171	
54,88	0,7846	770,74	799,70	-0,09368	
54,90	0,7887	768,10	799,82	-0,09564	
54,92	0,7924	771,31	799,60	-0,09763	
54,94	0,7962	773,16	799,62	-0,09970	
54,96	0,8003	769,44	799,86	-0,1017	
54,98	0,8042	770,59	799,73	-0,1035	
55,00	0,8081	775,29	799,57	-0,1054	
55,02	0,8122	772,75	799,77	-0,1073	
55,04	0,8162	770,61	799,79	-0,1092	
55,06	0,8201	775,52	799,57	-0,1111	
55,08	0,8242	776,08	799,65	-0,1133	
55,10	0,8283	772,89	799,74	-0,1152	
55,12	0,8321	776,28	799,54	-0,1172	
55,14	0,8362	777,85	799,63	-0,1193	
55,16	0,8403	773,84	799,92	-0,1212	
55,18	0,8443	774,82	799,79	-0,1229	
55,20	0,8483	779,65	799,58	-0,1248	
55,22	0,8524	778,34	799,72	-0,1268	
55,24	0,8565	776,70	799,70	-0,1289	
55,26	0,8604	780,93	799,52	-0,1310	
55,28	0,8645	780,64	799,71	-0,1330	
55,30	0,8686	776,98	799,87	-0,1349	
55,32	0,8725	779,98	799,64	-0,1367	
55,34	0,8765	782,57	799,62	-0,1387	
55,36	0,8805	778,59	799,84	-0,1406	
55,38	0,8842	779,06	799,73	-0,1427	
55,40	0,8879	783,12	799,57	-0,1448	
55,42	0,8920	780,41	799,76	-0,1468	
55,44	0,8961	778,77	799,76	-0,1487	
55,46	0,9000	783,19	799,55	-0,1506	
55,48	0,9041	782,98	799,70	-0,1526	
55,50	0,9082	779,35	799,84	-0,1544	
55,52	0,9121	781,78	799,63	-0,1564	
55,54	0,9161	784,00	799,63	-0,1586	
55,56	0,9203	780,13	799,87	-0,1607	
55,58	0,9242	780,63	799,76	-0,1626	
55,60	0,9282	784,58	799,57	-0,1646	
55,62	0,9323	782,25	799,72	-0,1665	
55,64	0,9364	780,56	799,73	-0,1684	
55,66	0,9403	785,01	799,55	-0,1704	
55,68	0,9444	784,48	799,70	-0,1724	
55,70	0,9485	781,22	799,80	-0,1744	
55,72	0,9524	783,99	799,58	-0,1764	
55,74	0,9564	786,10	799,62	-0,1784	
55,76	0,9606	782,61	799,86	-0,1803	
55,78	0,9645	783,04	799,73	-0,1822	
55,80	0,9685	786,71	799,57	-0,1842	
55,82	0,9726	784,48	799,74	-0,1863	
55,84	0,9765	782,86	799,72	-0,1884	
55,86	0,9801	786,72	799,54	-0,1905	
55,88	0,9840	786,29	799,71	-0,1924	
55,90	0,9881	782,87	799,80	-0,1943	
55,92	0,9920	785,77	799,59	-0,1961	
55,94	0,9960	787,01	799,66	-0,1981	
55,96	1,000	783,47	799,84	-0,2001	
55,98	1,004	785,35	799,67	-0,2022	
56,00	1,008	789,20	799,60	-0,2043	
56,02	1,012	786,25	799,83	-0,2063	
56,04	1,016	785,25	799,75	-0,2081	
56,06	1,020	789,25	799,56	-0,2100	
56,08	1,024	787,65	799,74	-0,2119	
56,10	1,028	784,52	799,79	-0,2139	
56,12	1,032	788,27	799,58	-0,2160	
56,14	1,036	788,35	799,67	-0,2182	
56,16	1,040	784,92	799,78	-0,2201	
56,18	1,044	787,38	799,58	-0,2221	
56,20	1,048	789,44	799,64	-0,2241	
56,22	1,053	786,03	799,83	-0,2260	
56,24	1,056	786,57	799,67	-0,2278	
56,26	1,060	790,02	799,57	-0,2298	
56,28	1,065	787,20	799,80	-0,2319	
56,30	1,069	785,71	799,76	-0,2340	
56,32	1,073	789,89	799,55	-0,2360	
56,34	1,077	788,98	799,72	-0,2380	
56,36	1,080	785,54	799,84	-0,2397	
56,38	1,084	788,83	799,61	-0,2416	
56,40	1,088	790,50	799,63	-0,2436	
56,42	1,092	786,51	799,82	-0,2457	
56,44	1,096	787,38	799,68	-0,2478	
56,46	1,100	790,78	799,58	-0,2499	
56,48	1,104	788,15	799,76	-0,2519	
56,50	1,108	787,02	799,67	-0,2537	
56,52	1,112	791,05	799,52	-0,2557	
56,54	1,116	789,10	799,74	-0,2577	
56,56	1,120	785,84	799,83	-0,2597	
56,58	1,124	789,63	799,58	-0,2618	
56,60	1,128	790,95	799,64	-0,2639	
56,62	1,132	787,45	799,89	-0,2658	
56,64	1,136	789,25	799,77	-0,2676	
56,66	1,140	793,55	799,57	-0,2694	
56,68	1,144	790,31	799,68	-0,2714	
56,70	1,149	788,20	799,66	-0,2734	
56,72	1,152	792,27	799,51	-0,2755	
56,74	1,157	791,51	799,72	-0,2775	
56,76	1,161	788,07	799,87	-0,2795	
56,78	1,164	790,71	799,64	-0,2814	
56,80	1,168	792,99	799,60	-0,2834	
56,82	1,172	789,54	799,79	-0,2854	
56,84	1,176	789,92	799,66	-0,2873	
56,86	1,180	793,49	799,55	-0,2893	
56,88	1,184	790,66	799,80	-0,2914	
56,90	1,188	788,88	799,82	-0,2935	
56,92	1,192	793,17	799,57	-0,2954	
56,94	1,196	792,31	799,69	-0,2974	
56,96	1,200	787,99	799,89	-0,2992	
56,98	1,204	790,72	799,70	-0,3011	
57,00	1,208	793,28	799,60	-0,3030	
57,02	1,212	789,65	799,75	-0,3051	
57,04	1,216	789,83	799,64	-0,3073	
57,06	1,220	793,34	799,58	-0,3093	
57,08	1,224	790,46	799,87	-0,3112	
57,10	1,229	788,19	799,89	-0,3131	
57,12	1,232	792,69	799,61	-0,3149	
57,14	1,236	792,46	799,74	-0,3169	
57,16	1,241	788,96	799,91	-0,3189	
57,18	1,245	791,53	799,70	-0,3210	
57,20	1,249	793,38	799,64	-0,3230	
57,22	1,253	789,66	799,75	-0,3250	
57,24	1,257	789,95	799,60	-0,3268	
57,26	1,261	792,68	799,59	-0,3287	
57,28	1,265	789,62	799,82	-0,3306	
57,30	1,269	788,74	799,73	-0,3326	
57,32	1,272	792,18	799,57	-0,3348	
57,34	1,276	790,84	799,74	-0,3368	
57,36	1,280	789,55	799,73	-0,3387	
57,38	1,284	793,34	799,55	-0,3406	
57,40	1,288	792,37	799,71	-0,3425	
57,42	1,292	789,02	799,80	-0,3444	
57,44	1,296	792,33	799,58	-0,3463	
57,46	1,300	794,00	799,64	-0,3483	
57,48	1,304	790,33	799,85	-0,3504	
57,50	1,308	791,36	799,69	-0,3525	
57,52	1,312	794,42	799,58	-0,3545	
57,54	1,316	791,66	799,77	-0,3564	
57,56	1,320	790,99	799,70	-0,3582	
57,58	1,324	794,93	799,56	-0,3602	
57,60	1,329	792,79	799,73	-0,3622	
57,62	1,333	790,10	799,72	-0,3642	
57,64	1,336	793,44	799,53	-0,3663	
57,66	1,341	793,01	799,71	-0,3683	
57,68	1,345	789,49	799,86	-0,3701	
57,70	1,349	792,37	799,64	-0,3720	
57,72	1,353	793,92	799,63	-0,3739	
57,74	1,357	790,31	799,79	-0,3758	
57,76	1,360	791,42	799,62	-0,3778	
57,78	1,364	794,26	799,59	-0,3800	
57,80	1,368	790,75	799,86	-0,3820	
57,82	1,372	789,30	799,81	-0,3838	
57,84	1,376	793,76	799,60	-0,3857	
57,86	1,380	792,80	799,74	-0,3876	
57,88	1,384	790,38	799,76	-0,3895	
57,90	1,388	794,24	799,55	-0,3916	
57,92	1,392	793,70	799,72	-0,3937	
57,94	1,396	789,08	799,94	-0,3957	
57,96	1,400	790,75	799,71	-0,3977	
57,98	1,404	793,70	799,64	-0,3996	
58,00	1,408	790,22	799,87	-0,4014	
58,02	1,412	790,46	799,79	-0,4033	
58,04	1,416	794,45	799,58	-0,4053	
58,06	1,420	792,25	799,68	-0,4073	
58,08	1,425	789,25	799,67	-0,4093	
58,10	1,428	792,21	799,52	-0,4113	
58,12	1,433	791,34	799,74	-0,4133	
58,14	1,437	788,41	799,88	-0,4152	
58,16	1,441	791,41	799,64	-0,4169	
58,18	1,445	793,46	799,62	-0,4188	
58,20	1,449	790,21	799,84	-0,4209	
58,22	1,452	791,28	799,72	-0,4228	
58,24	1,456	794,66	799,56	-0,4249	
58,26	1,460	791,79	799,79	-0,4269	
58,28	1,464	789,44	799,84	-0,4288	
58,30	1,468	793,51	799,58	-0,4306	
58,32	1,472	793,54	799,70	-0,4325	
58,34	1,476	789,77	799,92	-0,4344	
58,36	1,480	792,84	799,73	-0,4364	
58,38	1,484	796,10	799,63	-0,4385	
58,40	1,488	791,94	799,78	-0,4405	
58,42	1,492	791,45	799,66	-0,4423	
58,44	1,496	794,89	799,60	-0,4443	
58,46	1,500	792,20	799,88	-0,4461	
58,48	1,504	789,84	799,88	-0,4480	
58,50	1,508	793,55	799,61	-0,4500	
58,52	1,512	793,22	799,74	-0,4521	
58,54	1,517	789,90	799,88	-0,4541	
58,56	1,520	793,55	799,65	-0,4560	
58,58	1,525	795,92	799,65	-0,4579	
58,60	1,529	791,11	799,89	-0,4597	
58,62	1,533	790,73	799,77	-0,4616	
58,64	1,537	794,55	799,59	-0,4635	
58,66	1,541	792,43	799,77	-0,4656	
58,68	1,545	790,01	799,78	-0,4676	
58,70	1,549	793,43	799,57	-0,4696	
58,72	1,553	792,49	799,75	-0,4716	
58,74	1,556	789,03	799,89	-0,4733	
58,76	1,560	792,21	799,66	-0,4751	
58,78	1,564	794,00	799,64	-0,4770	
58,80	1,568	790,46	799,79	-0,4791	
58,82	1,572	791,51	799,63	-0,4811	
58,84	1,576	794,41	799,60	-0,4832	
58,86	1,580	792,10	799,85	-0,4851	
58,88	1,584	791,75	799,77	-0,4869	
58,90	1,588	795,45	799,58	-0,4887	
58,92	1,592	793,06	799,76	-0,4907	
58,94	1,597	790,08	799,79	-0,4927	
58,96	1,600	793,42	799,57	-0,4947	
58,98	1,604	793,69	799,68	-0,4967	
59,00	1,609	790,38	799,82	-0,4986	
59,02	1,612	793,13	799,61	-0,5004	
59,04	1,617	794,92	799,62	-0,5022	
59,06	1,621	790,39	799,87	-0,5041	
59,08	1,625	790,44	799,76	-0,5060	
59,10	1,629	794,54	799,59	-0,5080	
59,12	1,633	792,50	799,80	-0,5101	
59,14	1,637	790,03	799,82	-0,5121	
59,16	1,641	794,17	799,59	-0,5141	
59,18	1,645	793,91	799,73	-0,5160	
59,20	1,649	789,80	799,88	-0,5178	
59,22	1,652	792,82	799,67	-0,5196	
59,24	1,656	795,59	799,65	-0,5216	
59,26	1,660	791,60	799,82	-0,5236	
59,28	1,664	792,28	799,66	-0,5256	
59,30	1,668	796,05	799,61	-0,5276	
59,32	1,672	793,33	799,86	-0,5294	
59,34	1,676	792,06	799,80	-0,5312	
59,36	1,680	795,96	799,58	-0,5331	
59,38	1,684	794,59	799,72	-0,5350	
59,40	1,688	791,13	799,77	-0,5371	
59,42	1,692	793,63	799,57	-0,5391	
59,44	1,696	793,63	799,71	-0,5410	
59,46	1,701	790,36	799,86	-0,5428	
59,48	1,704	793,27	799,63	-0,5446	
59,50	1,709	795,68	799,66	-0,5465	
59,52	1,713	791,58	799,88	-0,5485	
59,54	1,717	791,63	799,73	-0,5504	
59,56	1,721	794,50	799,60	-0,5525	
59,58	1,725	791,69	799,80	-0,5545	
59,60	1,729	790,16	799,75	-0,5562	
59,62	1,733	794,30	799,55	-0,5581	
59,64	1,737	792,63	799,74	-0,5600	
59,66	1,741	789,17	799,84	-0,5619	
59,68	1,745	792,72	799,61	-0,5639	
59,70	1,749	794,24	799,67	-0,5659	
59,72	1,752	790,92	799,84	-0,5679	
59,74	1,756	792,64	799,66	-0,5698	
59,76	1,760	795,56	799,59	-0,5717	
59,78	1,764	791,58	799,81	-0,5736	
59,80	1,768	790,28	799,73	-0,5754	
59,82	1,772	794,63	799,56	-0,5773	
59,84	1,776	792,91	799,78	-0,5792	
59,86	1,780	789,96	799,87	-0,5812	
59,88	1,784	793,89	799,63	-0,5832	
59,90	1,788	795,34	799,71	-0,5852	
59,92	1,793	791,56	799,85	-0,5870	
59,94	1,796	793,47	799,65	-0,5888	
59,96	1,800	796,08	799,60	-0,5907	
59,98	1,805	792,17	799,80	-0,5927	
60,00	1,809	791,20	799,68	-0,5946	
60,02	1,813	793,96	799,59	-0,5966	
60,04	1,817	791,55	799,90	-0,5986	
60,06	1,821	789,48	799,94	-0,6004	
60,08	1,825	793,42	799,66	-0,6022	
60,10	1,829	793,89	799,75	-0,6040	
60,12	1,832	790,98	799,87	-0,6059	
60,14	1,836	793,99	799,65	-0,6079	
60,16	1,840	795,34	799,65	-0,6100	
60,18	1,844	790,92	799,84	-0,6120	
60,20	1,848	791,38	799,68	-0,6138	
60,22	1,852	794,37	799,61	-0,6155	
60,24	1,856	791,18	799,86	-0,6174	
60,26	1,860	790,23	799,80	-0,6193	
60,28	1,864	795,06	799,61	-0,6214	
60,30	1,868	793,69	799,80	-0,6234	
60,32	1,872	790,51	799,85	-0,6253	
60,34	1,876	793,54	799,62	-0,6272	
60,36	1,880	793,73	799,71	-0,6290	
60,38	1,884	790,02	799,79	-0,6308	
60,40	1,888	791,88	799,58	-0,6326	
60,42	1,892	792,87	799,67	-0,6345	
60,44	1,896	789,24	799,89	-0,6365	
60,46	1,900	790,30	799,72	-0,6385	
60,48	1,904	794,04	799,58	-0,6405	
60,50	1,909	791,16	799,82	-0,6425	
60,52	1,913	790,22	799,81	-0,6442	
60,54	1,916	795,30	799,59	-0,6460	
60,56	1,921	794,69	799,72	-0,6480	
60,58	1,925	791,17	799,80	-0,6500	
60,60	1,928	794,19	799,58	-0,6519	
60,62	1,932	795,38	799,70	-0,6539	
60,64	1,936	790,98	799,97	-0,6559	
60,66	1,940	791,31	799,80	-0,6576	
60,68	1,944	794,52	799,61	-0,6593	
60,70	1,948	791,88	799,77	-0,6611	
60,72	1,952	790,85	799,72	-0,6631	
60,74	1,956	794,83	799,57	-0,6652	
60,76	1,960	793,03	799,77	-0,6672	
60,78	1,964	790,13	799,81	-0,6691	
60,80	1,968	793,42	799,58	-0,6709	
60,82	1,972	793,71	799,73	-0,6727	
60,84	1,976	790,34	799,93	-0,6746	
60,86	1,980	792,60	799,71	-0,6766	
60,88	1,984	794,98	799,62	-0,6785	
60,90	1,988	790,76	799,86	-0,6805	
60,92	1,992	790,45	799,79	-0,6824	
60,94	1,996	794,55	799,58	-0,6842	
60,96	2,001	792,66	799,73	-0,6861	
60,98	2,005	789,86	799,78	-0,6880	
61,00	2,008	793,32	799,56	-0,6898	
61,02	2,013	793,79	799,70	-0,6918	
61,04	2,017	790,29	799,88	-0,6937	
61,06	2,021	791,91	799,68	-0,6957	
61,08	2,024	794,21	799,64	-0,6976	
61,10	2,028	790,97	799,83	-0,6995	
61,12	2,032	791,55	799,70	-0,7012	
61,14	2,036	794,67	799,60	-0,7031	
61,16	2,040	791,96	799,86	-0,7050	
61,18	2,044	789,67	799,84	-0,7069	
61,20	2,048	793,33	799,59	-0,7089	
61,22	2,052	792,75	799,74	-0,7108	
61,24	2,056	789,16	799,88	-0,7127	
61,26	2,060	792,16	799,66	-0,7145	
61,28	2,064	794,19	799,65	-0,7164	
61,30	2,068	790,71	799,78	-0,7183	
61,32	2,072	791,52	799,61	-0,7202	
61,34	2,076	794,05	799,62	-0,7221	
61,36	2,080	790,57	799,92	-0,7241	
61,38	2,084	789,88	799,85	-0,7259	
61,40	2,088	794,61	799,58	-0,7278	
61,42	2,092	793,43	799,75	-0,7296	
61,44	2,097	789,62	799,91	-0,7315	
61,46	2,101	792,87	799,67	-0,7334	
61,48	2,105	794,77	799,64	-0,7353	
61,50	2,109	790,91	799,88	-0,7373	
61,52	2,113	791,38	799,77	-0,7392	
61,54	2,117	794,82	799,61	-0,7411	
61,56	2,120	792,19	799,81	-0,7430	
61,58	2,124	789,68	799,80	-0,7447	
61,60	2,128	793,37	799,57	-0,7465	
61,62	2,132	792,81	799,79	-0,7486	
61,64	2,136	789,15	799,99	-0,7505	
61,66	2,140	792,12	799,74	-0,7524	
61,68	2,144	795,08	799,61	-0,7542	
61,70	2,148	791,00	799,81	-0,7561	
61,72	2,152	790,64	799,72	-0,7579	
61,74	2,156	794,21	799,57	-0,7598	
61,76	2,160	791,92	799,76	-0,7617	
61,78	2,164	789,06	799,76	-0,7636	
61,80	2,168	792,73	799,55	-0,7655	
61,82	2,172	792,57	799,77	-0,7674	
61,84	2,176	789,16	799,96	-0,7693	
61,86	2,180	792,06	799,72	-0,7712	
61,88	2,184	794,08	799,65	-0,7730	
61,90	2,189	790,59	799,77	-0,7749	
61,92	2,192	791,44	799,62	-0,7768	
61,94	2,196	793,99	799,60	-0,7788	
61,96	2,201	790,53	799,83	-0,7808	
61,98	2,205	789,63	799,73	-0,7826	
62,00	2,209	792,94	799,57	-0,7844	
62,02	2,213	791,47	799,77	-0,7863	
62,04	2,217	789,71	799,80	-0,7881	
62,06	2,220	793,51	799,58	-0,7900	
62,08	2,224	793,58	799,71	-0,7919	
62,10	2,228	789,78	799,85	-0,7938	
62,12	2,232	792,23	799,63	-0,7956	
62,14	2,236	794,16	799,65	-0,7975	
62,16	2,240	790,72	799,89	-0,7993	
62,18	2,244	791,32	799,75	-0,8012	
62,20	2,248	794,68	799,59	-0,8031	
62,22	2,252	792,06	799,81	-0,8050	
62,24	2,256	789,58	799,83	-0,8069	
62,26	2,260	793,21	799,61	-0,8088	
62,28	2,264	792,80	799,76	-0,8107	
62,30	2,268	789,30	799,87	-0,8125	
62,32	2,272	792,24	799,63	-0,8143	
62,34	2,276	794,16	799,65	-0,8162	
62,36	2,281	790,65	799,80	-0,8181	
62,38	2,284	791,48	799,63	-0,8201	
62,40	2,288	793,94	799,62	-0,8220	
62,42	2,293	790,42	799,84	-0,8238	
62,44	2,297	789,86	799,72	-0,8255	
62,46	2,300	793,55	799,57	-0,8273	
62,48	2,304	791,74	799,79	-0,8292	
62,50	2,308	789,63	799,81	-0,8312	
62,52	2,312	793,23	799,60	-0,8331	
62,54	2,316	792,71	799,74	-0,8351	
62,56	2,320	789,12	799,81	-0,8369	
62,58	2,324	792,00	799,58	-0,8387	
62,60	2,328	793,35	799,67	-0,8406	
62,62	2,332	789,92	799,90	-0,8424	
62,64	2,336	790,98	799,74	-0,8443	
62,66	2,340	793,93	799,62	-0,8462	
62,68	2,344	790,44	799,85	-0,8482	
62,70	2,348	789,20	799,81	-0,8500	
62,72	2,352	793,16	799,58	-0,8519	
62,74	2,356	792,12	799,73	-0,8537	
62,76	2,360	788,55	799,84	-0,8555	
62,78	2,364	791,73	799,61	-0,8573	
62,80	2,368	792,98	799,70	-0,8593	
62,82	2,373	789,20	799,97	-0,8612	
62,84	2,376	790,48	799,83	-0,8631	
62,86	2,380	794,39	799,63	-0,8650	
62,88	2,385	791,35	799,81	-0,8669	
62,90	2,389	788,94	799,79	-0,8687	
62,92	2,393	793,06	799,58	-0,8705	
62,94	2,397	792,78	799,83	-0,8724	
62,96	2,401	788,97	800,04	-0,8742	
62,98	2,404	791,03	799,77	-0,8761	
63,00	2,408	793,46	799,69	-0,8780	
63,02	2,412	790,02	799,93	-0,8799	
63,04	2,416	790,22	799,84	-0,8816	
63,06	2,420	794,05	799,61	-0,8834	
63,08	2,424	791,21	799,76	-0,8853	
63,10	2,428	788,14	799,78	-0,8871	
63,12	2,432	791,78	799,58	-0,8890	
63,14	2,436	791,55	799,76	-0,8910	
63,16	2,440	788,44	799,92	-0,8929	
63,18	2,444	791,08	799,68	-0,8947	
63,20	2,448	793,44	799,68	-0,8965	
63,22	2,452	789,97	799,93	-0,8983	
63,24	2,456	790,22	799,80	-0,9001	
63,26	2,460	794,02	799,60	-0,9020	
63,28	2,464	791,28	799,76	-0,9040	
63,30	2,468	789,00	799,74	-0,9059	
63,32	2,472	792,50	799,55	-0,9078	
63,34	2,477	791,83	799,73	-0,9096	
63,36	2,481	788,45	799,85	-0,9113	
63,38	2,484	790,97	799,61	-0,9131	
63,40	2,489	792,67	799,65	-0,9151	
63,42	2,493	789,66	799,92	-0,9170	
63,44	2,496	790,81	799,79	-0,9189	
63,46	2,500	794,44	799,62	-0,9207	
63,48	2,504	791,28	799,83	-0,9226	
63,50	2,508	788,71	799,83	-0,9244	
63,52	2,512	792,42	799,58	-0,9262	
63,54	2,516	791,92	799,77	-0,9280	
63,56	2,520	788,42	800,02	-0,9299	
63,58	2,524	790,79	799,80	-0,9317	
63,60	2,528	793,65	799,67	-0,9337	
63,62	2,532	790,08	799,96	-0,9356	
63,64	2,536	789,29	799,94	-0,9373	
63,66	2,540	793,83	799,67	-0,9392	
63,68	2,544	792,57	799,84	-0,9411	
63,70	2,548	788,66	799,99	-0,9430	
63,72	2,552	791,60	799,73	-0,9448	
63,74	2,556	793,63	799,66	-0,9467	
63,76	2,561	789,34	799,84	-0,9485	
63,78	2,565	789,66	799,70	-0,9503	
63,80	2,568	792,71	799,57	-0,9521	
63,82	2,573	789,72	799,79	-0,9539	
63,84	2,577	787,63	799,76	-0,9558	
63,86	2,581	791,59	799,58	-0,9577	
63,88	2,585	790,94	799,77	-0,9597	
63,90	2,589	788,11	799,83	-0,9615	
63,92	2,592	791,58	799,61	-0,9633	
63,94	2,596	792,14	799,73	-0,9651	
63,96	2,600	788,51	799,90	-0,9669	
63,98	2,604	790,33	799,68	-0,9687	
64,00	2,608	792,54	799,66	-0,9705	
64,02	2,612	788,32	799,92	-0,9724	
64,04	2,616	788,34	799,81	-0,9743	
64,06	2,620	792,99	799,62	-0,9762	
64,08	2,624	791,07	799,79	-0,9781	
64,10	2,628	788,94	799,77	-0,9798	
64,12	2,632	792,50	799,59	-0,9816	
64,14	2,636	791,90	799,79	-0,9835	
64,16	2,640	788,60	799,92	-0,9854	
64,18	2,644	791,05	799,67	-0,9873	
64,20	2,648	792,28	799,66	-0,9892	
64,22	2,653	788,55	799,79	-0,9911	
64,24	2,656	789,81	799,62	-0,9929	
64,26	2,661	792,77	799,62	-0,9947	
64,28	2,665	789,90	799,90	-0,9965	
64,30	2,669	789,13	799,81	-0,9983	
64,32	2,673	792,64	799,59	-1,000	
64,34	2,677	790,21	799,80	-1,002	
64,36	2,681	786,70	799,90	-1,004	
64,38	2,685	790,48	799,65	-1,006	
64,40	2,689	791,26	799,70	-1,007	
64,42	2,693	786,92	799,91	-1,009	
64,44	2,696	788,14	799,74	-1,011	
64,46	2,700	791,54	799,63	-1,013	
64,48	2,704	788,25	799,86	-1,015	
64,50	2,708	786,84	799,81	-1,017	
64,52	2,712	791,12	799,61	-1,019	
64,54	2,716	790,16	799,76	-1,020	
64,56	2,720	787,66	799,77	-1,022	
64,58	2,724	790,98	799,58	-1,024	
64,60	2,728	791,14	799,75	-1,026	
64,62	2,732	787,96	799,89	-1,028	
64,64	2,736	790,12	799,65	-1,030	
64,66	2,740	791,76	799,63	-1,031	
64,68	2,745	787,70	799,80	-1,033	
64,70	2,748	787,86	799,65	-1,035	
64,72	2,752	790,79	799,61	-1,037	
64,74	2,757	787,91	799,85	-1,039	
64,76	2,761	786,76	799,78	-1,040	
64,78	2,765	790,62	799,59	-1,042	
64,80	2,769	789,22	799,81	-1,044	
64,82	2,773	786,42	799,88	-1,046	
64,84	2,776	789,80	799,63	-1,048	
64,86	2,780	790,21	799,74	-1,050	
64,88	2,784	786,32	799,97	-1,051	
64,90	2,788	788,43	799,77	-1,053	
64,92	2,792	791,97	799,64	-1,055	
64,94	2,796	788,31	799,95	-1,057	
64,96	2,800	786,35	799,98	-1,059	
64,98	2,804	790,87	799,67	-1,061	
65,00	2,808	790,80	799,80	-1,063	
65,02	2,812	786,41	800,02	-1,064	
65,04	2,816	788,45	799,80	-1,066	
65,06	2,820	791,55	799,70	-1,068	
65,08	2,824	787,53	800,02	-1,070	
65,10	2,828	785,96	799,99	-1,072	
65,12	2,832	790,39	799,67	-1,074	
65,14	2,836	789,38	799,78	-1,075	
65,16	2,841	785,74	799,93	-1,077	
65,18	2,844	788,99	799,70	-1,079	
65,20	2,849	791,10	799,64	-1,081	
65,22	2,853	786,92	799,81	-1,083	
65,24	2,857	786,75	799,67	-1,085	
65,26	2,861	789,90	799,62	-1,086	
65,28	2,865	786,95	799,91	-1,088	
65,30	2,869	785,02	799,87	-1,090	
65,32	2,873	788,80	799,61	-1,092	
65,34	2,877	788,44	799,72	-1,094	
65,36	2,881	785,64	799,79	-1,095	
65,38	2,885	789,08	799,59	-1,097	
65,40	2,888	789,31	799,72	-1,099	
65,42	2,892	785,26	799,92	-1,101	
65,44	2,896	786,92	799,70	-1,103	
65,46	2,900	790,41	799,67	-1,105	
65,48	2,904	787,28	799,96	-1,106	
65,50	2,908	786,13	799,89	-1,108	
65,52	2,912	790,41	799,62	-1,110	
65,54	2,916	789,23	799,82	-1,112	
65,56	2,920	785,63	799,98	-1,114	
65,58	2,924	788,87	799,72	-1,116	
65,60	2,928	790,59	799,68	-1,117	
65,62	2,933	786,49	799,87	-1,119	
65,64	2,936	787,15	799,71	-1,121	
65,66	2,940	790,40	799,61	-1,123	
65,68	2,945	787,15	799,86	-1,125	
65,70	2,949	785,00	799,81	-1,127	
65,72	2,953	788,88	799,61	-1,128	
65,74	2,957	787,89	799,89	-1,130	
65,76	2,961	784,50	800,07	-1,132	
65,78	2,965	786,93	799,78	-1,134	
65,80	2,969	788,84	799,72	-1,136	
65,82	2,972	784,83	799,94	-1,137	
65,84	2,976	785,46	799,80	-1,139	
65,86	2,980	789,13	799,65	-1,141	
65,88	2,984	786,43	799,86	-1,143	
65,90	2,988	784,23	799,85	-1,145	
65,92	2,992	788,29	799,61	-1,147	
65,94	2,996	788,45	799,72	-1,148	
65,96	3,000	785,40	799,78	-1,150	
65,98	3,004	788,33	799,57	-1,152	
66,00	3,008	788,90	799,72	-1,154	
66,02	3,013	785,19	799,96	-1,156	
66,04	3,016	786,75	799,76	-1,158	
66,06	3,020	789,78	799,62	-1,159	
66,08	3,025	786,02	799,89	-1,161	
66,10	3,029	784,73	799,88	-1,163	
66,12	3,032	788,60	799,64	-1,165	
66,14	3,037	787,18	799,82	-1,167	
66,16	3,041	783,57	799,95	-1,168	
66,18	3,045	786,43	799,69	-1,170	
66,20	3,049	788,10	799,66	-1,172	
66,22	3,053	784,86	799,81	-1,174	
66,24	3,057	786,09	799,64	-1,176	
66,26	3,061	789,21	799,63	-1,178	
66,28	3,065	786,45	799,92	-1,179	
66,30	3,068	785,48	799,85	-1,181	
66,32	3,072	789,06	799,62	-1,183	
66,34	3,076	787,27	799,80	-1,185	
66,36	3,080	784,52	799,85	-1,187	
66,38	3,084	788,17	799,62	-1,189	
66,40	3,088	788,30	799,74	-1,190	
66,42	3,092	784,74	799,86	-1,192	
66,44	3,096	786,63	799,64	-1,194	
66,46	3,100	788,30	799,67	-1,196	
66,48	3,104	784,32	799,88	-1,198	
66,50	3,108	784,37	799,71	-1,199	
66,52	3,112	787,52	799,63	-1,201	
66,54	3,117	785,10	799,90	-1,203	
66,56	3,121	784,09	799,86	-1,205	
66,58	3,124	787,51	799,62	-1,207	
66,60	3,129	786,02	799,74	-1,208	
66,62	3,133	783,17	799,76	-1,210	
66,64	3,137	786,24	799,57	-1,212	
66,66	3,141	786,00	799,77	-1,214	
66,68	3,145	782,95	799,94	-1,216	
66,70	3,149	785,62	799,70	-1,217	
66,72	3,153	787,69	799,65	-1,219	
66,74	3,157	784,05	799,88	-1,221	
66,76	3,161	784,26	799,77	-1,223	
66,78	3,165	787,84	799,59	-1,225	
66,80	3,168	785,50	799,79	-1,227	
66,82	3,172	782,74	799,82	-1,228	
66,84	3,176	785,80	799,59	-1,230	
66,86	3,180	785,31	799,71	-1,232	
66,88	3,184	781,86	799,86	-1,234	
66,90	3,188	784,82	799,64	-1,236	
66,92	3,192	787,27	799,68	-1,237	
66,94	3,196	783,96	799,89	-1,239	
66,96	3,200	784,24	799,73	-1,241	
66,98	3,204	787,52	799,60	-1,243	
67,00	3,208	784,70	799,83	-1,245	
67,02	3,213	783,13	799,80	-1,247	
67,04	3,216	787,04	799,61	-1,248	
67,06	3,221	785,87	799,88	-1,250	
67,08	3,225	782,09	800,03	-1,252	
67,10	3,228	784,93	799,74	-1,254	
67,12	3,233	787,15	799,68	-1,256	
67,14	3,237	783,32	799,88	-1,257	
67,16	3,241	783,83	799,74	-1,259	
67,18	3,245	786,41	799,63	-1,261	
67,20	3,249	783,29	799,81	-1,263	
67,22	3,252	782,07	799,72	-1,265	
67,24	3,257	785,92	799,60	-1,266	
67,26	3,261	784,17	799,93	-1,268	
67,28	3,264	781,94	800,04	-1,270	
67,30	3,268	786,07	799,72	-1,272	
67,32	3,272	787,07	799,76	-1,274	
67,34	3,276	782,99	800,04	-1,276	
67,36	3,280	784,03	799,88	-1,278	
67,38	3,284	787,23	799,65	-1,280	
67,40	3,288	784,25	799,82	-1,281	
67,42	3,292	781,84	799,82	-1,283	
67,44	3,296	785,52	799,58	-1,285	
67,46	3,300	785,26	799,71	-1,287	
67,48	3,305	781,69	799,87	-1,288	
67,50	3,308	783,90	799,65	-1,290	
67,52	3,312	785,58	799,68	-1,292	
67,54	3,317	781,85	799,95	-1,294	
67,56	3,321	781,93	799,82	-1,296	
67,58	3,325	785,89	799,67	-1,297	
67,60	3,329	783,64	799,86	-1,299	
67,62	3,333	781,81	799,80	-1,301	
67,64	3,337	785,24	799,58	-1,303	
67,66	3,341	784,51	799,76	-1,305	
67,68	3,345	781,49	799,89	-1,306	
67,70	3,349	784,72	799,65	-1,308	
67,72	3,353	786,28	799,69	-1,310	
67,74	3,357	782,51	799,88	-1,312	
67,76	3,361	783,51	799,70	-1,314	
67,78	3,364	786,30	799,65	-1,315	
67,80	3,368	783,25	799,93	-1,317	
67,82	3,372	782,14	799,85	-1,319	
67,84	3,376	785,73	799,64	-1,321	
67,86	3,380	783,65	799,87	-1,323	
67,88	3,384	780,35	799,96	-1,324	
67,90	3,388	784,36	799,69	-1,326	
67,92	3,392	785,13	799,76	-1,328	
67,94	3,397	780,91	799,97	-1,330	
67,96	3,400	782,18	799,77	-1,331	
67,98	3,404	785,06	799,64	-1,333	
68,00	3,409	781,60	799,85	-1,335	
68,02	3,413	781,06	799,78	-1,337	
68,04	3,416	784,30	799,61	-1,339	
68,06	3,421	782,16	799,80	-1,340	
68,08	3,425	779,47	799,80	-1,342	
68,10	3,429	782,92	799,58	-1,344	
68,12	3,433	782,95	799,78	-1,346	
68,14	3,437	779,80	799,96	-1,348	
68,16	3,441	782,29	799,72	-1,349	
68,18	3,444	784,35	799,66	-1,351	
68,20	3,448	780,77	799,81	-1,353	
68,22	3,452	781,24	799,66	-1,355	
68,24	3,456	784,91	799,62	-1,357	
68,26	3,460	782,30	799,91	-1,358	
68,28	3,464	780,79	799,86	-1,360	
68,30	3,468	784,16	799,64	-1,362	
68,32	3,472	782,79	799,84	-1,364	
68,34	3,476	779,77	799,91	-1,366	
68,36	3,480	782,84	799,67	-1,367	
68,38	3,484	783,74	799,76	-1,369	
68,40	3,489	780,38	799,92	-1,371	
68,42	3,492	782,07	799,70	-1,373	
68,44	3,496	784,10	799,66	-1,374	
68,46	3,501	780,67	799,84	-1,376	
68,48	3,505	780,88	799,69	-1,378	
68,50	3,509	783,83	799,65	-1,380	
68,52	3,513	780,56	799,97	-1,382	
68,54	3,517	778,18	799,96	-1,383	
68,56	3,521	782,44	799,67	-1,385	
68,58	3,525	782,77	799,86	-1,387	
68,60	3,529	779,31	800,07	-1,389	
68,62	3,533	782,19	799,81	-1,390	
68,64	3,537	785,35	799,71	-1,392	
68,66	3,541	781,30	799,98	-1,394	
68,68	3,544	780,06	799,92	-1,396	
68,70	3,548	784,14	799,67	-1,398	
68,72	3,552	782,89	799,80	-1,400	
68,74	3,556	779,88	799,82	-1,401	
68,76	3,560	782,85	799,60	-1,403	
68,78	3,564	782,73	799,75	-1,405	
68,80	3,568	778,86	799,88	-1,407	
68,82	3,572	780,68	799,65	-1,408	
68,84	3,576	782,17	799,69	-1,410	
68,86	3,580	778,89	799,91	-1,412	
68,88	3,584	780,06	799,74	-1,414	
68,90	3,588	783,66	799,63	-1,415	
68,92	3,593	780,71	799,83	-1,417	
68,94	3,597	779,45	799,74	-1,419	
68,96	3,600	783,13	799,58	-1,421	
68,98	3,605	781,05	799,86	-1,423	
69,00	3,609	777,78	799,96	-1,424	
69,02	3,613	781,66	799,69	-1,426	
69,04	3,617	783,28	799,74	-1,428	
69,06	3,621	779,68	799,94	-1,430	
69,08	3,625	781,56	799,75	-1,432	
69,10	3,629	784,09	799,66	-1,433	
69,12	3,633	780,27	799,90	-1,435	
69,14	3,637	779,04	799,82	-1,437	
69,16	3,640	782,93	799,64	-1,439	
69,18	3,644	781,07	799,83	-1,440	
69,20	3,648	778,60	799,83	-1,442	
69,22	3,652	782,00	799,62	-1,444	
69,24	3,656	781,86	799,80	-1,446	
69,26	3,660	778,60	799,92	-1,448	
69,28	3,664	781,42	799,67	-1,449	
69,30	3,668	782,96	799,76	-1,451	
69,32	3,672	779,15	800,04	-1,453	
69,34	3,676	779,84	799,87	-1,454	
69,36	3,680	783,11	799,66	-1,456	
69,38	3,685	779,81	799,89	-1,458	
69,40	3,689	777,18	799,91	-1,460	
69,42	3,693	780,89	799,66	-1,462	
69,44	3,697	780,58	799,86	-1,464	
69,46	3,701	777,56	800,03	-1,465	
69,48	3,705	779,96	799,76	-1,467	
69,50	3,709	782,20	799,72	-1,469	
69,52	3,713	778,16	800,03	-1,470	
69,54	3,717	777,38	799,94	-1,472	
69,56	3,721	781,32	799,67	-1,474	
69,58	3,725	779,74	799,83	-1,476	
69,60	3,729	776,74	799,89	-1,478	
69,62	3,733	780,34	799,65	-1,479	
69,64	3,736	781,18	799,76	-1,481	
69,66	3,740	778,01	799,94	-1,483	
69,68	3,744	779,48	799,73	-1,485	
69,70	3,748	781,21	799,65	-1,486	
69,72	3,752	777,51	799,86	-1,488	
69,74	3,756	777,33	799,75	-1,490	
69,76	3,760	780,83	799,63	-1,492	
69,78	3,764	778,21	799,90	-1,494	
69,80	3,768	775,90	799,90	-1,495	
69,82	3,772	779,72	799,63	-1,497	
69,84	3,776	779,72	799,78	-1,499	
69,86	3,781	775,99	799,97	-1,501	
69,88	3,785	778,74	799,74	-1,502	
69,90	3,789	781,20	799,70	-1,504	
69,92	3,793	777,58	799,93	-1,506	
69,94	3,797	777,40	799,80	-1,508	
69,96	3,801	780,82	799,66	-1,509	
69,98	3,805	779,16	799,87	-1,511	
70,00	3,809	777,34	799,84	-1,513	
70,02	3,813	780,44	799,62	-1,515	
70,04	3,817	779,39	799,77	-1,517	
70,06	3,821	776,40	799,85	-1,518	
70,08	3,825	779,54	799,61	-1,520	
70,10	3,829	780,35	799,77	-1,522	
70,12	3,833	776,09	800,03	-1,524	
70,14	3,836	776,67	799,82	-1,525	
70,16	3,840	780,43	799,69	-1,527	
70,18	3,844	777,47	800,07	-1,529	
70,20	3,848	775,31	800,14	-1,531	
70,22	3,852	778,63	799,76	-1,532	
70,24	3,856	779,19	799,79	-1,534	
70,26	3,860	775,06	800,14	-1,536	
70,28	3,864	776,25	800,02	-1,538	
70,30	3,868	780,85	799,69	-1,539	
70,32	3,872	778,86	799,96	-1,541	
70,34	3,877	775,55	800,23	-1,543	
70,36	3,881	778,57	799,95	-1,545	
70,38	3,884	781,00	799,74	-1,546	
70,40	3,889	777,05	800,07	-1,548	
70,42	3,893	775,79	800,15	-1,550	
70,44	3,897	779,43	799,78	-1,552	
70,46	3,901	779,55	799,85	-1,553	
70,48	3,905	774,81	800,25	-1,555	
70,50	3,909	775,05	800,14	-1,557	
70,52	3,913	779,47	799,73	-1,559	
70,54	3,916	777,93	799,86	-1,561	
70,56	3,920	773,90	800,14	-1,562	
70,58	3,924	776,67	799,92	-1,564	
70,60	3,928	779,88	799,70	-1,566	
70,62	3,932	776,50	799,95	-1,568	
70,64	3,936	774,42	799,94	-1,569	
70,66	3,940	778,18	799,67	-1,571	
70,68	3,944	777,65	799,79	-1,573	
70,70	3,948	774,45	799,92	-1,575	
70,72	3,952	776,81	799,67	-1,576	
70,74	3,956	778,36	799,66	-1,578	
70,76	3,961	774,99	799,87	-1,580	
70,78	3,964	775,67	799,72	-1,582	
70,80	3,968	779,25	799,62	-1,583	
70,82	3,973	775,73	799,98	-1,585	
70,84	3,977	773,00	800,05	-1,587	
70,86	3,981	777,26	799,71	-1,589	
70,88	3,985	777,86	799,85	-1,590	
70,90	3,989	773,62	800,23	-1,592	
70,92	3,993	775,25	800,08	-1,594	
70,94	3,997	779,63	799,71	-1,595	
70,96	4,001	777,29	799,89	-1,597	
70,98	4,005	774,15	800,10	-1,599	
71,00	4,009	777,38	799,82	-1,601	
71,02	4,013	779,13	799,70	-1,602	
71,04	4,017	774,33	800,06	-1,604	
71,06	4,020	772,86	800,09	-1,606	
71,08	4,024	777,32	799,74	-1,608	
71,10	4,028	776,56	799,76	-1,609	
71,12	4,032	772,41	799,93	-1,611	
71,14	4,036	775,15	799,72	-1,613	
71,16	4,040	777,90	799,67	-1,615	
71,18	4,044	773,95	799,97	-1,617	
71,20	4,049	772,90	799,91	-1,618	
71,22	4,052	777,39	799,67	-1,620	
71,24	4,057	775,73	799,97	-1,622	
71,26	4,061	772,25	800,18	-1,623	
71,28	4,064	775,55	799,86	-1,625	
71,30	4,068	778,92	799,76	-1,627	
71,32	4,073	774,82	800,17	-1,629	
71,34	4,077	773,02	800,21	-1,631	
71,36	4,081	776,78	799,80	-1,632	
71,38	4,085	776,74	799,85	-1,634	
71,40	4,089	772,84	800,24	-1,636	
71,42	4,093	773,87	800,14	-1,638	
71,44	4,097	777,32	799,73	-1,639	
71,46	4,101	775,40	799,92	-1,641	
71,48	4,105	771,01	800,28	-1,643	
71,50	4,109	773,05	800,09	-1,644	
71,52	4,112	777,15	799,73	-1,646	
71,54	4,116	774,75	800,04	-1,648	
71,56	4,120	771,68	800,35	-1,650	
71,58	4,124	774,42	800,06	-1,651	
71,60	4,128	777,29	799,75	-1,653	
71,62	4,132	773,30	800,04	-1,655	
71,64	4,136	771,16	800,15	-1,657	
71,66	4,140	775,20	799,79	-1,659	
71,68	4,144	776,78	799,84	-1,661	
71,70	4,149	771,88	800,35	-1,662	
71,72	4,153	771,03	800,38	-1,664	
71,74	4,156	775,44	799,91	-1,666	
71,76	4,160	776,00	799,80	-1,668	
71,78	4,165	771,04	800,13	-1,669	
71,80	4,169	771,83	800,08	-1,671	
71,82	4,173	776,38	799,73	-1,673	
71,84	4,177	774,60	799,99	-1,674	
71,86	4,181	769,52	800,35	-1,676	
71,88	4,185	771,37	800,13	-1,678	
71,90	4,189	776,04	799,74	-1,680	
71,92	4,193	773,29	800,06	-1,681	
71,94	4,197	770,54	800,42	-1,683	
71,96	4,201	773,57	800,16	-1,685	
71,98	4,205	775,97	799,76	-1,687	
72,00	4,208	772,35	800,05	-1,688	
72,02	4,212	770,16	800,34	-1,690	
72,04	4,216	773,69	800,04	-1,692	
72,06	4,220	775,96	799,73	-1,693	
72,08	4,224	772,28	800,06	-1,695	
72,10	4,228	770,23	800,25	-1,697	
72,12	4,232	773,99	799,90	-1,699	
72,14	4,236	775,38	799,74	-1,700	
72,16	4,240	770,93	800,15	-1,702	
72,18	4,245	770,05	800,24	-1,704	
72,20	4,248	773,89	799,84	-1,706	
72,22	4,252	774,31	799,82	-1,707	
72,24	4,257	770,35	800,19	-1,709	
72,26	4,261	771,77	800,13	-1,711	
72,28	4,264	776,16	799,73	-1,712	
72,30	4,269	774,00	799,93	-1,714	
72,32	4,273	769,13	800,29	-1,716	
72,34	4,277	770,96	800,10	-1,718	
72,36	4,281	774,62	799,72	-1,719	
72,38	4,285	771,79	799,98	-1,721	
72,40	4,289	768,53	800,25	-1,723	
72,42	4,293	771,25	799,97	-1,725	
72,44	4,297	774,16	799,72	-1,726	
72,46	4,301	771,04	800,13	-1,728	
72,48	4,305	769,33	800,32	-1,730	
72,50	4,309	772,36	799,96	-1,732	
72,52	4,312	774,02	799,74	-1,733	
72,54	4,316	770,38	800,05	-1,735	
72,56	4,320	769,95	800,09	-1,737	
72,58	4,324	773,90	799,73	-1,738	
72,60	4,328	772,90	799,83	-1,740	
72,62	4,332	768,90	800,15	-1,742	
72,64	4,336	771,42	799,97	-1,744	
72,66	4,340	775,62	799,70	-1,745	
72,68	4,345	772,72	800,08	-1,747	
72,70	4,349	769,46	800,35	-1,749	
72,72	4,353	772,26	800,02	-1,751	
72,74	4,356	774,89	799,75	-1,752	
72,76	4,361	771,30	800,15	-1,754	
72,78	4,365	769,39	800,35	-1,756	
72,80	4,369	772,46	799,98	-1,757	
72,82	4,373	773,86	799,76	-1,759	
72,84	4,377	769,15	800,08	-1,761	
72,86	4,381	768,47	800,10	-1,763	
72,88	4,385	772,61	799,74	-1,764	
72,90	4,389	771,91	799,90	-1,766	
72,92	4,392	766,99	800,29	-1,768	
72,94	4,396	768,36	800,14	-1,770	
72,96	4,400	773,10	799,75	-1,771	
72,98	4,404	771,36	800,01	-1,773	
73,00	4,408	767,69	800,34	-1,775	
73,02	4,412	770,19	800,08	-1,777	
73,04	4,416	773,75	799,71	-1,778	
73,06	4,420	770,13	799,98	-1,780	
73,08	4,424	767,13	800,20	-1,782	
73,10	4,428	770,82	799,88	-1,784	
73,12	4,432	772,69	799,77	-1,785	
73,14	4,437	767,80	800,23	-1,787	
73,16	4,441	765,98	800,32	-1,789	
73,18	4,444	769,79	799,89	-1,790	
73,20	4,448	770,83	799,80	-1,792	
73,22	4,453	766,68	800,23	-1,794	
73,24	4,457	766,61	800,24	-1,796	
73,26	4,461	770,04	799,80	-1,797	
73,28	4,465	769,89	799,83	-1,799	
73,30	4,469	766,03	800,26	-1,801	
73,32	4,473	767,01	800,21	-1,802	
73,34	4,477	770,57	799,77	-1,804	
73,36	4,481	769,35	799,89	-1,806	
73,38	4,485	765,36	800,27	-1,808	
73,40	4,489	766,91	800,12	-1,809	
73,42	4,492	770,64	799,75	-1,811	
73,44	4,497	768,26	800,05	-1,813	
73,46	4,501	764,52	800,38	-1,815	
73,48	4,505	766,95	800,10	-1,816	
73,50	4,508	770,45	799,76	-1,818	
73,52	4,512	767,48	800,09	-1,820	
73,54	4,516	764,65	800,31	-1,821	
73,56	4,520	767,81	799,98	-1,823	
73,58	4,524	770,48	799,77	-1,825	
73,60	4,528	766,37	800,21	-1,827	
73,62	4,533	764,92	800,38	-1,828	
73,64	4,536	768,75	799,98	-1,830	
73,66	4,540	770,95	799,76	-1,832	
73,68	4,545	766,75	800,26	-1,833	
73,70	4,549	765,70	800,47	-1,835	
73,72	4,553	768,88	800,07	-1,837	
73,74	4,556	769,67	799,75	-1,839	
73,76	4,561	765,50	800,06	-1,840	
73,78	4,565	765,14	800,15	-1,842	
73,80	4,569	769,20	799,79	-1,844	
73,82	4,573	769,75	799,78	-1,845	
73,84	4,577	764,93	800,20	-1,847	
73,86	4,581	764,80	800,17	-1,849	
73,88	4,584	769,00	799,75	-1,850	
73,90	4,588	767,98	799,89	-1,852	
73,92	4,592	763,19	800,29	-1,854	
73,94	4,596	764,70	800,14	-1,856	
73,96	4,600	769,63	799,75	-1,857	
73,98	4,604	768,11	800,01	-1,859	
74,00	4,608	764,37	800,34	-1,861	
74,02	4,612	766,76	800,09	-1,863	
74,04	4,616	770,28	799,73	-1,864	
74,06	4,620	766,75	800,02	-1,866	
74,08	4,624	763,79	800,25	-1,868	
74,10	4,628	767,36	799,92	-1,869	
74,12	4,632	769,95	799,74	-1,871	
74,14	4,636	765,34	800,22	-1,873	
74,16	4,640	763,54	800,41	-1,875	
74,18	4,644	767,35	800,01	-1,876	
74,20	4,648	768,80	799,77	-1,878	
74,22	4,653	764,53	800,18	-1,880	
74,24	4,657	763,90	800,32	-1,881	
74,26	4,661	767,27	799,92	-1,883	
74,28	4,665	767,79	799,79	-1,885	
74,30	4,669	763,36	800,23	-1,887	
74,32	4,673	763,35	800,30	-1,888	
74,34	4,676	767,28	799,86	-1,890	
74,36	4,680	767,74	799,77	-1,891	
74,38	4,684	763,59	800,15	-1,893	
74,40	4,688	764,86	800,12	-1,895	
74,42	4,692	769,34	799,73	-1,897	
74,44	4,696	767,35	799,93	-1,898	
74,46	4,700	762,34	800,34	-1,900	
74,48	4,704	764,30	800,18	-1,902	
74,50	4,708	768,67	799,75	-1,903	
74,52	4,712	766,09	799,98	-1,905	
74,54	4,716	762,68	800,32	-1,907	
74,56	4,720	764,68	800,09	-1,909	
74,58	4,724	767,78	799,71	-1,910	
74,60	4,728	765,25	799,99	-1,912	
74,62	4,733	762,46	800,24	-1,914	
74,64	4,736	765,04	799,94	-1,915	
74,66	4,740	767,26	799,73	-1,917	
74,68	4,745	763,64	800,11	-1,919	
74,70	4,749	762,17	800,22	-1,920	
74,72	4,752	765,73	799,83	-1,922	
74,74	4,756	766,97	799,82	-1,924	
74,76	4,761	762,49	800,30	-1,926	
74,78	4,765	762,29	800,33	-1,927	
74,80	4,769	766,23	799,87	-1,929	
74,82	4,773	766,19	799,90	-1,931	
74,84	4,777	761,23	800,41	-1,932	
74,86	4,780	762,39	800,42	-1,934	
74,88	4,784	766,63	799,92	-1,936	
74,90	4,788	767,24	799,86	-1,937	
74,92	4,792	761,91	800,48	-1,939	
74,94	4,796	761,57	800,67	-1,941	
74,96	4,800	763,97	800,21	-1,942	
74,98	4,804	765,44	799,76	-1,944	
75,00	4,808	762,84	800,23	-1,946	
75,02	4,812	761,91	800,70	-1,948	
75,04	4,816	763,28	800,47	-1,950	
75,06	4,820	764,83	799,88	-1,951	
75,08	4,824	764,24	799,86	-1,953	
75,10	4,828	761,93	800,39	-1,955	
75,12	4,832	762,65	800,45	-1,956	
75,14	4,836	764,46	799,96	-1,958	
75,16	4,840	764,66	799,79	-1,960	
75,18	4,845	760,97	800,37	-1,962	
75,20	4,849	760,93	800,61	-1,963	
75,22	4,853	763,30	800,20	-1,965	
75,24	4,856	765,02	799,74	-1,966	
75,26	4,860	762,48	799,99	-1,968	
75,28	4,864	761,49	800,21	-1,970	
75,30	4,868	764,67	799,90	-1,972	
75,32	4,872	766,06	799,72	-1,973	
75,34	4,876	761,55	800,10	-1,975	
75,36	4,880	760,62	800,21	-1,977	
75,38	4,884	765,08	799,81	-1,978	
75,40	4,888	765,86	799,81	-1,980	
75,42	4,892	760,92	800,29	-1,982	
75,44	4,896	761,44	800,30	-1,983	
75,46	4,900	765,10	799,84	-1,985	
75,48	4,904	764,80	799,82	-1,987	
75,50	4,908	760,29	800,27	-1,989	
75,52	4,912	761,08	800,27	-1,990	
75,54	4,916	764,49	799,82	-1,992	
75,56	4,920	763,57	799,88	-1,993	
75,58	4,924	759,33	800,27	-1,995	
75,60	4,928	760,25	800,14	-1,997	
75,62	4,932	763,80	799,74	-1,999	
75,64	4,936	761,90	799,91	-2,000	
75,66	4,941	758,51	800,18	-2,002	
75,68	4,945	761,36	799,93	-2,004	
75,70	4,948	764,60	799,70	-2,005	
75,72	4,953	761,34	800,19	-2,007	
75,74	4,957	759,26	800,49	-2,009	
75,76	4,961	761,92	800,14	-2,010	
75,78	4,965	764,69	799,74	-2,012	
75,80	4,969	762,22	800,12	-2,014	
75,82	4,973	760,40	800,47	-2,015	
75,84	4,976	762,35	800,19	-2,017	
75,86	4,980	764,43	799,75	-2,019	
75,88	4,984	760,33	800,09	-2,020	
75,90	4,988	757,02	800,49	-2,022	
75,92	4,992	760,20	800,27	-2,024	
75,94	4,996	764,19	799,77	-2,025	
75,96	5,000	761,88	800,02	-2,027	
75,98	5,004	758,27	800,54	-2,029	
76,00	5,008	760,27	800,44	-2,030	
76,02	5,012	762,41	799,89	-2,032	
76,04	5,016	761,39	799,88	-2,034	
76,06	5,020	757,36	800,53	-2,036	
76,08	5,025	757,72	800,70	-2,037	
76,10	5,028	760,08	800,23	-2,039	
76,12	5,032	761,77	799,77	-2,040	
76,14	5,037	759,50	800,06	-2,042	
76,16	5,041	758,66	800,34	-2,044	
76,18	5,045	760,25	800,03	-2,045	
76,20	5,048	761,80	799,74	-2,047	
76,22	5,053	758,59	800,35	-2,049	
76,24	5,056	756,21	800,83	-2,051	
76,26	5,060	758,42	800,57	-2,052	
76,28	5,064	761,06	799,94	-2,054	
76,30	5,068	760,38	799,83	-2,056	
76,32	5,072	757,88	800,29	-2,057	
76,34	5,076	758,93	800,33	-2,059	
76,36	5,080	761,11	799,87	-2,061	
76,38	5,084	760,75	799,85	-2,062	
76,40	5,088	756,74	800,28	-2,064	
76,42	5,092	757,91	800,25	-2,066	
76,44	5,096	761,79	799,80	-2,067	
76,46	5,100	760,68	799,92	-2,069	
76,48	5,104	756,11	800,43	-2,071	
76,50	5,108	756,79	800,39	-2,072	
76,52	5,112	760,24	799,89	-2,074	
76,54	5,116	759,99	799,81	-2,076	
76,56	5,121	756,53	800,14	-2,077	
76,58	5,125	758,03	800,05	-2,079	
76,60	5,128	761,30	799,70	-2,081	
76,62	5,133	758,81	800,07	-2,083	
76,64	5,137	755,11	800,53	-2,084	
76,66	5,141	756,99	800,33	-2,086	
76,68	5,145	760,64	799,80	-2,087	
76,70	5,149	759,11	799,93	-2,089	
76,72	5,153	755,51	800,36	-2,091	
76,74	5,156	757,31	800,24	-2,092	
76,76	5,160	760,79	799,77	-2,094	
76,78	5,164	759,35	799,96	-2,096	
76,80	5,168	755,73	800,41	-2,097	
76,82	5,172	757,14	800,29	-2,099	
76,84	5,176	760,57	799,80	-2,101	
76,86	5,180	759,17	799,92	-2,102	
76,88	5,184	755,04	800,38	-2,104	
76,90	5,188	756,68	800,30	-2,106	
76,92	5,192	760,49	799,82	-2,107	
76,94	5,196	759,15	799,94	-2,109	
76,96	5,200	755,06	800,40	-2,111	
76,98	5,204	756,64	800,30	-2,112	
77,00	5,208	760,38	799,82	-2,114	
77,02	5,212	759,10	799,91	-2,116	
77,04	5,217	754,97	800,35	-2,117	
77,06	5,221	756,63	800,25	-2,119	
77,08	5,224	760,50	799,79	-2,120	
77,10	5,228	759,16	799,95	-2,122	
77,12	5,233	755,16	800,40	-2,124	
77,14	5,237	756,83	800,27	-2,125	
77,16	5,241	760,61	799,80	-2,127	
77,18	5,245	758,63	799,94	-2,129	
77,20	5,249	754,42	800,32	-2,131	
77,22	5,252	756,45	800,16	-2,132	
77,24	5,256	760,51	799,74	-2,134	
77,26	5,260	758,40	800,08	-2,135	
77,28	5,264	754,27	800,58	-2,137	
77,30	5,268	756,09	800,43	-2,139	
77,32	5,272	758,70	799,87	-2,140	
77,34	5,276	757,87	799,91	-2,142	
77,36	5,280	754,58	800,50	-2,144	
77,38	5,284	755,12	800,56	-2,145	
77,40	5,288	757,26	800,05	-2,147	
77,42	5,292	757,87	799,77	-2,149	
77,44	5,296	754,32	800,21	-2,150	
77,46	5,300	754,14	800,40	-2,152	
77,48	5,304	756,73	800,00	-2,154	
77,50	5,308	757,77	799,80	-2,155	
77,52	5,313	754,10	800,29	-2,157	
77,54	5,317	753,38	800,49	-2,159	
77,56	5,321	756,05	800,08	-2,160	
77,58	5,324	757,98	799,76	-2,162	
77,60	5,329	754,39	800,30	-2,164	
77,62	5,333	753,12	800,69	-2,165	
77,64	5,337	755,67	800,37	-2,167	
77,66	5,341	758,19	799,81	-2,168	
77,68	5,344	756,29	800,00	-2,170	
77,70	5,348	753,06	800,55	-2,172	
77,72	5,352	754,57	800,49	-2,173	
77,74	5,356	757,43	799,94	-2,175	
77,76	5,360	757,34	799,84	-2,177	
77,78	5,364	753,31	800,36	-2,178	
77,80	5,368	753,92	800,46	-2,180	
77,82	5,372	756,84	799,99	-2,182	
77,84	5,376	757,60	799,79	-2,183	
77,86	5,380	752,68	800,36	-2,185	
77,88	5,384	751,80	800,62	-2,187	
77,90	5,388	753,88	800,22	-2,188	
77,92	5,392	755,33	799,76	-2,190	
77,94	5,396	752,52	800,19	-2,192	
77,96	5,401	751,24	800,66	-2,193	
77,98	5,405	753,47	800,44	-2,195	
78,00	5,408	755,29	799,86	-2,196	
78,02	5,412	754,39	799,92	-2,198	
78,04	5,417	752,10	800,47	-2,200	
78,06	5,421	753,92	800,50	-2,201	
78,08	5,425	755,66	799,98	-2,203	
78,10	5,429	755,12	799,82	-2,205	
78,12	5,433	751,61	800,44	-2,206	
78,14	5,437	751,56	800,70	-2,208	
78,16	5,441	753,53	800,28	-2,209	
78,18	5,444	755,13	799,80	-2,211	
78,20	5,448	752,56	800,17	-2,213	
78,22	5,452	750,98	800,63	-2,214	
78,24	5,456	752,63	800,41	-2,216	
78,26	5,460	754,71	799,84	-2,217	
78,28	5,464	753,32	800,01	-2,219	
78,30	5,468	750,28	800,70	-2,221	
78,32	5,472	751,77	800,77	-2,223	
78,34	5,476	753,98	800,22	-2,224	
78,36	5,480	755,39	799,75	-2,226	
78,38	5,484	752,98	800,16	-2,228	
78,40	5,488	751,99	800,60	-2,229	
78,42	5,492	753,36	800,36	-2,231	
78,44	5,496	755,05	799,81	-2,232	
78,46	5,500	752,72	800,14	-2,234	
78,48	5,505	748,90	800,92	-2,236	
78,50	5,509	750,60	800,97	-2,237	
78,52	5,513	752,60	800,41	-2,239	
78,54	5,516	752,88	799,80	-2,240	
78,56	5,521	751,70	800,05	-2,242	
78,58	5,525	750,80	800,66	-2,244	
78,60	5,528	750,91	800,62	-2,245	
78,62	5,532	751,38	800,05	-2,247	
78,64	5,536	751,32	799,77	-2,249	
78,66	5,540	748,85	800,29	-2,250	
78,68	5,544	749,79	800,54	-2,252	
78,70	5,548	752,91	800,15	-2,253	
78,72	5,552	754,80	799,76	-2,255	
78,74	5,556	750,99	800,17	-2,257	
78,76	5,560	749,11	800,51	-2,258	
78,78	5,564	751,89	800,19	-2,260	
78,80	5,568	754,53	799,77	-2,262	
78,82	5,572	750,89	800,15	-2,264	
78,84	5,576	748,42	800,56	-2,265	
78,86	5,580	751,31	800,31	-2,267	
78,88	5,584	754,31	799,82	-2,268	
78,90	5,588	751,28	800,03	-2,270	
78,92	5,593	747,76	800,43	-2,272	
78,94	5,597	750,07	800,24	-2,273	
78,96	5,600	752,60	799,77	-2,275	
78,98	5,604	750,01	800,09	-2,277	
79,00	5,609	747,01	800,68	-2,278	
79,02	5,613	748,60	800,59	-2,280	
79,04	5,617	750,98	800,00	-2,281	
79,06	5,620	751,20	799,85	-2,283	
79,08	5,625	748,06	800,61	-2,285	
79,10	5,628	748,13	800,99	-2,286	
79,12	5,632	748,64	800,61	-2,288	
79,14	5,636	748,78	799,94	-2,289	
79,16	5,640	748,41	799,85	-2,291	
79,18	5,644	747,71	800,36	-2,293	
79,20	5,648	749,03	800,42	-2,294	
79,22	5,652	751,03	799,93	-2,296	
79,24	5,656	751,02	799,83	-2,297	
79,26	5,660	746,17	800,48	-2,299	
79,28	5,664	746,07	800,72	-2,301	
79,30	5,668	749,24	800,28	-2,302	
79,32	5,672	751,71	799,76	-2,304	
79,34	5,676	749,50	800,12	-2,306	
79,36	5,680	747,87	800,68	-2,307	
79,38	5,684	749,51	800,54	-2,309	
79,40	5,688	751,40	799,94	-2,310	
79,42	5,692	750,39	799,86	-2,312	
79,44	5,697	746,27	800,57	-2,314	
79,46	5,701	745,89	800,84	-2,315	
79,48	5,705	747,18	800,39	-2,317	
79,50	5,708	748,50	799,81	-2,318	
79,52	5,713	746,35	800,15	-2,319	
79,54	5,717	745,17	800,80	-2,319	
79,56	5,721	746,53	800,75	-2,319	
79,58	5,724	747,80	800,16	-2,320	
79,60	5,728	748,39	799,81	-2,322	
79,62	5,732	746,35	800,45	-2,324	
79,64	5,736	746,03	800,94	-2,325	
79,66	5,740	747,12	800,67	-2,327	
79,68	5,744	748,17	800,01	-2,328	
79,70	5,748	748,03	799,83	-2,330	
79,72	5,752	746,02	800,37	-2,332	
79,74	5,756	746,34	800,54	-2,333	
79,76	5,760	747,50	800,09	-2,336	
79,78	5,764	748,27	799,76	-2,340	
79,80	5,768	745,03	800,36	-2,342	
79,82	5,772	743,90	800,83	-2,344	
79,84	5,776	746,04	800,55	-2,346	
79,86	5,780	748,06	799,91	-2,347	
79,88	5,784	747,13	799,89	-2,349	
79,90	5,788	743,82	800,56	-2,350	
79,92	5,793	744,43	800,73	-2,352	
79,94	5,797	745,31	800,25	-2,353	
79,96	5,800	746,49	799,78	-2,355	
79,98	5,805	744,46	800,29	-2,357	
80,00	5,809	743,51	800,90	-2,359	
80,02	5,813	745,02	800,75	-2,360	
80,04	5,816	745,39	800,12	-2,361	
80,06	5,820	745,32	799,78	-2,363	
80,08	5,824	743,68	800,41	-2,365	
80,10	5,828	743,41	800,89	-2,366	
80,12	5,832	744,00	800,61	-2,368	
80,14	5,836	744,74	799,96	-2,369	
80,16	5,840	744,53	799,85	-2,371	
80,18	5,844	742,50	800,55	-2,373	
80,20	5,848	742,83	800,82	-2,374	
80,22	5,852	743,97	800,40	-2,376	
80,24	5,856	745,15	799,82	-2,377	
80,26	5,860	743,60	800,04	-2,379	
80,28	5,864	742,81	800,54	-2,381	
80,30	5,868	744,54	800,42	-2,382	
80,32	5,872	747,05	799,87	-2,384	
80,34	5,876	746,46	800,00	-2,386	
80,36	5,880	742,38	800,74	-2,387	
80,38	5,885	743,11	800,89	-2,389	
80,40	5,888	744,75	800,40	-2,390	
80,42	5,892	745,49	799,81	-2,392	
80,44	5,896	743,53	800,12	-2,393	
80,46	5,901	742,37	800,78	-2,395	
80,48	5,905	743,29	800,74	-2,397	
80,50	5,909	744,31	800,15	-2,398	
80,52	5,912	744,95	799,77	-2,399	
80,54	5,917	742,96	800,39	-2,401	
80,56	5,921	742,61	800,90	-2,403	
80,58	5,924	743,68	800,66	-2,404	
80,60	5,928	744,68	800,01	-2,406	
80,62	5,932	744,78	799,83	-2,408	
80,64	5,936	742,73	800,61	-2,409	
80,66	5,940	742,83	801,03	-2,411	
80,68	5,944	743,83	800,67	-2,412	
80,70	5,948	743,94	799,99	-2,414	
80,72	5,952	742,73	799,82	-2,415	
80,74	5,956	741,69	800,47	-2,417	
80,76	5,960	742,78	800,75	-2,419	
80,78	5,964	743,88	800,34	-2,420	
80,80	5,968	744,96	799,78	-2,422	
80,82	5,972	742,61	800,20	-2,423	
80,84	5,976	740,87	800,97	-2,425	
80,86	5,980	742,19	800,97	-2,426	
80,88	5,984	742,35	800,39	-2,428	
80,90	5,988	742,24	799,80	-2,430	
80,92	5,992	741,28	800,13	-2,431	
80,94	5,997	740,60	800,75	-2,433	
80,96	6,001	740,75	800,67	-2,435	
80,98	6,004	741,21	800,08	-2,436	
81,00	6,008	741,30	799,81	-2,438	
81,02	6,012	738,79	800,46	-2,439	
81,04	6,016	738,71	800,85	-2,441	
81,06	6,020	740,14	800,51	-2,442	
81,08	6,024	741,53	799,88	-2,444	
81,10	6,028	740,68	799,96	-2,446	
81,12	6,032	739,34	800,60	-2,447	
81,14	6,036	741,33	800,66	-2,449	
81,16	6,040	743,53	800,13	-2,450	
81,18	6,044	743,41	799,79	-2,452	
81,20	6,048	739,67	800,41	-2,454	
81,22	6,052	738,52	800,90	-2,455	
81,24	6,056	739,86	800,63	-2,457	
81,26	6,060	741,22	799,97	-2,458	
81,28	6,064	741,24	799,89	-2,460	
81,30	6,068	739,20	800,67	-2,461	
81,32	6,073	739,39	800,99	-2,463	
81,34	6,077	740,50	800,57	-2,464	
81,36	6,080	741,55	799,91	-2,466	
81,38	6,084	740,85	799,95	-2,467	
81,40	6,089	739,79	800,55	-2,469	
81,42	6,093	740,14	800,60	-2,471	
81,44	6,097	740,99	800,07	-2,472	
81,46	6,100	741,19	799,80	-2,474	
81,48	6,104	737,61	800,39	-2,475	
81,50	6,109	737,18	800,71	-2,477	
81,52	6,113	739,40	800,34	-2,478	
81,54	6,116	741,44	799,82	-2,480	
81,56	6,120	739,20	800,21	-2,482	
81,58	6,124	737,51	800,80	-2,483	
81,60	6,128	739,11	800,68	-2,485	
81,62	6,132	740,83	800,07	-2,486	
81,64	6,136	741,34	799,80	-2,488	
81,66	6,140	738,56	800,55	-2,489	
81,68	6,144	737,07	801,05	-2,491	
81,70	6,148	737,21	800,75	-2,492	
81,72	6,152	737,86	800,07	-2,494	
81,74	6,156	738,35	799,83	-2,495	
81,76	6,160	737,45	800,50	-2,497	
81,78	6,165	737,14	800,87	-2,498	
81,80	6,169	737,43	800,51	-2,500	
81,82	6,172	738,25	799,88	-2,501	
81,84	6,176	737,39	800,02	-2,503	
81,86	6,181	735,78	800,81	-2,505	
81,88	6,185	736,34	800,98	-2,506	
81,90	6,189	737,26	800,47	-2,508	
81,92	6,192	738,16	799,83	-2,509	
81,94	6,196	737,27	800,01	-2,511	
81,96	6,200	736,39	800,63	-2,512	
81,98	6,204	736,92	800,63	-2,514	
82,00	6,208	737,74	800,07	-2,515	
82,02	6,212	738,03	799,83	-2,517	
82,04	6,216	734,91	800,66	-2,519	
82,06	6,220	734,63	801,22	-2,520	
82,08	6,224	736,46	800,94	-2,522	
82,10	6,228	736,88	800,25	-2,523	
82,12	6,232	736,66	799,77	-2,525	
82,14	6,236	736,85	800,19	-2,526	
82,16	6,240	737,21	800,60	-2,528	
82,18	6,244	737,51	800,33	-2,529	
82,20	6,248	738,29	799,82	-2,531	
82,22	6,252	735,47	800,08	-2,532	
82,24	6,257	732,59	800,56	-2,534	
82,26	6,261	734,62	800,42	-2,535	
82,28	6,264	737,54	799,85	-2,537	
82,30	6,268	736,97	799,93	-2,538	
82,32	6,273	733,76	800,60	-2,540	
82,34	6,277	734,54	800,71	-2,542	
82,36	6,281	736,70	800,20	-2,543	
82,38	6,285	738,04	799,80	-2,544	
82,40	6,289	734,97	800,40	-2,546	
82,42	6,292	733,57	800,92	-2,548	
82,44	6,296	734,80	800,69	-2,549	
82,46	6,300	735,19	800,03	-2,550	
82,48	6,304	734,65	799,85	-2,552	
82,50	6,308	732,43	800,56	-2,554	
82,52	6,312	732,57	800,92	-2,555	
82,54	6,316	733,61	800,53	-2,557	
82,56	6,320	734,74	799,89	-2,558	
82,58	6,324	733,99	799,98	-2,560	
82,60	6,328	732,36	800,70	-2,561	
82,62	6,332	732,87	800,84	-2,563	
82,64	6,336	733,81	800,33	-2,564	
82,66	6,340	734,94	799,78	-2,566	
82,68	6,344	732,75	800,23	-2,568	
82,70	6,349	731,56	800,90	-2,569	
82,72	6,353	732,97	800,82	-2,571	
82,74	6,357	734,20	800,21	-2,572	
82,76	6,360	734,92	799,77	-2,573	
82,78	6,365	733,52	800,31	-2,575	
82,80	6,369	733,27	800,80	-2,576	
82,82	6,373	733,86	800,55	-2,578	
82,84	6,377	734,72	799,92	-2,580	
82,86	6,381	733,57	799,93	-2,581	
82,88	6,385	730,89	800,55	-2,583	
82,90	6,389	731,90	800,65	-2,584	
82,92	6,392	733,79	800,13	-2,586	
82,94	6,396	734,84	799,81	-2,587	
82,96	6,400	731,57	800,53	-2,589	
82,98	6,404	730,14	801,10	-2,590	
83,00	6,408	731,43	800,85	-2,592	
83,02	6,412	731,70	800,18	-2,593	
83,04	6,416	731,89	799,77	-2,595	
83,06	6,420	731,66	800,27	-2,596	
83,08	6,424	732,74	800,67	-2,598	
83,10	6,428	733,75	800,36	-2,599	
83,12	6,432	734,81	799,81	-2,601	
83,14	6,436	732,17	800,17	-2,602	
83,16	6,441	728,68	800,89	-2,604	
83,18	6,445	730,14	800,87	-2,605	
83,20	6,449	731,53	800,28	-2,607	
83,22	6,452	732,02	799,76	-2,608	
83,24	6,457	730,39	800,30	-2,610	
83,26	6,461	729,57	800,99	-2,611	
83,28	6,465	730,22	800,89	-2,613	
83,30	6,469	730,80	800,26	-2,614	
83,32	6,472	731,36	799,80	-2,616	
83,34	6,476	730,00	800,28	-2,617	
83,36	6,480	729,73	800,75	-2,619	
83,38	6,484	730,54	800,50	-2,620	
83,40	6,488	732,78	799,88	-2,622	
83,42	6,492	732,90	799,93	-2,623	
83,44	6,496	730,09	800,65	-2,625	
83,46	6,500	730,24	800,82	-2,626	
83,48	6,504	730,92	800,32	-2,628	
83,50	6,508	731,67	799,79	-2,629	
83,52	6,512	729,32	800,28	-2,631	
83,54	6,516	728,07	800,96	-2,632	
83,56	6,520	729,42	800,87	-2,634	
83,58	6,524	730,60	800,25	-2,635	
83,60	6,528	730,83	799,80	-2,637	
83,62	6,532	728,55	800,38	-2,638	
83,64	6,536	727,20	800,95	-2,640	
83,66	6,540	727,16	800,73	-2,641	
83,68	6,544	727,60	800,08	-2,643	
83,70	6,548	727,91	799,82	-2,644	
83,72	6,553	726,66	800,50	-2,646	
83,74	6,557	727,85	800,89	-2,647	
83,76	6,561	729,85	800,53	-2,649	
83,78	6,565	731,42	799,89	-2,650	
83,80	6,569	730,55	800,02	-2,652	
83,82	6,573	727,73	800,86	-2,653	
83,84	6,577	727,45	801,08	-2,655	
83,86	6,581	727,65	800,59	-2,656	
83,88	6,585	728,12	799,91	-2,658	
83,90	6,588	728,00	799,99	-2,659	
83,92	6,592	727,09	800,78	-2,661	
83,94	6,596	727,04	800,98	-2,662	
83,96	6,600	727,24	800,49	-2,664	
83,98	6,604	727,97	799,85	-2,665	
84,00	6,608	727,26	800,07	-2,666	
84,02	6,612	726,34	800,78	-2,668	
84,04	6,616	726,82	800,83	-2,670	
84,06	6,620	727,39	800,27	-2,671	
84,08	6,624	728,30	799,76	-2,672	
84,10	6,628	726,49	800,39	-2,674	
84,12	6,632	725,44	801,22	-2,676	
84,14	6,636	726,25	801,18	-2,677	
84,16	6,640	725,80	800,56	-2,678	
84,18	6,644	725,33	799,88	-2,680	
84,20	6,648	725,81	799,96	-2,681	
84,22	6,653	726,65	800,53	-2,683	
84,24	6,657	727,20	800,53	-2,684	
84,26	6,661	727,79	799,99	-2,686	
84,28	6,664	727,61	799,84	-2,687	
84,30	6,669	723,89	800,63	-2,689	
84,32	6,672	723,78	801,06	-2,690	
84,34	6,676	726,06	800,70	-2,692	
84,36	6,680	727,53	800,01	-2,693	
84,38	6,684	726,69	799,90	-2,695	
84,40	6,688	724,36	800,72	-2,696	
84,42	6,692	723,56	801,11	-2,698	
84,44	6,696	723,80	800,71	-2,699	
84,46	6,700	724,51	800,01	-2,701	
84,48	6,704	724,83	799,89	-2,702	
84,50	6,708	724,76	800,50	-2,704	
84,52	6,712	726,13	800,68	-2,705	
84,54	6,716	727,40	800,21	-2,706	
84,56	6,720	728,18	799,79	-2,708	
84,58	6,724	724,53	800,28	-2,709	
84,60	6,729	722,82	800,73	-2,711	
84,62	6,733	725,19	800,46	-2,712	
84,64	6,736	727,74	799,86	-2,714	
84,66	6,740	726,42	800,06	-2,715	
84,68	6,745	722,68	800,85	-2,717	
84,70	6,749	722,50	800,99	-2,718	
84,72	6,753	723,67	800,46	-2,720	
84,74	6,757	724,92	799,82	-2,721	
84,76	6,761	724,10	800,18	-2,723	
84,78	6,765	723,11	801,02	-2,724	
84,80	6,768	723,47	801,11	-2,726	
84,82	6,772	724,03	800,55	-2,727	
84,84	6,776	724,88	799,87	-2,728	
84,86	6,780	725,13	799,98	-2,730	
84,88	6,784	724,44	800,68	-2,731	
84,90	6,788	724,02	800,78	-2,733	
84,92	6,792	724,01	800,25	-2,734	
84,94	6,796	724,59	799,78	-2,736	
84,96	6,800	721,58	800,40	-2,737	
84,98	6,804	719,98	801,12	-2,739	
85,00	6,808	721,26	801,01	-2,740	
85,02	6,812	721,51	800,36	-2,741	
85,04	6,816	721,78	799,81	-2,743	
85,06	6,820	721,60	800,14	-2,744	
85,08	6,825	722,56	800,57	-2,746	
85,10	6,829	723,68	800,33	-2,747	
85,12	6,832	724,79	799,81	-2,749	
85,14	6,837	722,14	800,11	-2,750	
85,16	6,841	719,06	800,75	-2,752	
85,18	6,845	720,96	800,71	-2,753	
85,20	6,849	723,53	800,12	-2,755	
85,22	6,853	724,26	799,82	-2,756	
85,24	6,857	720,95	800,50	-2,758	
85,26	6,861	719,58	800,97	-2,759	
85,28	6,864	720,09	800,67	-2,760	
85,30	6,868	721,01	800,00	-2,762	
85,32	6,872	721,06	799,91	-2,763	
85,34	6,876	719,63	800,59	-2,765	
85,36	6,880	719,69	800,83	-2,766	
85,38	6,884	720,36	800,38	-2,768	
85,40	6,888	721,38	799,84	-2,769	
85,42	6,892	719,29	800,21	-2,771	
85,44	6,896	718,08	800,77	-2,772	
85,46	6,900	719,45	800,63	-2,773	
85,48	6,904	720,84	800,02	-2,775	
85,50	6,908	720,92	799,87	-2,776	
85,52	6,912	718,32	800,62	-2,778	
85,54	6,917	718,63	800,98	-2,779	
85,56	6,920	720,10	800,58	-2,780	
85,58	6,924	721,34	799,92	-2,782	
85,60	6,928	720,67	800,04	-2,783	
85,62	6,933	718,98	800,89	-2,785	
85,64	6,937	719,46	801,12	-2,786	
85,66	6,941	720,39	800,63	-2,788	
85,68	6,945	720,56	799,93	-2,789	
85,70	6,949	719,56	799,99	-2,790	
85,72	6,953	717,91	800,84	-2,792	
85,74	6,957	717,22	801,10	-2,793	
85,76	6,960	717,24	800,63	-2,795	
85,78	6,964	717,87	799,93	-2,796	
85,80	6,968	717,93	799,92	-2,798	
85,82	6,972	717,02	800,68	-2,799	
85,84	6,976	716,91	800,92	-2,801	
85,86	6,980	717,25	800,46	-2,802	
85,88	6,984	718,10	799,83	-2,803	
85,90	6,988	716,74	800,14	-2,805	
85,92	6,992	715,53	800,96	-2,806	
85,94	6,996	716,38	801,05	-2,808	
85,96	7,000	717,21	800,49	-2,809	
85,98	7,004	718,09	799,83	-2,810	
86,00	7,008	717,77	800,10	-2,812	
86,02	7,012	717,00	800,92	-2,813	
86,04	7,016	717,08	801,05	-2,815	
86,06	7,020	717,32	800,51	-2,816	
86,08	7,024	718,07	799,87	-2,817	
86,10	7,028	717,16	800,12	-2,819	
86,12	7,033	716,21	800,80	-2,820	
86,14	7,037	716,74	800,81	-2,822	
86,16	7,041	717,37	800,24	-2,823	
86,18	7,044	718,00	799,80	-2,824	
86,20	7,049	716,08	800,37	-2,826	
86,22	7,053	715,56	800,93	-2,827	
86,24	7,057	716,59	800,72	-2,829	
86,26	7,060	717,58	800,07	-2,830	
86,28	7,064	717,57	799,88	-2,831	
86,30	7,068	714,21	800,64	-2,833	
86,32	7,072	713,02	801,06	-2,834	
86,34	7,076	713,64	800,69	-2,836	
86,36	7,080	714,51	800,00	-2,837	
86,38	7,084	714,73	799,87	-2,839	
86,40	7,088	714,00	800,55	-2,840	
86,42	7,092	715,09	800,81	-2,841	
86,44	7,096	716,62	800,37	-2,843	
86,46	7,100	717,72	799,82	-2,844	
86,48	7,104	715,16	800,13	-2,845	
86,50	7,109	714,12	800,60	-2,847	
86,52	7,113	715,90	800,41	-2,848	
86,54	7,116	717,85	799,85	-2,850	
86,56	7,120	716,30	800,01	-2,851	
86,58	7,125	712,77	800,64	-2,853	
86,60	7,129	713,88	800,67	-2,854	
86,62	7,133	716,53	800,11	-2,855	
86,64	7,137	717,57	799,83	-2,857	
86,66	7,141	713,90	800,54	-2,858	
86,68	7,144	712,35	801,01	-2,860	
86,70	7,148	713,28	800,70	-2,861	
86,72	7,152	714,39	800,02	-2,862	
86,74	7,156	714,59	799,94	-2,863	
86,76	7,160	713,06	800,78	-2,865	
86,78	7,164	712,84	801,17	-2,866	
86,80	7,168	712,27	800,77	-2,868	
86,82	7,172	711,62	800,06	-2,869	
86,84	7,176	711,74	799,85	-2,871	
86,86	7,180	711,34	800,60	-2,872	
86,88	7,184	710,92	801,01	-2,873	
86,90	7,188	710,72	800,64	-2,875	
86,92	7,192	711,18	799,97	-2,876	
86,94	7,196	711,25	799,94	-2,877	
86,96	7,200	711,11	800,64	-2,879	
86,98	7,204	712,48	800,84	-2,880	
87,00	7,208	713,66	800,36	-2,882	
87,02	7,212	714,78	799,79	-2,883	
87,04	7,216	712,64	800,21	-2,884	
87,06	7,221	710,50	800,95	-2,886	
87,08	7,225	710,71	800,92	-2,887	
87,10	7,229	710,91	800,32	-2,888	
87,12	7,233	711,54	799,78	-2,890	
87,14	7,237	710,87	800,34	-2,891	
87,16	7,241	710,25	801,09	-2,893	
87,18	7,244	710,35	801,01	-2,894	
87,20	7,248	710,57	800,38	-2,895	
87,22	7,252	711,44	799,79	-2,896	
87,24	7,256	710,96	800,21	-2,898	
87,26	7,260	710,34	800,93	-2,899	
87,28	7,264	710,46	800,90	-2,901	
87,30	7,268	710,70	800,29	-2,902	
87,32	7,272	711,26	799,80	-2,903	
87,34	7,276	709,46	800,33	-2,905	
87,36	7,280	708,93	800,91	-2,906	
87,38	7,284	709,99	800,73	-2,908	
87,40	7,288	710,95	800,08	-2,909	
87,42	7,292	710,98	799,87	-2,910	
87,44	7,296	708,22	800,66	-2,912	
87,46	7,300	708,44	801,12	-2,913	
87,48	7,304	709,32	800,78	-2,914	
87,50	7,308	708,80	800,08	-2,916	
87,52	7,312	708,37	799,83	-2,917	
87,54	7,317	707,20	800,57	-2,919	
87,56	7,321	706,87	801,00	-2,920	
87,58	7,325	707,13	800,66	-2,921	
87,60	7,329	707,81	799,97	-2,922	
87,62	7,332	708,06	799,91	-2,924	
87,64	7,336	707,11	800,70	-2,925	
87,66	7,340	706,90	801,03	-2,926	
87,68	7,344	707,10	800,60	-2,928	
87,70	7,348	707,81	799,92	-2,929	
87,72	7,352	707,34	799,96	-2,931	
87,74	7,356	706,28	800,71	-2,932	
87,76	7,360	706,58	800,90	-2,933	
87,78	7,364	707,17	800,40	-2,934	
87,80	7,368	708,13	799,79	-2,936	
87,82	7,372	706,68	800,14	-2,937	
87,84	7,376	705,39	800,91	-2,939	
87,86	7,380	706,25	800,94	-2,940	
87,88	7,384	707,12	800,37	-2,941	
87,90	7,388	708,11	799,81	-2,943	
87,92	7,392	707,49	800,20	-2,944	
87,94	7,396	706,92	800,74	-2,945	
87,96	7,400	707,11	800,57	-2,947	
87,98	7,404	707,82	799,95	-2,948	
88,00	7,408	707,66	799,90	-2,949	
88,02	7,412	704,91	800,76	-2,951	
88,04	7,417	705,17	801,14	-2,952	
88,06	7,420	706,04	800,73	-2,953	
88,08	7,424	705,63	800,03	-2,954	
88,10	7,428	705,04	799,90	-2,956	
88,12	7,432	705,23	800,50	-2,957	
88,14	7,436	706,51	800,67	-2,959	
88,16	7,440	707,34	800,18	-2,960	
88,18	7,444	708,01	799,78	-2,961	
88,20	7,448	704,45	800,51	-2,963	
88,22	7,452	701,87	801,23	-2,965	
88,24	7,456	702,70	801,08	-2,966	
88,26	7,460	703,82	800,41	-2,967	
88,28	7,464	705,11	799,81	-2,968	
88,30	7,468	705,16	800,27	-2,970	
88,32	7,472	704,27	801,04	-2,971	
88,34	7,476	703,87	801,03	-2,972	
88,36	7,480	703,93	800,42	-2,973	
88,38	7,484	704,78	799,80	-2,975	
88,40	7,488	704,37	800,21	-2,976	
88,42	7,492	703,69	800,99	-2,978	
88,44	7,496	703,78	801,00	-2,979	
88,46	7,500	704,04	800,40	-2,980	
88,48	7,504	704,67	799,80	-2,981	
88,50	7,508	703,09	800,18	-2,983	
88,52	7,513	702,36	800,87	-2,984	
88,54	7,517	703,27	800,83	-2,985	
88,56	7,520	704,05	800,22	-2,987	
88,58	7,524	704,50	799,79	-2,988	
88,60	7,528	702,00	800,39	-2,989	
88,62	7,532	701,65	800,96	-2,991	
88,64	7,536	702,51	800,74	-2,992	
88,66	7,540	702,15	800,08	-2,993	
88,68	7,544	701,67	799,84	-2,994	
88,70	7,548	699,83	800,63	-2,996	
88,72	7,552	699,60	801,11	-2,997	
88,74	7,556	700,22	800,78	-2,998	
88,76	7,560	700,90	800,08	-3,000	
88,78	7,564	701,39	799,87	-3,001	
88,80	7,568	700,57	800,56	-3,002	
88,82	7,572	700,32	800,91	-3,004	
88,84	7,576	700,59	800,52	-3,005	
88,86	7,580	701,43	799,87	-3,006	
88,88	7,584	700,26	800,08	-3,008	
88,90	7,588	698,81	800,94	-3,009	
88,92	7,592	699,57	801,12	-3,010	
88,94	7,596	700,52	800,60	-3,011	
88,96	7,600	701,20	799,90	-3,012	
88,98	7,604	700,32	800,01	-3,014	
89,00	7,609	698,31	800,81	-3,015	
89,02	7,613	697,32	801,01	-3,017	
89,04	7,616	697,28	800,51	-3,018	
89,06	7,620	698,70	799,84	-3,019	
89,08	7,624	699,36	800,13	-3,021	
89,10	7,628	697,98	801,05	-3,022	
89,12	7,632	697,27	801,24	-3,023	
89,14	7,636	697,24	800,72	-3,024	
89,16	7,640	697,70	799,99	-3,025	
89,18	7,644	698,88	799,95	-3,027	
89,20	7,648	698,54	800,86	-3,028	
89,22	7,652	697,67	801,26	-3,030	
89,24	7,656	697,31	800,84	-3,031	
89,26	7,660	697,50	800,12	-3,032	
89,28	7,664	698,23	799,82	-3,033	
89,30	7,668	698,00	800,54	-3,035	
89,32	7,672	697,45	801,01	-3,036	
89,34	7,676	697,22	800,68	-3,037	
89,36	7,680	697,69	800,00	-3,038	
89,38	7,684	697,24	799,93	-3,040	
89,40	7,688	695,50	800,69	-3,041	
89,42	7,692	695,87	800,96	-3,042	
89,44	7,696	696,88	800,50	-3,043	
89,46	7,700	698,02	799,84	-3,045	
89,48	7,704	696,73	800,14	-3,046	
89,50	7,709	694,57	801,05	-3,047	
89,52	7,712	694,27	801,24	-3,049	
89,54	7,716	694,20	800,71	-3,050	
89,56	7,720	694,50	799,98	-3,051	
89,58	7,724	695,54	799,92	-3,052	
89,60	7,728	695,23	800,62	-3,053	
89,62	7,732	694,34	800,83	-3,055	
89,64	7,736	694,14	800,36	-3,056	
89,66	7,740	695,99	799,80	-3,057	
89,68	7,744	694,63	800,28	-3,059	
89,70	7,748	692,61	801,06	-3,060	
89,72	7,752	692,99	801,05	-3,061	
89,74	7,756	693,78	800,43	-3,062	
89,76	7,760	694,79	799,80	-3,064	
89,78	7,764	694,39	800,11	-3,065	
89,80	7,768	693,58	800,81	-3,066	
89,82	7,772	693,60	800,80	-3,067	
89,84	7,776	693,91	800,21	-3,068	
89,86	7,780	694,60	799,78	-3,070	
89,88	7,784	692,76	800,50	-3,071	
89,90	7,788	692,16	801,23	-3,072	
89,92	7,792	692,50	801,08	-3,074	
89,94	7,796	691,64	800,41	-3,075	
89,96	7,800	691,66	799,83	-3,076	
89,98	7,804	691,92	800,32	-3,077	
90,00	7,808	691,47	801,08	-3,079	
90,02	7,812	690,78	801,04	-3,080	
90,04	7,816	690,52	800,43	-3,081	
90,06	7,820	691,26	799,84	-3,082	
90,08	7,824	690,71	800,26	-3,084	
90,10	7,828	690,09	800,93	-3,085	
90,12	7,832	690,88	800,84	-3,086	
90,14	7,836	692,72	800,21	-3,087	
90,16	7,840	694,06	799,82	-3,088	
90,18	7,844	691,80	800,46	-3,090	
90,20	7,848	691,38	800,97	-3,091	
90,22	7,852	692,19	800,69	-3,092	
90,24	7,856	692,01	800,02	-3,093	
90,26	7,860	691,44	799,88	-3,095	
90,28	7,864	689,66	800,71	-3,096	
90,30	7,868	689,55	801,13	-3,097	
90,32	7,872	690,23	800,75	-3,098	
90,34	7,876	690,94	800,05	-3,100	
90,36	7,880	691,24	799,86	-3,101	
90,38	7,884	690,33	800,55	-3,102	
90,40	7,888	690,18	800,87	-3,103	
90,42	7,892	690,41	800,47	-3,105	
90,44	7,896	691,21	799,84	-3,106	
90,46	7,900	689,52	800,15	-3,107	
90,48	7,904	687,97	801,01	-3,108	
90,50	7,908	689,08	801,14	-3,110	
90,52	7,912	690,20	800,58	-3,111	
90,54	7,916	690,47	799,90	-3,112	
90,56	7,920	689,39	800,03	-3,113	
90,58	7,924	689,10	800,77	-3,115	
90,60	7,928	689,83	800,88	-3,116	
90,62	7,932	690,39	800,34	-3,117	
90,64	7,936	691,08	799,79	-3,118	
90,66	7,940	688,73	800,25	-3,119	
90,68	7,944	686,94	800,90	-3,121	
90,70	7,948	687,17	800,79	-3,122	
90,72	7,952	687,43	800,16	-3,123	
90,74	7,956	687,61	799,79	-3,124	
90,76	7,960	685,49	800,46	-3,125	
90,78	7,964	685,44	800,98	-3,127	
90,80	7,968	686,56	800,71	-3,128	
90,82	7,972	687,51	800,03	-3,129	
90,84	7,976	687,68	799,94	-3,130	
90,86	7,980	686,16	800,76	-3,131	
90,88	7,984	686,12	801,12	-3,133	
90,90	7,988	686,84	800,70	-3,134	
90,92	7,992	687,64	800,00	-3,135	
90,94	7,996	687,85	799,94	-3,136	
90,96	8,001	686,91	800,76	-3,138	
90,98	8,004	686,71	801,08	-3,139	
91,00	8,008	686,94	800,65	-3,140	
91,02	8,012	687,14	799,95	-3,141	
91,04	8,016	686,35	799,98	-3,142	
91,06	8,020	684,99	800,80	-3,143	
91,08	8,024	685,75	801,05	-3,145	
91,10	8,028	686,85	800,56	-3,146	
91,12	8,032	687,84	799,89	-3,147	
91,14	8,036	687,16	800,11	-3,148	
91,16	8,040	685,83	801,03	-3,150	
91,18	8,044	684,98	801,24	-3,151	
91,20	8,048	684,26	800,72	-3,152	
91,22	8,052	684,37	799,99	-3,153	
91,24	8,056	685,50	799,92	-3,154	
91,26	8,060	685,18	800,72	-3,156	
91,28	8,064	684,26	801,03	-3,157	
91,30	8,068	683,88	800,59	-3,158	
91,32	8,072	684,41	799,91	-3,159	
91,34	8,076	683,93	800,03	-3,160	
91,36	8,081	682,76	800,89	-3,162	
91,38	8,085	683,03	801,14	-3,163	
91,40	8,088	683,61	800,64	-3,164	
91,42	8,092	684,38	799,94	-3,165	
91,44	8,096	684,37	799,96	-3,166	
91,46	8,100	683,46	800,70	-3,168	
91,48	8,104	683,37	800,90	-3,169	
91,50	8,108	683,70	800,40	-3,170	
91,52	8,112	684,56	799,81	-3,171	
91,54	8,116	683,10	800,24	-3,172	
91,56	8,120	681,80	801,00	-3,173	
91,58	8,124	682,71	800,98	-3,175	
91,60	8,128	683,65	800,37	-3,176	
91,62	8,132	684,55	799,79	-3,177	
91,64	8,136	682,81	800,29	-3,178	
91,66	8,140	680,78	801,06	-3,179	
91,68	8,144	680,30	801,03	-3,181	
91,70	8,148	680,47	800,40	-3,181	
91,72	8,152	681,28	799,78	-3,183	
91,74	8,156	680,82	800,23	-3,184	
91,76	8,160	680,08	801,11	-3,185	
91,78	8,164	680,20	801,19	-3,186	
91,80	8,168	680,49	800,60	-3,187	
91,82	8,172	681,15	799,89	-3,188	
91,84	8,176	682,03	800,03	-3,190	
91,86	8,181	681,74	800,91	-3,191	
91,88	8,185	680,96	801,15	-3,192	
91,90	8,189	680,68	800,65	-3,193	
91,92	8,193	681,18	799,95	-3,194	
91,94	8,196	681,14	800,01	-3,195	
91,96	8,200	680,33	800,78	-3,197	
91,98	8,204	680,26	800,97	-3,198	
92,00	8,208	680,41	800,47	-3,199	
92,02	8,212	681,22	799,85	-3,200	
92,04	8,216	679,72	800,24	-3,201	
92,06	8,220	677,68	801,03	-3,202	
92,08	8,224	677,50	801,06	-3,204	
92,10	8,228	677,46	800,46	-3,205	
92,12	8,232	677,99	799,83	-3,206	
92,14	8,236	677,40	800,20	-3,207	
92,16	8,240	676,64	800,95	-3,208	
92,18	8,244	676,76	800,96	-3,209	
92,20	8,248	677,08	800,35	-3,210	
92,22	8,252	677,92	799,79	-3,211	
92,24	8,256	677,29	800,29	-3,213	
92,26	8,260	676,69	801,00	-3,214	
92,28	8,264	676,80	800,91	-3,215	
92,30	8,268	677,07	800,27	-3,216	
92,32	8,272	677,83	799,78	-3,217	
92,34	8,276	676,59	800,42	-3,218	
92,36	8,280	676,13	801,14	-3,219	
92,38	8,284	676,67	801,01	-3,221	
92,40	8,288	677,17	800,35	-3,222	
92,42	8,292	678,05	799,80	-3,223	
92,44	8,296	677,32	800,34	-3,224	
92,46	8,300	676,75	801,02	-3,225	
92,48	8,304	676,99	800,91	-3,226	
92,50	8,308	677,35	800,26	-3,227	
92,52	8,312	678,05	799,78	-3,228	
92,54	8,316	676,04	800,44	-3,230	
92,56	8,320	674,10	801,15	-3,231	
92,58	8,324	673,72	801,01	-3,232	
92,60	8,328	673,95	800,35	-3,233	
92,62	8,332	674,81	799,82	-3,234	
92,64	8,336	674,04	800,35	-3,235	
92,66	8,340	673,43	800,99	-3,236	
92,68	8,344	673,60	800,85	-3,237	
92,70	8,348	673,98	800,20	-3,238	
92,72	8,352	674,39	799,84	-3,239	
92,74	8,356	672,33	800,56	-3,241	
92,76	8,360	672,19	801,11	-3,242	
92,78	8,364	673,22	800,83	-3,243	
92,80	8,368	674,08	800,13	-3,244	
92,82	8,372	674,54	799,91	-3,245	
92,84	8,376	672,97	800,80	-3,246	
92,86	8,380	672,77	801,37	-3,248	
92,88	8,384	672,88	801,06	-3,248	
92,90	8,388	671,80	800,34	-3,249	
92,92	8,392	671,97	799,79	-3,251	
92,94	8,396	672,87	800,31	-3,252	
92,96	8,400	671,97	800,98	-3,253	
92,98	8,404	670,93	800,85	-3,254	
93,00	8,408	670,71	800,20	-3,255	
93,02	8,412	671,24	799,81	-3,256	
93,04	8,416	669,76	800,63	-3,257	
93,06	8,420	669,43	801,35	-3,258	
93,08	8,424	670,06	801,16	-3,259	
93,10	8,428	670,50	800,46	-3,261	
93,12	8,432	671,60	799,83	-3,262	
93,14	8,436	672,40	800,19	-3,263	
93,16	8,440	671,45	800,90	-3,264	
93,18	8,444	670,63	800,87	-3,265	
93,20	8,448	670,51	800,26	-3,266	
93,22	8,452	671,08	799,83	-3,267	
93,24	8,456	669,16	800,53	-3,268	
93,26	8,461	668,93	801,19	-3,269	
93,28	8,465	669,97	801,00	-3,271	
93,30	8,469	670,59	800,32	-3,272	
93,32	8,472	671,60	799,79	-3,273	
93,34	8,476	670,93	800,41	-3,274	
93,36	8,480	668,66	801,20	-3,275	
93,38	8,484	667,36	801,12	-3,276	
93,40	8,488	667,17	800,47	-3,277	
93,42	8,492	668,12	799,82	-3,278	
93,44	8,496	668,36	800,19	-3,279	
93,46	8,500	667,44	801,02	-3,280	
93,48	8,504	667,00	801,09	-3,281	
93,50	8,508	667,10	800,51	-3,282	
93,52	8,512	667,87	799,86	-3,283	
93,54	8,516	667,46	800,21	-3,284	
93,56	8,520	666,75	801,04	-3,286	
93,58	8,524	666,85	801,11	-3,287	
93,60	8,528	667,11	800,53	-3,288	
93,62	8,532	667,85	799,87	-3,289	
93,64	8,536	667,50	800,15	-3,290	
93,66	8,540	666,74	800,87	-3,291	
93,68	8,544	666,76	800,89	-3,292	
93,70	8,548	667,04	800,29	-3,293	
93,72	8,552	667,81	799,79	-3,294	
93,74	8,556	666,06	800,49	-3,296	
93,76	8,560	665,17	801,32	-3,297	
93,78	8,564	664,86	801,24	-3,298	
93,80	8,568	664,18	800,59	-3,299	
93,82	8,572	664,56	799,89	-3,300	
93,84	8,576	665,32	800,11	-3,301	
93,86	8,580	664,73	800,90	-3,302	
93,88	8,584	664,00	801,00	-3,303	
93,90	8,588	663,73	800,45	-3,304	
93,92	8,592	664,43	799,84	-3,305	
93,94	8,596	663,46	800,20	-3,306	
93,96	8,600	662,44	800,87	-3,307	
93,98	8,604	662,93	800,80	-3,308	
94,00	8,608	663,66	800,18	-3,309	
94,02	8,612	664,23	799,84	-3,310	
94,04	8,616	662,20	800,63	-3,311	
94,06	8,620	662,06	801,24	-3,313	
94,08	8,624	663,14	800,99	-3,314	
94,10	8,628	663,68	800,28	-3,314	
94,12	8,632	664,45	799,79	-3,315	
94,14	8,636	664,16	800,37	-3,317	
94,16	8,641	663,52	800,99	-3,318	
94,18	8,645	663,35	800,80	-3,319	
94,20	8,648	663,69	800,12	-3,320	
94,22	8,652	664,13	799,84	-3,321	
94,24	8,657	662,20	800,57	-3,322	
94,26	8,661	662,20	801,01	-3,323	
94,28	8,665	663,29	800,67	-3,324	
94,30	8,668	664,26	799,98	-3,325	
94,32	8,672	663,78	800,04	-3,326	
94,34	8,676	661,38	801,01	-3,327	
94,36	8,680	660,24	801,37	-3,328	
94,38	8,684	660,22	800,91	-3,329	
94,40	8,688	660,50	800,16	-3,330	
94,42	8,692	661,67	799,82	-3,331	
94,44	8,696	661,67	800,62	-3,332	
94,46	8,700	660,81	801,24	-3,333	
94,48	8,704	660,32	800,99	-3,334	
94,50	8,708	660,37	800,28	-3,335	
94,52	8,712	661,25	799,81	-3,336	
94,54	8,716	661,19	800,41	-3,337	
94,56	8,720	660,62	800,99	-3,338	
94,58	8,724	660,33	800,77	-3,339	
94,60	8,728	660,65	800,10	-3,340	
94,62	8,732	660,81	799,90	-3,341	
94,64	8,736	658,70	800,64	-3,343	
94,66	8,740	658,63	801,03	-3,344	
94,68	8,744	659,71	800,64	-3,345	
94,70	8,748	660,77	799,95	-3,345	
94,72	8,752	659,85	799,99	-3,347	
94,74	8,756	657,16	800,84	-3,348	
94,76	8,760	656,46	801,12	-3,349	
94,78	8,764	656,80	800,64	-3,350	
94,80	8,768	657,57	799,94	-3,350	
94,82	8,772	657,58	800,05	-3,351	
94,84	8,776	656,73	800,97	-3,353	
94,86	8,780	656,67	801,26	-3,354	
94,88	8,784	656,89	800,78	-3,355	
94,90	8,788	657,38	800,04	-3,356	
94,92	8,792	658,14	799,93	-3,357	
94,94	8,796	657,55	800,79	-3,358	
94,96	8,800	657,03	801,19	-3,359	
94,98	8,804	656,97	800,78	-3,360	
95,00	8,808	657,35	800,06	-3,361	
95,02	8,812	657,71	799,88	-3,362	
95,04	8,816	656,79	800,70	-3,363	
95,06	8,820	656,62	801,12	-3,364	
95,08	8,824	656,90	800,73	-3,365	
95,10	8,828	657,45	800,02	-3,366	
95,12	8,832	657,13	799,97	-3,367	
95,14	8,836	656,07	800,70	-3,368	
95,16	8,840	656,40	800,94	-3,369	
95,18	8,844	656,96	800,44	-3,370	
95,20	8,848	657,89	799,82	-3,371	
95,22	8,852	655,94	800,36	-3,372	
95,24	8,856	652,97	801,40	-3,373	
95,26	8,860	652,76	801,55	-3,374	
95,28	8,864	653,43	800,97	-3,375	
95,30	8,868	653,30	800,20	-3,376	
95,32	8,872	654,40	799,80	-3,377	
95,34	8,876	655,67	800,44	-3,378	
95,36	8,880	654,85	800,95	-3,379	
95,38	8,884	653,91	800,67	-3,380	
95,40	8,888	654,10	799,99	-3,381	
95,42	8,892	653,71	799,98	-3,382	
95,44	8,896	651,88	800,87	-3,383	
95,46	8,900	652,22	801,23	-3,384	
95,48	8,904	653,25	800,78	-3,385	
95,50	8,908	654,03	800,04	-3,386	
95,52	8,912	654,34	799,91	-3,387	
95,54	8,916	653,38	800,81	-3,388	
95,56	8,920	653,06	801,27	-3,389	
95,58	8,924	652,19	800,89	-3,390	
95,60	8,928	651,16	800,16	-3,391	
95,62	8,932	651,31	799,83	-3,392	
95,64	8,936	650,93	800,60	-3,393	
95,66	8,941	650,45	801,18	-3,394	
95,68	8,945	650,30	800,91	-3,395	
95,70	8,948	650,51	800,20	-3,395	
95,72	8,952	651,19	799,83	-3,396	
95,74	8,956	650,39	800,53	-3,398	
95,76	8,960	649,98	801,06	-3,399	
95,78	8,964	650,08	800,77	-3,400	
95,80	8,968	650,55	800,07	-3,400	
95,82	8,972	650,75	799,93	-3,401	
95,84	8,976	649,23	800,75	-3,403	
95,86	8,980	649,11	801,14	-3,403	
95,88	8,984	649,75	800,74	-3,404	
95,90	8,988	650,53	800,03	-3,405	
95,92	8,992	650,32	799,98	-3,406	
95,94	8,996	649,12	800,79	-3,407	
95,96	9,000	649,33	801,10	-3,408	
95,98	9,004	649,96	800,64	-3,409	
96,00	9,008	650,78	799,93	-3,410	
96,02	9,012	650,30	800,01	-3,411	
96,04	9,016	648,95	800,84	-3,412	
96,06	9,020	648,07	801,06	-3,413	
96,08	9,024	647,22	800,56	-3,414	
96,10	9,028	647,46	799,89	-3,415	
96,12	9,032	646,76	800,11	-3,416	
96,14	9,037	645,74	800,86	-3,417	
96,16	9,041	646,20	800,92	-3,418	
96,18	9,044	646,84	800,35	-3,419	
96,20	9,048	647,62	799,81	-3,420	
96,22	9,052	645,87	800,41	-3,421	
96,24	9,056	645,12	801,22	-3,422	
96,26	9,060	646,08	801,16	-3,423	
96,28	9,064	646,83	800,51	-3,423	
96,30	9,068	647,70	799,85	-3,424	
96,32	9,072	647,24	800,21	-3,425	
96,34	9,076	646,52	800,98	-3,427	
96,36	9,080	646,62	801,01	-3,427	
96,38	9,084	646,83	800,41	-3,428	
96,40	9,088	647,53	799,82	-3,429	
96,42	9,092	645,79	800,31	-3,430	
96,44	9,096	643,69	801,13	-3,431	
96,46	9,100	643,24	801,12	-3,432	
96,48	9,104	643,43	800,50	-3,433	
96,50	9,108	644,34	799,84	-3,434	
96,52	9,112	645,10	800,12	-3,435	
96,54	9,116	645,78	800,81	-3,436	
96,56	9,120	646,49	800,80	-3,437	
96,58	9,124	646,96	800,21	-3,438	
96,60	9,128	647,43	799,80	-3,439	
96,62	9,132	644,29	800,51	-3,440	
96,64	9,137	642,58	801,15	-3,441	
96,66	9,140	642,96	800,93	-3,442	
96,68	9,144	643,56	800,25	-3,442	
96,70	9,148	644,34	799,82	-3,443	
96,72	9,152	643,55	800,49	-3,444	
96,74	9,156	643,14	801,07	-3,445	
96,76	9,160	643,37	800,82	-3,446	
96,78	9,164	643,77	800,14	-3,447	
96,80	9,168	644,29	799,82	-3,448	
96,82	9,172	642,76	800,61	-3,449	
96,84	9,176	642,40	801,20	-3,450	
96,86	9,180	642,99	800,93	-3,451	
96,88	9,184	643,43	800,22	-3,452	
96,90	9,188	644,29	799,80	-3,452	
96,92	9,192	644,13	800,56	-3,453	
96,94	9,196	643,61	801,29	-3,454	
96,96	9,200	642,90	801,11	-3,455	
96,98	9,204	641,45	800,43	-3,456	
97,00	9,208	641,36	799,79	-3,457	
97,02	9,212	641,83	800,23	-3,458	
97,04	9,216	640,93	801,04	-3,459	
97,06	9,220	640,17	801,06	-3,460	
97,08	9,224	640,04	800,46	-3,461	
97,10	9,228	640,80	799,82	-3,462	
97,12	9,232	640,46	800,25	-3,463	
97,14	9,236	639,83	801,10	-3,464	
97,16	9,240	639,94	801,15	-3,465	
97,18	9,244	640,16	800,55	-3,466	
97,20	9,248	640,84	799,85	-3,466	
97,22	9,252	640,55	800,12	-3,467	
97,24	9,256	639,77	801,05	-3,468	
97,26	9,260	639,78	801,24	-3,469	
97,28	9,264	640,03	800,70	-3,470	
97,30	9,268	640,66	799,97	-3,471	
97,32	9,272	641,14	799,97	-3,472	
97,34	9,276	640,69	800,69	-3,473	
97,36	9,280	640,21	800,87	-3,474	
97,38	9,284	640,12	800,37	-3,475	
97,40	9,288	640,95	799,76	-3,476	
97,42	9,292	639,54	800,36	-3,477	
97,44	9,296	636,96	801,48	-3,478	
97,46	9,300	636,39	801,65	-3,479	
97,48	9,304	636,73	801,06	-3,479	
97,50	9,308	636,45	800,28	-3,480	
97,52	9,312	637,58	799,80	-3,481	
97,54	9,316	638,92	800,37	-3,482	
97,56	9,320	637,99	800,96	-3,483	
97,58	9,324	636,98	800,76	-3,484	
97,60	9,328	637,03	800,09	-3,485	
97,62	9,332	637,38	799,88	-3,485	
97,64	9,336	635,87	800,66	-3,486	
97,66	9,340	635,67	801,10	-3,487	
97,68	9,344	636,38	800,72	-3,488	
97,70	9,348	637,23	800,01	-3,489	
97,72	9,352	637,10	799,94	-3,490	
97,74	9,356	635,82	800,81	-3,491	
97,76	9,360	636,01	801,20	-3,492	
97,78	9,364	636,62	800,77	-3,493	
97,80	9,368	637,20	800,04	-3,494	
97,82	9,372	637,50	799,90	-3,494	
97,84	9,376	636,48	800,78	-3,495	
97,86	9,380	635,13	801,23	-3,496	
97,88	9,384	633,97	800,85	-3,497	
97,90	9,388	633,81	800,12	-3,498	
97,92	9,392	634,63	799,88	-3,499	
97,94	9,396	634,09	800,69	-3,500	
97,96	9,400	633,42	801,16	-3,501	
97,98	9,404	633,32	800,82	-3,502	
98,00	9,408	633,64	800,10	-3,502	
98,02	9,412	634,15	799,87	-3,503	
98,04	9,416	633,27	800,78	-3,504	
98,06	9,420	633,00	801,37	-3,505	
98,08	9,424	633,23	801,06	-3,506	
98,10	9,428	633,51	800,33	-3,507	
98,12	9,432	634,39	799,81	-3,508	
98,14	9,436	634,22	800,36	-3,509	
98,16	9,440	633,58	800,97	-3,510	
98,18	9,444	633,36	800,78	-3,510	
98,20	9,448	633,69	800,12	-3,511	
98,22	9,452	634,00	799,88	-3,512	
98,24	9,456	631,86	800,68	-3,513	
98,26	9,460	631,68	801,15	-3,514	
98,28	9,464	632,75	800,80	-3,515	
98,30	9,468	633,64	800,08	-3,515	
98,32	9,472	634,21	799,89	-3,516	
98,34	9,476	633,25	800,77	-3,517	
98,36	9,480	631,83	801,27	-3,518	
98,38	9,484	630,68	800,92	-3,519	
98,40	9,488	630,40	800,20	-3,520	
98,42	9,492	631,07	799,81	-3,521	
98,44	9,496	630,79	800,53	-3,522	
98,46	9,500	630,22	801,15	-3,522	
98,48	9,504	630,03	800,90	-3,523	
98,50	9,508	630,26	800,21	-3,524	
98,52	9,512	630,95	799,81	-3,525	
98,54	9,516	630,19	800,52	-3,526	
98,56	9,520	629,81	801,10	-3,527	
98,58	9,524	629,97	800,84	-3,528	
98,60	9,528	630,33	800,14	-3,528	
98,62	9,532	630,73	799,88	-3,529	
98,64	9,536	629,27	800,74	-3,530	
98,66	9,540	629,08	801,31	-3,531	
98,68	9,544	629,74	801,00	-3,532	
98,70	9,548	630,18	800,28	-3,533	
98,72	9,552	631,09	799,78	-3,533	
98,74	9,556	630,45	800,47	-3,534	
98,76	9,560	628,37	801,26	-3,535	
98,78	9,564	627,04	801,16	-3,536	
98,80	9,568	626,74	800,49	-3,537	
98,82	9,572	627,68	799,83	-3,538	
98,84	9,576	628,51	800,22	-3,539	
98,86	9,580	627,64	801,10	-3,540	
98,88	9,584	626,88	801,19	-3,540	
98,90	9,588	626,73	800,60	-3,541	
98,92	9,592	627,40	799,89	-3,542	
98,94	9,596	627,65	800,05	-3,543	
98,96	9,600	627,23	800,86	-3,544	
98,98	9,604	626,89	801,03	-3,545	
99,00	9,608	626,72	800,49	-3,546	
99,02	9,612	627,42	799,84	-3,546	
99,04	9,616	626,66	800,22	-3,547	
99,06	9,620	625,59	801,07	-3,548	
99,08	9,624	626,02	801,14	-3,549	
99,10	9,628	626,60	800,54	-3,550	
99,12	9,632	627,51	799,86	-3,550	
99,14	9,636	627,27	800,20	-3,551	
99,16	9,640	625,95	801,18	-3,552	
99,18	9,644	624,43	801,37	-3,553	
99,20	9,648	623,61	800,82	-3,554	
99,22	9,652	623,84	800,06	-3,555	
99,24	9,656	625,39	799,93	-3,555	
99,26	9,660	625,65	800,73	-3,556	
99,28	9,664	624,38	801,09	-3,557	
99,30	9,668	623,59	800,67	-3,558	
99,32	9,672	624,01	799,96	-3,559	
99,34	9,676	623,67	800,04	-3,560	
99,36	9,680	622,47	800,89	-3,561	
99,38	9,684	622,71	801,14	-3,561	
99,40	9,688	623,26	800,64	-3,562	
99,42	9,692	624,04	799,92	-3,563	
99,44	9,696	624,05	800,04	-3,564	
99,46	9,700	623,04	801,01	-3,565	
99,48	9,704	622,94	801,33	-3,566	
99,50	9,708	623,27	800,85	-3,566	
99,52	9,712	623,69	800,10	-3,567	
99,54	9,716	625,05	799,86	-3,568	
99,56	9,720	624,79	800,79	-3,569	
99,58	9,724	622,63	801,41	-3,570	
99,60	9,728	620,73	801,11	-3,570	
99,62	9,732	620,10	800,39	-3,571	
99,64	9,736	621,05	799,83	-3,572	
99,66	9,740	622,13	800,35	-3,573	
99,68	9,744	621,90	801,00	-3,574	
99,70	9,748	621,85	800,85	-3,574	
99,72	9,752	622,81	800,19	-3,575	
99,74	9,756	623,89	799,82	-3,576	
99,76	9,760	621,44	800,72	-3,577	
99,78	9,764	619,65	801,50	-3,578	
99,80	9,768	619,66	801,32	-3,578	
99,82	9,772	620,08	800,62	-3,579	
99,84	9,776	621,08	799,90	-3,580	
99,86	9,780	623,18	800,05	-3,581	
99,88	9,784	622,59	800,83	-3,582	
99,90	9,788	620,97	800,96	-3,582	
99,92	9,792	620,27	800,42	-3,583	
99,94	9,796	620,94	799,82	-3,584	
99,96	9,800	619,98	800,43	-3,585	
99,98	9,804	618,89	801,45	-3,586	
100,00	9,808	618,91	801,53	-3,587	
100,02	9,812	618,04	800,92	-3,587	
100,04	9,816	617,34	800,14	-3,588	
100,06	9,820	619,12	799,86	-3,589	
100,08	9,824	619,72	800,61	-3,590	
100,10	9,828	617,97	801,08	-3,590	
100,12	9,832	616,84	800,74	-3,591	
100,14	9,836	617,17	800,03	-3,592	
100,16	9,840	617,69	800,00	-3,593	
100,18	9,844	616,34	800,97	-3,594	
100,20	9,848	616,07	801,40	-3,594	
100,22	9,852	616,50	800,99	-3,595	
100,24	9,856	616,90	800,23	-3,596	
100,26	9,860	618,12	799,81	-3,597	
100,28	9,864	618,27	800,54	-3,597	
100,30	9,868	617,34	801,18	-3,598	
100,32	9,872	616,74	800,95	-3,599	
100,34	9,876	616,81	800,25	-3,600	
100,36	9,880	617,61	799,84	-3,600	
100,38	9,884	616,83	800,57	-3,601	
100,40	9,888	616,38	801,19	-3,602	
100,42	9,892	616,58	800,94	-3,603	
100,44	9,896	616,87	800,23	-3,604	
100,46	9,900	617,55	799,82	-3,604	
100,48	9,904	616,73	800,52	-3,605	
100,50	9,908	616,32	801,11	-3,606	
100,52	9,912	616,53	800,86	-3,607	
100,54	9,916	616,91	800,15	-3,607	
100,56	9,920	617,56	799,84	-3,608	
100,58	9,924	615,56	800,80	-3,609	
100,60	9,928	613,66	801,53	-3,610	
100,62	9,932	613,19	801,30	-3,611	
100,64	9,936	613,29	800,58	-3,611	
100,66	9,940	613,84	799,89	-3,612	
100,68	9,944	614,96	800,11	-3,613	
100,70	9,948	614,54	800,76	-3,614	
100,72	9,952	613,72	800,75	-3,615	
100,74	9,956	613,57	800,15	-3,615	
100,76	9,960	613,87	799,86	-3,616	
100,78	9,964	611,16	800,78	-3,617	
100,80	9,968	610,96	801,47	-3,618	
100,82	9,972	612,03	801,21	-3,618	
100,84	9,976	611,43	800,49	-3,619	
100,86	9,980	611,00	799,82	-3,619	
100,88	9,984	610,04	800,23	-3,619	
100,90	9,988	604,46	801,11	-3,619	
100,92	9,990	595,25	801,19	-3,619	
100,94	9,991	583,97	800,60	-3,619	
100,96	9,991	571,87	799,89	-3,619	
100,98	9,991	558,85	800,12	-3,619	
101,00	9,991	546,13	801,09	-3,619	
101,02	9,991	534,89	801,34	-3,618	
101,04	9,991	524,64	800,82	-3,618	
101,06	9,991	515,33	800,06	-3,618	
101,08	9,991	507,64	799,90	-3,618	
101,10	9,991	499,38	800,81	-3,618	
101,12	9,991	490,64	801,32	-3,618	
101,14	9,991	482,97	800,96	-3,618	
101,16	9,991	476,31	800,21	-3,618	
101,18	9,991	470,81	799,84	-3,618	
101,20	9,991	464,77	800,70	-3,618	
101,22	9,991	458,73	801,39	-3,618	
101,24	9,991	453,02	801,16	-3,618	
101,26	9,991	448,08	800,44	-3,618	
101,28	9,991	443,94	799,80	-3,617	
101,30	9,991	440,83	800,28	-3,617	
101,32	9,992	435,89	801,22	-3,618	
101,34	9,991	430,48	801,31	-3,618	
101,36	9,991	425,74	800,72	-3,617	
101,38	9,991	423,28	799,97	-3,617	
101,40	9,991	422,45	799,97	-3,617	
101,42	9,991	421,48	800,83	-3,617	
101,44	9,991	421,43	801,14	-3,617	
101,46	9,991	421,68	800,67	-3,617	
101,48	9,991	422,31	799,95	-3,617	
101,50	9,991	422,37	800,06	-3,617	
101,52	9,991	421,52	801,01	-3,617	
101,54	9,991	421,47	801,31	-3,617	
101,56	9,991	421,69	800,83	-3,617	
101,58	9,991	422,10	800,08	-3,617	
101,60	9,991	422,53	799,89	-3,617	
101,62	9,991	421,68	800,75	-3,617	
101,64	9,992	421,42	801,22	-3,617	
101,66	9,991	421,65	800,85	-3,617	
101,68	9,991	422,09	800,12	-3,617	
101,70	9,991	422,43	799,91	-3,617	
101,72	9,991	421,51	800,72	-3,617	
101,74	9,991	421,32	801,17	-3,617	
101,76	9,991	421,61	800,79	-3,617	
101,78	9,991	422,16	800,07	-3,617	
101,80	9,991	422,43	799,93	-3,617	
101,82	9,991	421,50	800,72	-3,617	
101,84	9,992	421,28	801,06	-3,617	
101,86	9,991	411,32	800,62	-3,617	
101,88	9,991	378,42	799,91	-3,617	
101,90	9,991	351,92	800,06	-3,617	
101,92	9,992	340,88	801,08	-3,617	
101,94	9,992	338,29	801,43	-3,617	
101,96	9,991	336,80	800,95	-3,617	
101,98	9,991	334,31	800,19	-3,616	
102,00	9,991	333,55	799,79	-3,616	
102,02	9,991	332,18	800,61	-3,617	
102,04	9,991	328,42	801,32	-3,617	
102,06	9,991	324,98	801,12	-3,617	
102,08	9,991	322,52	800,42	-3,617	
102,10	9,991	321,75	799,82	-3,617	
102,12	9,991	320,68	800,26	-3,617	
102,14	9,992	318,96	800,95	-3,617	
102,16	9,991	317,89	800,86	-3,617	
102,18	9,991	316,62	800,22	-3,617	
102,20	9,991	315,68	799,81	-3,616	
102,22	9,991	312,40	800,66	-3,617	
102,24	9,992	309,34	801,48	-3,617	
102,26	9,991	307,42	801,33	-3,617	
102,28	9,991	305,49	800,64	-3,616	
102,30	9,991	304,13	799,91	-3,616	
102,32	9,991	304,00	800,12	-3,616	
102,34	9,992	301,30	801,08	-3,617	
102,36	9,991	298,53	801,32	-3,617	
102,38	9,991	297,45	800,79	-3,616	
102,40	9,991	296,86	800,01	-3,616	
102,42	9,991	296,92	799,23	-3,616	
102,44	9,991	301,40	798,48	-3,616	
102,46	9,991	305,95	797,72	-3,616	
102,48	9,991	308,73	796,97	-3,616	
102,50	9,991	311,85	796,21	-3,616	
102,52	9,991	315,93	795,47	-3,616	
102,54	9,991	319,82	794,73	-3,616	
102,56	9,991	323,36	793,99	-3,616	
102,58	9,991	327,39	793,27	-3,616	
102,60	9,991	331,84	792,54	-3,616	
102,62	9,991	336,27	791,81	-3,616	
102,64	9,991	340,13	791,08	-3,616	
102,66	9,991	344,19	790,36	-3,616	
102,68	9,991	348,17	789,64	-3,616	
102,70	9,991	351,81	788,92	-3,616	
102,72	9,991	355,22	788,21	-3,616	
102,74	9,991	358,60	787,51	-3,616	
102,76	9,991	361,94	786,81	-3,616	
102,78	9,991	365,26	786,11	-3,616	
102,80	9,991	368,63	785,40	-3,616	
102,82	9,991	372,06	784,68	-3,615	
102,84	9,991	375,36	783,98	-3,615	
102,86	9,991	378,01	783,30	-3,615	
102,88	9,991	380,69	782,60	-3,615	
102,90	9,991	383,81	781,91	-3,615	
102,92	9,991	387,13	781,23	-3,615	
102,94	9,991	390,13	780,55	-3,615	
102,96	9,991	392,70	779,87	-3,615	
102,98	9,991	395,54	779,19	-3,615	
103,00	9,991	398,18	778,50	-3,615	
103,02	9,991	400,55	777,82	-3,615	
103,04	9,991	402,85	777,15	-3,615	
103,06	9,991	405,59	776,48	-3,615	
103,08	9,991	408,08	775,81	-3,615	
103,10	9,991	410,74	775,14	-3,615	
103,12	9,991	413,53	774,48	-3,615	
103,14	9,991	416,06	773,82	-3,615	
103,16	9,991	418,32	773,15	-3,615	
103,18	9,991	420,49	772,49	-3,615	
103,20	9,991	422,08	771,84	-3,615	
103,22	9,991	423,80	771,20	-3,615	
103,24	9,991	426,01	770,56	-3,615	
103,26	9,991	427,91	769,91	-3,615	
103,28	9,991	429,68	769,27	-3,615	
103,30	9,991	431,33	768,63	-3,615	
103,32	9,991	433,13	768,00	-3,615	
103,34	9,991	434,70	767,38	-3,615	
103,36	9,991	435,78	766,74	-3,615	
103,38	9,991	437,35	766,10	-3,615	
103,40	9,991	438,48	765,46	-3,615	
103,42	9,991	439,86	764,83	-3,615	
103,44	9,991	441,39	764,21	-3,615	
103,46	9,991	442,16	763,58	-3,615	
103,48	9,991	443,31	762,96	-3,615	
103,50	9,991	444,74	762,35	-3,615	
103,52	9,991	445,37	761,75	-3,615	
103,54	9,991	445,36	761,15	-3,615	
103,56	9,991	445,30	760,56	-3,615	
103,58	9,991	445,76	759,96	-3,615	
103,60	9,991	447,31	759,36	-3,615	
103,62	9,991	448,50	758,75	-3,615	
103,64	9,991	448,89	758,16	-3,615	
103,66	9,991	448,90	757,57	-3,615	
103,68	9,991	448,88	756,99	-3,615	
103,70	9,991	448,84	756,42	-3,615	
103,72	9,991	447,70	755,85	-3,615	
103,74	9,991	446,21	755,29	-3,615	
103,76	9,991	445,53	754,73	-3,614	
103,78	9,991	445,42	754,18	-3,614	
103,80	9,991	445,44	753,63	-3,615	
103,82	9,991	444,98	753,09	-3,615	
103,84	9,991	443,51	752,53	-3,615	
103,86	9,991	442,41	751,98	-3,615	
103,88	9,991	442,04	751,43	-3,615	
103,90	9,991	440,95	750,90	-3,615	
103,92	9,991	439,44	750,37	-3,615	
103,94	9,991	438,66	749,85	-3,615	
103,96	9,991	437,49	749,33	-3,615	
103,98	9,991	436,01	748,82	-3,615	
104,00	9,991	434,36	748,31	-3,615	
104,02	9,991	432,39	747,81	-3,615	
104,04	9,991	430,23	747,33	-3,615	
104,06	9,991	428,53	746,85	-3,615	
104,08	9,991	426,67	746,37	-3,615	
104,10	9,991	424,59	745,90	-3,615	
104,12	9,991	422,44	745,42	-3,615	
104,14	9,991	420,14	744,97	-3,615	
104,16	9,991	417,81	744,52	-3,615	
104,18	9,991	415,62	744,07	-3,615	
104,20	9,991	413,08	743,60	-3,615	
104,22	9,991	409,97	743,15	-3,616	
104,24	9,991	406,96	742,73	-3,616	
104,26	9,991	404,36	742,31	-3,616	
104,28	9,991	401,37	741,89	-3,616	
104,30	9,991	398,11	741,48	-3,616	
104,32	9,991	394,83	741,08	-3,616	
104,34	9,991	391,47	740,67	-3,617	
104,36	9,991	388,10	740,27	-3,617	
104,38	9,991	384,75	739,88	-3,617	
104,40	9,991	381,33	739,50	-3,617	
104,42	9,991	377,96	739,13	-3,617	
104,44	9,991	374,63	738,75	-3,618	
104,46	9,991	371,27	738,38	-3,618	
104,48	9,991	367,88	738,01	-3,618	
104,50	9,991	364,50	737,64	-3,618	
104,52	9,991	361,14	737,26	-3,618	
104,54	9,991	357,40	736,88	-3,619	
104,56	9,991	353,24	736,50	-3,619	
104,58	9,991	349,43	736,13	-3,619	
104,60	9,991	345,98	735,76	-3,619	
104,62	9,991	342,53	735,39	-3,620	
104,64	9,991	338,52	735,05	-3,620	
104,66	9,991	334,55	734,70	-3,620	
104,68	9,991	331,03	734,35	-3,620	
104,70	9,991	327,72	734,01	-3,621	
104,72	9,991	324,05	733,67	-3,621	
104,74	9,991	319,90	733,33	-3,621	
104,76	9,991	316,39	732,99	-3,621	
104,78	9,991	313,71	732,65	-3,622	
104,80	9,991	310,83	732,32	-3,622	
104,82	9,991	308,21	731,99	-3,622	
104,84	9,991	305,47	731,67	-3,622	
104,86	9,991	302,31	731,34	-3,622	
104,88	9,991	298,36	731,01	-3,623	
104,90	9,991	294,34	730,69	-3,623	
104,92	9,991	290,38	730,38	-3,623	
104,94	9,991	286,18	730,06	-3,623	
104,96	9,991	282,32	729,74	-3,624	
104,98	9,991	278,88	729,42	-3,624	
105,00	9,991	275,56	729,11	-3,624	
105,02	9,991	272,61	728,80	-3,624	
105,04	9,991	270,09	728,51	-3,625	
105,06	9,991	267,21	728,20	-3,625	
105,08	9,991	264,02	727,88	-3,625	
105,10	9,991	261,34	727,56	-3,625	
105,12	9,991	258,60	727,25	-3,626	
105,14	9,991	255,81	726,94	-3,626	
105,16	9,991	253,22	726,64	-3,626	
105,18	9,991	250,35	726,33	-3,626	
105,20	9,991	247,78	726,02	-3,627	
105,22	9,991	245,43	725,71	-3,627	
105,24	9,991	243,20	725,41	-3,627	
105,26	9,991	241,04	725,10	-3,627	
105,28	9,991	238,80	724,79	-3,627	
105,30	9,991	236,51	724,48	-3,628	
105,32	9,991	234,28	724,17	-3,628	
105,34	9,991	232,03	723,87	-3,628	
105,36	9,991	229,71	723,57	-3,628	
105,38	9,991	227,83	723,27	-3,629	
105,40	9,991	226,12	722,98	-3,629	
105,42	9,991	224,11	722,68	-3,629	
105,44	9,991	221,86	722,40	-3,629	
105,46	9,991	220,50	722,11	-3,629	
105,48	9,991	219,16	721,81	-3,630	
105,50	9,991	217,71	721,50	-3,630	
105,52	9,991	216,09	721,22	-3,630	
105,54	9,991	214,53	720,92	-3,630	
105,56	9,991	213,37	720,63	-3,630	
105,58	9,991	211,80	720,34	-3,630	
105,60	9,991	210,64	720,04	-3,631	
105,62	9,991	209,22	719,73	-3,631	
105,64	9,991	207,68	719,44	-3,631	
105,66	9,991	206,58	719,15	-3,631	
105,68	9,991	205,00	718,85	-3,631	
105,70	9,991	203,90	718,57	-3,632	
105,72	9,991	203,57	718,28	-3,632	
105,74	9,991	202,59	718,01	-3,632	
105,76	9,991	201,12	717,73	-3,632	
105,78	9,991	200,30	717,44	-3,632	
105,80	9,991	199,11	717,15	-3,632	
105,82	9,991	197,73	716,86	-3,633	
105,84	9,991	197,12	716,57	-3,633	
105,86	9,991	196,92	716,29	-3,633	
105,88	9,991	195,84	716,00	-3,633	
105,90	9,991	194,34	715,71	-3,633	
105,92	9,991	193,68	715,41	-3,633	
105,94	9,991	193,65	715,12	-3,634	
105,96	9,991	193,66	714,83	-3,634	
105,98	9,991	193,66	714,54	-3,634	
106,00	9,991	193,62	714,25	-3,634	
106,02	9,991	193,15	713,95	-3,634	
106,04	9,991	191,67	713,66	-3,634	
106,06	9,991	190,46	713,37	-3,634	
106,08	9,991	190,13	713,09	-3,635	
106,10	9,991	190,14	712,80	-3,635	
106,12	9,991	190,20	712,50	-3,635	
106,14	9,991	190,23	712,19	-3,635	
106,16	9,991	190,25	711,88	-3,635	
106,18	9,991	190,24	711,58	-3,635	
106,20	9,991	190,20	711,27	-3,636	
106,22	9,991	190,18	710,97	-3,636	
106,24	9,991	190,20	710,67	-3,636	
106,26	9,991	190,26	710,37	-3,636	
106,28	9,991	190,31	710,06	-3,636	
106,30	9,991	190,26	709,76	-3,636	
106,32	9,991	190,24	709,46	-3,636	
106,34	9,991	190,22	709,15	-3,636	
106,36	9,991	190,25	708,85	-3,637	
106,38	9,991	190,33	708,55	-3,637	
106,40	9,991	190,36	708,25	-3,637	
106,42	9,991	190,28	707,94	-3,637	
106,44	9,991	190,25	707,63	-3,637	
106,46	9,991	190,30	707,32	-3,637	
106,48	9,991	190,33	707,01	-3,637	
106,50	9,991	190,73	706,71	-3,637	
106,52	9,991	192,15	706,39	-3,638	
106,54	9,991	193,26	706,07	-3,638	
106,56	9,991	193,62	705,75	-3,638	
106,58	9,991	193,60	705,45	-3,638	
106,60	9,991	193,53	705,13	-3,638	
106,62	9,991	193,46	704,82	-3,638	
106,64	9,991	193,49	704,50	-3,638	
106,66	9,991	194,55	704,18	-3,638	
106,68	9,991	196,07	703,86	-3,639	
106,70	9,991	196,76	703,56	-3,639	
106,72	9,991	196,89	703,26	-3,639	
106,74	9,991	196,89	702,93	-3,639	
106,76	9,991	196,89	702,61	-3,639	
106,78	9,991	197,34	702,29	-3,639	
106,80	9,991	198,85	701,98	-3,639	
106,82	9,991	199,99	701,67	-3,639	
106,84	9,991	200,24	701,36	-3,639	
106,86	9,991	200,17	701,04	-3,640	
106,88	9,991	200,24	700,72	-3,640	
106,90	9,991	201,30	700,39	-3,640	
106,92	9,991	202,76	700,08	-3,640	
106,94	9,991	203,43	699,76	-3,640	
106,96	9,991	203,55	699,44	-3,640	
106,98	9,991	203,93	699,13	-3,640	
107,00	9,991	205,34	698,82	-3,640	
107,02	9,991	206,59	698,51	-3,640	
107,04	9,991	207,00	698,18	-3,641	
107,06	9,991	207,38	697,86	-3,641	
107,08	9,991	208,82	697,54	-3,641	
107,10	9,991	209,99	697,22	-3,641	
107,12	9,991	210,31	696,90	-3,641	
107,14	9,991	210,30	696,58	-3,641	
107,16	9,991	211,31	696,26	-3,641	
107,18	9,991	212,81	695,95	-3,641	
107,20	9,991	213,52	695,63	-3,642	
107,22	9,991	213,68	695,32	-3,642	
107,24	9,991	214,66	695,00	-3,642	
107,26	9,991	216,14	694,68	-3,642	
107,28	9,991	216,90	694,36	-3,642	
107,30	9,991	217,42	694,05	-3,642	
107,32	9,991	218,91	693,74	-3,642	
107,34	9,991	220,10	693,42	-3,642	
107,36	9,991	220,47	693,10	-3,642	
107,38	9,991	220,89	692,77	-3,643	
107,40	9,991	222,24	692,44	-3,643	
107,42	9,991	223,33	692,11	-3,643	
107,44	9,991	223,73	691,79	-3,643	
107,46	9,991	224,76	691,46	-3,643	
107,48	9,991	226,28	691,14	-3,643	
107,50	9,991	227,02	690,83	-3,643	
107,52	9,991	227,50	690,50	-3,643	
107,54	9,991	228,92	690,17	-3,643	
107,56	9,991	230,08	689,84	-3,643	
107,58	9,991	230,50	689,52	-3,643	
107,60	9,991	231,53	689,20	-3,644	
107,62	9,991	232,99	688,88	-3,644	
107,64	9,991	233,75	688,55	-3,644	
107,66	9,991	234,89	688,22	-3,644	
107,68	9,991	236,44	687,90	-3,644	
107,70	9,991	237,27	687,57	-3,644	
107,72	9,991	238,39	687,24	-3,644	
107,74	9,991	239,85	686,90	-3,644	
107,76	9,991	240,55	686,56	-3,644	
107,78	9,991	240,98	686,22	-3,644	
107,80	9,991	242,39	685,89	-3,645	
107,82	9,991	243,58	685,58	-3,645	
107,84	9,991	244,37	685,27	-3,645	
107,86	9,991	245,84	684,95	-3,645	
107,88	9,991	247,04	684,63	-3,645	
107,90	9,991	248,43	684,31	-3,644	
107,92	9,991	249,91	683,97	-3,642	
107,94	9,991	250,74	683,64	-3,640	
107,96	9,991	251,87	683,31	-3,639	
107,98	9,991	253,33	682,98	-3,640	
108,00	9,991	254,98	682,65	-3,640	
108,02	9,991	256,58	682,31	-3,640	
108,04	9,991	257,69	681,97	-3,640	
108,06	9,991	259,22	681,64	-3,640	
108,08	9,991	260,38	681,30	-3,640	
108,10	9,991	261,15	680,97	-3,640	
108,12	9,991	262,59	680,64	-3,640	
108,14	9,991	263,81	680,30	-3,642	
108,16	9,991	265,17	679,96	-3,645	
108,18	9,991	266,67	679,62	-3,646	
108,20	9,991	267,46	679,29	-3,647	
108,22	9,991	268,58	678,97	-3,647	
108,24	9,991	270,10	678,64	-3,647	
108,26	9,991	271,11	678,32	-3,647	
108,28	9,991	272,60	677,99	-3,647	
108,30	9,991	274,16	677,65	-3,647	
108,32	9,991	276,01	677,32	-3,647	
108,34	9,991	277,25	676,99	-3,647	
108,36	9,991	278,57	676,64	-3,647	
108,38	9,991	280,11	676,31	-3,647	
108,40	9,991	281,76	675,97	-3,647	
108,42	9,991	283,36	675,64	-3,648	
108,44	9,991	285,06	675,29	-3,648	
108,46	9,991	286,76	674,96	-3,648	
108,48	9,991	288,54	674,64	-3,648	
108,50	9,991	290,27	674,30	-3,648	
108,52	9,991	292,03	673,97	-3,648	
108,54	9,991	293,64	673,63	-3,648	
108,56	9,991	295,29	673,30	-3,648	
108,58	9,991	296,95	672,97	-3,648	
108,60	9,991	298,65	672,64	-3,648	
108,62	9,991	300,18	672,30	-3,648	
108,64	9,991	301,77	671,98	-3,649	
108,66	9,991	303,37	671,65	-3,649	
108,68	9,991	304,55	671,31	-3,649	
108,70	9,991	306,15	670,97	-3,649	
108,72	9,991	307,32	670,64	-3,649	
108,74	9,991	308,03	670,30	-3,649	
108,76	9,991	309,48	669,95	-3,649	
108,78	9,991	310,74	669,62	-3,649	
108,80	9,991	312,12	669,28	-3,649	
108,82	9,991	313,57	668,96	-3,649	
108,84	9,991	314,66	668,62	-3,649	
108,86	9,991	316,34	668,27	-3,650	
108,88	9,991	317,97	667,93	-3,650	
108,90	9,991	319,78	667,59	-3,650	
108,92	9,991	321,27	667,26	-3,650	
108,94	9,991	323,07	666,93	-3,650	
108,96	9,991	324,58	666,60	-3,650	
108,98	9,991	326,34	666,26	-3,650	