Zeit  1 - Standardmessrate [s]	ZwickWeg [mm]	ZwickKraft [N]	Pyrometer [°C]	Maytec [mm]
0	-0,5037	156,32	150,11	-0,00101	
0,02000	-0,5037	156,33	150,11	-0,00101	
0,04000	-0,5037	156,30	150,11	-0,00097	
0,06000	-0,5037	156,28	150,11	-0,00088	
0,08000	-0,5037	156,29	150,11	-0,00083	
0,1000	-0,5037	156,26	150,11	-0,00081	
0,1200	-0,5037	156,30	150,11	-0,00079	
0,1400	-0,5037	156,32	150,11	-0,00091	
0,1600	-0,5037	156,30	150,12	-0,00104	
0,1800	-0,5036	156,32	150,12	-0,00108	
0,2000	-0,5036	156,41	150,11	-0,00096	
0,2200	-0,5036	156,44	150,11	-0,00082	
0,2400	-0,5037	156,43	150,11	-0,00072	
0,2600	-0,5037	156,37	150,11	-0,00066	
0,2800	-0,5037	156,29	150,12	-0,00072	
0,3000	-0,5037	156,25	150,11	-0,00089	
0,3200	-0,5037	156,33	150,11	-0,00101	
0,3400	-0,5037	156,38	150,11	-0,00099	
0,3600	-0,5036	156,39	150,11	-0,00089	
0,3800	-0,5036	156,37	150,11	-0,00074	
0,4000	-0,5037	156,38	150,12	-0,00067	
0,4200	-0,5037	156,39	150,11	-0,00069	
0,4400	-0,5037	156,43	150,11	-0,00071	
0,4600	-0,5037	156,44	150,11	-0,00086	
0,4800	-0,5037	156,45	150,11	-0,00100	
0,5000	-0,5037	156,43	150,11	-0,00104	
0,5200	-0,5037	156,37	150,12	-0,00099	
0,5400	-0,5037	156,37	150,11	-0,00090	
0,5600	-0,5037	156,38	150,11	-0,00084	
0,5800	-0,5037	156,40	150,11	-0,00078	
0,6000	-0,5037	156,38	150,11	-0,00082	
0,6200	-0,5037	156,35	150,12	-0,00094	
0,6400	-0,5037	156,31	150,12	-0,00107	
0,6600	-0,5037	156,30	150,11	-0,00111	
0,6800	-0,5037	156,33	150,11	-0,00105	
0,7000	-0,5037	156,31	150,10	-0,00098	
0,7200	-0,5037	156,29	150,11	-0,00088	
0,7400	-0,5037	156,27	150,11	-0,00077	
0,7600	-0,5037	156,23	150,12	-0,00075	
0,7800	-0,5037	156,21	150,11	-0,00082	
0,8000	-0,5037	156,23	150,11	-0,00098	
0,8200	-0,5037	156,28	150,11	-0,00109	
0,8400	-0,5037	156,30	150,11	-0,00107	
0,8600	-0,5037	156,38	150,11	-0,00101	
0,8800	-0,5037	156,39	150,12	-0,00097	
0,9000	-0,5036	156,36	150,11	-0,00087	
0,9200	-0,5036	156,38	150,11	-0,00074	
0,9400	-0,5036	156,36	150,11	-0,00072	
0,9600	-0,5036	156,34	150,11	-0,00083	
0,9800	-0,5037	156,35	150,12	-0,00095	
1,000	-0,5037	156,33	150,11	-0,00101	
1,020	-0,5037	156,32	150,11	-0,00102	
1,040	-0,5037	156,28	150,10	-0,00090	
1,060	-0,5036	156,27	150,11	-0,00082	
1,080	-0,5036	156,31	150,11	-0,00077	
1,100	-0,5036	156,36	150,11	-0,00079	
1,120	-0,5036	156,39	150,11	-0,00086	
1,140	-0,5036	156,33	150,11	-0,00091	
1,160	-0,5036	156,34	150,11	-0,00098	
1,180	-0,5036	156,35	150,11	-0,00105	
1,200	-0,5036	156,39	150,10	-0,00099	
1,220	-0,5037	156,43	150,10	-0,00091	
1,240	-0,5037	156,47	150,11	-0,00088	
1,260	-0,5037	156,50	150,11	-0,00083	
1,280	-0,5037	156,54	150,11	-0,00083	
1,300	-0,5037	156,60	150,11	-0,00087	
1,320	-0,5037	156,62	150,10	-0,00093	
1,340	-0,5037	156,56	150,10	-0,00104	
1,360	-0,5037	156,56	150,11	-0,00105	
1,380	-0,5037	156,48	150,11	-0,00102	
1,400	-0,5037	156,42	150,12	-0,00097	
1,420	-0,5037	156,41	150,11	-0,00085	
1,440	-0,5037	156,43	150,11	-0,00080	
1,460	-0,5037	156,44	150,11	-0,00084	
1,480	-0,5037	156,39	150,11	-0,00093	
1,500	-0,5037	156,41	150,11	-0,00102	
1,520	-0,5037	156,50	150,12	-0,00103	
1,540	-0,5037	156,50	150,11	-0,00093	
1,560	-0,5037	156,48	150,11	-0,00076	
1,580	-0,5037	156,46	150,11	-0,00070	
1,600	-0,5037	156,49	150,11	-0,00069	
1,620	-0,5037	156,54	150,11	-0,00074	
1,640	-0,5036	156,51	150,12	-0,00086	
1,660	-0,5037	156,47	150,11	-0,00099	
1,680	-0,5037	156,46	150,11	-0,00098	
1,700	-0,5037	156,37	150,10	-0,00094	
1,720	-0,5037	156,33	150,10	-0,00095	
1,740	-0,5037	156,39	150,10	-0,00087	
1,760	-0,5037	156,41	150,11	-0,00084	
1,780	-0,5037	156,41	150,11	-0,00079	
1,800	-0,5037	156,48	150,11	-0,00086	
1,820	-0,5037	156,48	150,11	-0,00097	
1,840	-0,5037	156,45	150,11	-0,00097	
1,860	-0,5037	156,45	150,11	-0,00096	
1,880	-0,5037	156,46	150,11	-0,00092	
1,900	-0,5037	156,45	150,11	-0,00088	
1,920	-0,5037	156,43	150,11	-0,00085	
1,940	-0,5037	156,43	150,11	-0,00085	
1,960	-0,5037	156,46	150,11	-0,00089	
1,980	-0,5037	156,45	150,11	-0,00097	
2,000	-0,5037	156,42	150,11	-0,00103	
2,020	-0,5037	156,43	150,12	-0,00098	
2,040	-0,5037	156,51	150,12	-0,00096	
2,060	-0,5037	156,51	150,11	-0,00093	
2,080	-0,5037	156,46	150,11	-0,00080	
2,100	-0,5037	156,44	150,11	-0,00069	
2,120	-0,5037	156,42	150,11	-0,00074	
2,140	-0,5037	156,45	150,11	-0,00093	
2,160	-0,5037	156,47	150,11	-0,00100	
2,180	-0,5037	156,51	150,11	-0,00102	
2,200	-0,5037	156,55	150,11	-0,00101	
2,220	-0,5037	156,53	150,10	-0,00096	
2,240	-0,5037	156,49	150,11	-0,00082	
2,260	-0,5037	156,45	150,11	-0,00070	
2,280	-0,5037	156,39	150,12	-0,00070	
2,300	-0,5037	156,40	150,11	-0,00081	
2,320	-0,5037	156,46	150,11	-0,00090	
2,340	-0,5037	156,46	150,10	-0,00099	
2,360	-0,5037	156,42	150,11	-0,00100	
2,380	-0,5037	156,40	150,11	-0,00089	
2,400	-0,5037	156,41	150,12	-0,00074	
2,420	-0,5037	156,38	150,12	-0,00063	
2,440	-0,5037	156,39	150,11	-0,00058	
2,460	-0,5037	156,49	150,11	-0,00065	
2,480	-0,5037	156,52	150,11	-0,00082	
2,500	-0,5037	156,43	150,12	-0,00093	
2,520	-0,5037	156,35	150,11	-0,00100	
2,540	-0,5037	156,38	150,11	-0,00098	
2,560	-0,5037	156,38	150,11	-0,00090	
2,580	-0,5037	156,32	150,11	-0,00080	
2,600	-0,5037	156,33	150,11	-0,00079	
2,620	-0,5037	156,36	150,11	-0,00075	
2,640	-0,5037	156,99	150,12	-0,00087	
2,660	-0,5037	158,57	150,12	-0,00101	
2,680	-0,5037	159,60	150,11	-0,00107	
2,700	-0,5037	159,68	150,11	-0,00101	
2,720	-0,5037	158,46	150,11	-0,00088	
2,740	-0,5037	157,04	150,12	-0,00074	
2,760	-0,5037	156,49	150,12	-0,00071	
2,780	-0,5037	156,42	150,11	-0,00079	
2,800	-0,5037	156,47	150,11	-0,00086	
2,820	-0,5037	156,49	150,11	-0,00099	
2,840	-0,5037	156,41	150,11	-0,00108	
2,860	-0,5037	156,38	150,11	-0,00102	
2,880	-0,5037	157,02	150,11	-0,00094	
2,900	-0,5037	158,54	150,11	-0,00084	
2,920	-0,5037	159,56	150,11	-0,00073	
2,940	-0,5037	159,84	150,11	-0,00070	
2,960	-0,5037	159,17	150,11	-0,00081	
2,980	-0,5037	157,58	150,11	-0,00097	
3,000	-0,5037	156,74	150,12	-0,00102	
3,020	-0,5037	157,13	150,11	-0,00103	
3,040	-0,5037	157,00	150,11	-0,00096	
3,060	-0,5037	156,55	150,11	-0,00081	
3,080	-0,5037	156,34	150,11	-0,00068	
3,100	-0,5037	156,33	150,11	-0,00070	
3,120	-0,5037	156,39	150,12	-0,00076	
3,140	-0,5037	156,41	150,12	-0,00087	
3,160	-0,5037	156,38	150,11	-0,00101	
3,180	-0,5037	156,37	150,11	-0,00108	
3,200	-0,5037	156,41	150,11	-0,00101	
3,220	-0,5037	156,43	150,11	-0,00087	
3,240	-0,5037	156,40	150,11	-0,00080	
3,260	-0,5037	156,97	150,11	-0,00077	
3,280	-0,5037	158,54	150,11	-0,00078	
3,300	-0,5037	159,56	150,11	-0,00087	
3,320	-0,5037	159,20	150,11	-0,00101	
3,340	-0,5037	157,66	150,11	-0,00110	
3,360	-0,5037	156,68	150,12	-0,00102	
3,380	-0,5037	156,42	150,11	-0,00089	
3,400	-0,5037	156,44	150,11	-0,00080	
3,420	-0,5037	156,50	150,11	-0,00074	
3,440	-0,5037	156,47	150,11	-0,00074	
3,460	-0,5037	156,49	150,11	-0,00084	
3,480	-0,5037	156,47	150,12	-0,00093	
3,500	-0,5037	156,39	150,11	-0,00104	
3,520	-0,5037	156,39	150,11	-0,00107	
3,540	-0,5037	156,41	150,11	-0,00098	
3,560	-0,5037	156,44	150,11	-0,00089	
3,580	-0,5037	156,49	150,11	-0,00080	
3,600	-0,5037	157,08	150,11	-0,00081	
3,620	-0,5037	158,42	150,11	-0,00084	
3,640	-0,5037	158,18	150,11	-0,00093	
3,660	-0,5037	157,06	150,10	-0,00100	
3,680	-0,5037	156,45	150,10	-0,00105	
3,700	-0,5037	156,35	150,10	-0,00102	
3,720	-0,5037	156,43	150,11	-0,00095	
3,740	-0,5037	156,47	150,11	-0,00091	
3,760	-0,5037	156,47	150,11	-0,00085	
3,780	-0,5037	156,54	150,11	-0,00084	
3,800	-0,5037	156,57	150,11	-0,00094	
3,820	-0,5037	156,57	150,11	-0,00102	
3,840	-0,5037	156,56	150,11	-0,00108	
3,860	-0,5037	156,54	150,12	-0,00110	
3,880	-0,5036	156,47	150,12	-0,00105	
3,900	-0,5036	156,40	150,11	-0,00090	
3,920	-0,5037	156,42	150,11	-0,00086	
3,940	-0,5037	156,51	150,11	-0,00085	
3,960	-0,5036	156,53	150,12	-0,00085	
3,980	-0,5036	156,50	150,12	-0,00087	
4,000	-0,5036	156,50	150,11	-0,00100	
4,020	-0,5036	156,54	150,11	-0,00109	
4,040	-0,5036	156,59	150,11	-0,00102	
4,060	-0,5036	156,53	150,12	-0,00083	
4,080	-0,5036	156,42	150,12	-0,00074	
4,100	-0,5036	156,38	150,11	-0,00075	
4,120	-0,5036	156,38	150,11	-0,00075	
4,140	-0,5037	156,45	150,11	-0,00081	
4,160	-0,5037	156,48	150,11	-0,00095	
4,180	-0,5037	156,46	150,11	-0,00103	
4,200	-0,5037	156,46	150,11	-0,00099	
4,220	-0,5037	156,51	150,11	-0,00097	
4,240	-0,5037	156,55	150,11	-0,00091	
4,260	-0,5037	156,51	150,11	-0,00079	
4,280	-0,5037	156,47	150,11	-0,00074	
4,300	-0,5037	156,45	150,11	-0,00078	
4,320	-0,5037	156,39	150,12	-0,00087	
4,340	-0,5037	156,42	150,11	-0,00102	
4,360	-0,5037	156,45	150,11	-0,00111	
4,380	-0,5037	156,47	150,10	-0,00110	
4,400	-0,5037	156,48	150,10	-0,00106	
4,420	-0,5037	156,51	150,10	-0,00099	
4,440	-0,5037	156,54	150,11	-0,00088	
4,460	-0,5037	156,58	150,11	-0,00081	
4,480	-0,5037	156,64	150,11	-0,00083	
4,500	-0,5037	156,61	150,11	-0,00090	
4,520	-0,5037	156,52	150,10	-0,00100	
4,540	-0,5037	156,51	150,10	-0,00097	
4,560	-0,5037	156,57	150,11	-0,00087	
4,580	-0,5037	156,57	150,11	-0,00080	
4,600	-0,5037	156,55	150,11	-0,00076	
4,620	-0,5037	156,54	150,11	-0,00075	
4,640	-0,5037	156,52	150,11	-0,00081	
4,660	-0,5037	156,47	150,11	-0,00096	
4,680	-0,5037	156,43	150,11	-0,00105	
4,700	-0,5037	156,50	150,11	-0,00097	
4,720	-0,5037	156,56	150,12	-0,00092	
4,740	-0,5037	156,48	150,12	-0,00091	
4,760	-0,5037	156,41	150,11	-0,00083	
4,780	-0,5037	156,42	150,11	-0,00074	
4,800	-0,5037	156,43	150,11	-0,00079	
4,820	-0,5037	156,40	150,11	-0,00095	
4,840	-0,5037	156,41	150,12	-0,00103	
4,860	-0,5037	156,45	150,11	-0,00108	
4,880	-0,5037	156,45	150,11	-0,00098	
4,900	-0,5037	156,47	150,11	-0,00079	
4,920	-0,5037	156,55	150,11	-0,00071	
4,940	-0,5037	156,58	150,12	-0,00068	
4,960	-0,5037	156,57	150,12	-0,00078	
4,980	-0,5037	156,54	150,11	-0,00092	
5,000	-0,5037	156,53	150,11	-0,00101	
5,020	-0,5037	156,52	150,11	-0,00110	
5,040	-0,5037	156,50	150,11	-0,00111	
5,060	-0,5037	156,49	150,12	-0,00098	
5,080	-0,5037	156,52	150,11	-0,00082	
5,100	-0,5037	156,53	150,11	-0,00070	
5,120	-0,5037	156,51	150,11	-0,00074	
5,140	-0,5037	156,49	150,11	-0,00092	
5,160	-0,5037	156,49	150,11	-0,00104	
5,180	-0,5037	156,51	150,12	-0,00106	
5,200	-0,5037	156,53	150,11	-0,00100	
5,220	-0,5037	156,52	150,11	-0,00090	
5,240	-0,5037	156,48	150,11	-0,00080	
5,260	-0,5037	156,48	150,11	-0,00073	
5,280	-0,5037	156,46	150,12	-0,00073	
5,300	-0,5037	156,42	150,12	-0,00077	
5,320	-0,5037	156,42	150,11	-0,00084	
5,340	-0,5037	156,48	150,11	-0,00095	
5,360	-0,5037	156,55	150,11	-0,00102	
5,380	-0,5037	156,59	150,11	-0,00098	
5,400	-0,5037	156,57	150,12	-0,00085	
5,420	-0,5037	156,53	150,12	-0,00076	
5,440	-0,5037	156,52	150,11	-0,00075	
5,460	-0,5037	156,52	150,11	-0,00078	
5,480	-0,5037	156,52	150,10	-0,00086	
5,500	-0,5037	156,48	150,11	-0,00092	
5,520	-0,5037	156,44	150,11	-0,00099	
5,540	-0,5037	156,44	150,12	-0,00105	
5,560	-0,5037	156,46	150,12	-0,00105	
5,580	-0,5037	156,48	150,11	-0,00089	
5,600	-0,5037	156,49	150,10	-0,00075	
5,620	-0,5037	156,52	150,11	-0,00080	
5,640	-0,5037	156,53	150,11	-0,00091	
5,660	-0,5037	156,48	150,12	-0,00098	
5,680	-0,5037	156,86	150,11	-0,00102	
5,700	-0,5037	157,15	150,11	-0,00095	
5,720	-0,5037	156,78	150,11	-0,00085	
5,740	-0,5037	156,51	150,11	-0,00078	
5,760	-0,5037	156,48	150,11	-0,00077	
5,780	-0,5037	156,49	150,12	-0,00079	
5,800	-0,5037	156,48	150,11	-0,00088	
5,820	-0,5037	156,50	150,11	-0,00096	
5,840	-0,5037	156,55	150,11	-0,00104	
5,860	-0,5037	156,51	150,11	-0,00105	
5,880	-0,5037	156,43	150,11	-0,00091	
5,900	-0,5037	156,42	150,12	-0,00075	
5,920	-0,5037	156,38	150,12	-0,00073	
5,940	-0,5037	156,37	150,11	-0,00067	
5,960	-0,5037	156,40	150,11	-0,00066	
5,980	-0,5037	156,42	150,12	-0,00083	
6,000	-0,5037	156,43	150,12	-0,00102	
6,020	-0,5037	156,44	150,11	-0,00106	
6,040	-0,5037	156,49	150,11	-0,00099	
6,060	-0,5037	156,48	150,11	-0,00086	
6,080	-0,5037	156,41	150,11	-0,00071	
6,100	-0,5037	156,40	150,11	-0,00062	
6,120	-0,5037	156,43	150,12	-0,00078	
6,140	-0,5037	156,41	150,11	-0,00096	
6,160	-0,5037	156,40	150,11	-0,00103	
6,180	-0,5037	156,45	150,11	-0,00098	
6,200	-0,5037	156,44	150,11	-0,00086	
6,220	-0,5037	156,36	150,11	-0,00075	
6,240	-0,5037	156,28	150,11	-0,00069	
6,260	-0,5037	156,32	150,11	-0,00066	
6,280	-0,5037	156,44	150,11	-0,00075	
6,300	-0,5037	156,52	150,11	-0,00086	
6,320	-0,5037	156,58	150,11	-0,00092	
6,340	-0,5037	156,53	150,11	-0,00098	
6,360	-0,5037	156,44	150,11	-0,00105	
6,380	-0,5037	156,44	150,11	-0,00092	
6,400	-0,5037	156,50	150,11	-0,00075	
6,420	-0,5037	156,48	150,11	-0,00072	
6,440	-0,5037	156,48	150,11	-0,00070	
6,460	-0,5037	156,59	150,11	-0,00075	
6,480	-0,5037	156,54	150,12	-0,00086	
6,500	-0,5037	156,46	150,11	-0,00095	
6,520	-0,5037	156,40	150,11	-0,00099	
6,540	-0,5037	156,35	150,11	-0,00091	
6,560	-0,5037	156,32	150,11	-0,00084	
6,580	-0,5037	156,33	150,11	-0,00075	
6,600	-0,5037	156,37	150,12	-0,00075	
6,620	-0,5037	156,37	150,11	-0,00080	
6,640	-0,5037	156,39	150,11	-0,00092	
6,660	-0,5037	156,43	150,11	-0,00099	
6,680	-0,5037	156,47	150,11	-0,00099	
6,700	-0,5037	156,51	150,11	-0,00090	
6,720	-0,5037	156,50	150,11	-0,00081	
6,740	-0,5037	156,50	150,11	-0,00073	
6,760	-0,5037	156,52	150,11	-0,00069	
6,780	-0,5037	156,48	150,10	-0,00076	
6,800	-0,5037	156,45	150,10	-0,00085	
6,820	-0,5037	156,46	150,10	-0,00096	
6,840	-0,5037	156,49	150,11	-0,00101	
6,860	-0,5037	156,48	150,11	-0,00096	
6,880	-0,5037	156,45	150,11	-0,00089	
6,900	-0,5037	156,47	150,11	-0,00085	
6,920	-0,5037	156,43	150,11	-0,00079	
6,940	-0,5037	156,36	150,10	-0,00075	
6,960	-0,5037	156,48	150,10	-0,00086	
6,980	-0,5037	157,72	150,11	-0,00097	
7,000	-0,5037	158,64	150,11	-0,00094	
7,020	-0,5037	157,78	150,11	-0,00095	
7,040	-0,5037	156,82	150,11	-0,00095	
7,060	-0,5037	156,53	150,11	-0,00089	
7,080	-0,5037	156,52	150,10	-0,00078	
7,100	-0,5037	156,53	150,11	-0,00076	
7,120	-0,5037	156,51	150,11	-0,00082	
7,140	-0,5037	156,52	150,12	-0,00090	
7,160	-0,5037	156,57	150,12	-0,00103	
7,180	-0,5037	156,56	150,11	-0,00105	
7,200	-0,5036	156,55	150,11	-0,00100	
7,220	-0,5036	156,53	150,11	-0,00087	
7,240	-0,5036	156,51	150,11	-0,00076	
7,260	-0,5037	156,51	150,11	-0,00075	
7,280	-0,5037	156,53	150,11	-0,00081	
7,300	-0,5037	156,52	150,11	-0,00090	
7,320	-0,5037	156,52	150,11	-0,00098	
7,340	-0,5037	156,55	150,11	-0,00102	
7,360	-0,5036	156,56	150,11	-0,00100	
7,380	-0,5036	156,55	150,11	-0,00094	
7,400	-0,5037	156,52	150,11	-0,00088	
7,420	-0,5037	156,49	150,11	-0,00081	
7,440	-0,5037	156,48	150,11	-0,00073	
7,460	-0,5037	156,51	150,11	-0,00075	
7,480	-0,5037	156,50	150,11	-0,00094	
7,500	-0,5037	156,46	150,12	-0,00103	
7,520	-0,5037	156,44	150,11	-0,00098	
7,540	-0,5037	156,45	150,11	-0,00094	
7,560	-0,5037	156,50	150,11	-0,00088	
7,580	-0,5036	156,53	150,11	-0,00077	
7,600	-0,5037	156,52	150,11	-0,00068	
7,620	-0,5037	156,50	150,12	-0,00071	
7,640	-0,5037	156,47	150,11	-0,00087	
7,660	-0,5036	156,48	150,11	-0,00103	
7,680	-0,5037	156,48	150,10	-0,00111	
7,700	-0,5037	156,48	150,11	-0,00106	
7,720	-0,5037	156,45	150,11	-0,00097	
7,740	-0,5037	156,40	150,11	-0,00092	
7,760	-0,5037	156,40	150,11	-0,00082	
7,780	-0,5037	156,87	150,11	-0,00079	
7,800	-0,5037	157,29	150,11	-0,00089	
7,820	-0,5037	157,92	150,10	-0,00098	
7,840	-0,5037	157,83	150,11	-0,00102	
7,860	-0,5037	156,97	150,11	-0,00106	
7,880	-0,5037	156,48	150,12	-0,00103	
7,900	-0,5037	156,37	150,11	-0,00091	
7,920	-0,5037	156,37	150,11	-0,00084	
7,940	-0,5037	156,36	150,11	-0,00079	
7,960	-0,5037	156,37	150,11	-0,00076	
7,980	-0,5037	156,38	150,12	-0,00085	
8,000	-0,5037	156,39	150,11	-0,00101	
8,020	-0,5037	156,38	150,11	-0,00102	
8,040	-0,5036	156,42	150,11	-0,00094	
8,060	-0,5037	156,43	150,10	-0,00089	
8,080	-0,5037	156,39	150,11	-0,00085	
8,100	-0,5037	156,41	150,11	-0,00081	
8,120	-0,5037	156,37	150,12	-0,00082	
8,140	-0,5036	156,36	150,11	-0,00085	
8,160	-0,5036	156,34	150,11	-0,00095	
8,180	-0,5036	156,26	150,11	-0,00100	
8,200	-0,5037	156,28	150,11	-0,00103	
8,220	-0,5036	156,35	150,12	-0,00101	
8,240	-0,5036	156,35	150,12	-0,00094	
8,260	-0,5036	156,35	150,11	-0,00087	
8,280	-0,5036	156,90	150,11	-0,00080	
8,300	-0,5036	158,41	150,11	-0,00084	
8,320	-0,5036	159,48	150,11	-0,00091	
8,340	-0,5037	159,31	150,12	-0,00092	
8,360	-0,5037	157,82	150,12	-0,00094	
8,380	-0,5037	156,70	150,11	-0,00100	
8,400	-0,5037	156,37	150,11	-0,00096	
8,420	-0,5037	156,39	150,11	-0,00081	
8,440	-0,5037	156,43	150,11	-0,00073	
8,460	-0,5037	156,43	150,12	-0,00078	
8,480	-0,5036	156,42	150,12	-0,00085	
8,500	-0,5037	156,43	150,11	-0,00099	
8,520	-0,5037	156,40	150,11	-0,00103	
8,540	-0,5036	156,32	150,11	-0,00101	
8,560	-0,5036	156,29	150,11	-0,00094	
8,580	-0,5036	156,89	150,12	-0,00086	
8,600	-0,5036	158,51	150,11	-0,00082	
8,620	-0,5036	159,59	150,11	-0,00077	
8,640	-0,5037	159,86	150,10	-0,00080	
8,660	-0,5036	159,34	150,10	-0,00090	
8,680	-0,5036	157,78	150,11	-0,00097	
8,700	-0,5037	156,68	150,11	-0,00101	
8,720	-0,5037	156,40	150,12	-0,00093	
8,740	-0,5037	156,97	150,11	-0,00082	
8,760	-0,5037	158,12	150,11	-0,00078	
8,780	-0,5037	158,30	150,11	-0,00072	
8,800	-0,5037	157,43	150,11	-0,00073	
8,820	-0,5036	156,64	150,12	-0,00086	
8,840	-0,5037	156,29	150,12	-0,00100	
8,860	-0,5037	156,25	150,11	-0,00109	
8,880	-0,5037	156,28	150,11	-0,00107	
8,900	-0,5037	156,31	150,11	-0,00096	
8,920	-0,5037	156,30	150,12	-0,00084	
8,940	-0,5037	156,77	150,11	-0,00080	
8,960	-0,5037	158,33	150,11	-0,00080	
8,980	-0,5036	159,50	150,11	-0,00088	
9,000	-0,5037	159,32	150,11	-0,00095	
9,020	-0,5037	157,88	150,11	-0,00096	
9,040	-0,5037	156,84	150,12	-0,00103	
9,060	-0,5037	156,50	150,11	-0,00107	
9,080	-0,5037	156,43	150,11	-0,00100	
9,100	-0,5037	156,43	150,11	-0,00089	
9,120	-0,5037	156,44	150,11	-0,00081	
9,140	-0,5037	156,44	150,11	-0,00087	
9,160	-0,5037	156,35	150,12	-0,00102	
9,180	-0,5037	156,31	150,12	-0,00111	
9,200	-0,5037	156,40	150,11	-0,00108	
9,220	-0,5037	156,42	150,11	-0,00097	
9,240	-0,5037	156,91	150,11	-0,00086	
9,260	-0,5037	158,36	150,12	-0,00078	
9,280	-0,5037	159,38	150,12	-0,00076	
9,300	-0,5037	159,69	150,12	-0,00080	
9,320	-0,5037	159,71	150,11	-0,00094	
9,340	-0,5036	159,20	150,11	-0,00109	
9,360	-0,5036	157,85	150,11	-0,00110	
9,380	-0,5037	158,02	150,12	-0,00099	
9,400	-0,5037	159,16	150,11	-0,00088	
9,420	-0,5037	159,74	150,11	-0,00080	
9,440	-0,5037	159,80	150,11	-0,00078	
9,460	-0,5037	159,31	150,11	-0,00078	
9,480	-0,5037	157,88	150,11	-0,00085	
9,500	-0,5037	156,82	150,12	-0,00096	
9,520	-0,5036	156,50	150,11	-0,00104	
9,540	-0,5036	156,52	150,11	-0,00104	
9,560	-0,5036	156,53	150,11	-0,00095	
9,580	-0,5036	156,50	150,11	-0,00087	
9,600	-0,5037	156,49	150,11	-0,00081	
9,620	-0,5037	156,48	150,11	-0,00076	
9,640	-0,5037	156,47	150,11	-0,00079	
9,660	-0,5037	156,42	150,11	-0,00093	
9,680	-0,5037	156,41	150,11	-0,00106	
9,700	-0,5037	156,49	150,11	-0,00114	
9,720	-0,5037	156,57	150,11	-0,00115	
9,740	-0,5036	156,55	150,12	-0,00101	
9,760	-0,5036	156,47	150,11	-0,00081	
9,780	-0,5037	156,41	150,11	-0,00072	
9,800	-0,5037	156,45	150,11	-0,00075	
9,820	-0,5037	156,46	150,10	-0,00081	
9,840	-0,5037	156,39	150,11	-0,00093	
9,860	-0,5037	156,36	150,11	-0,00103	
9,880	-0,5037	156,38	150,12	-0,00104	
9,900	-0,5037	156,37	150,11	-0,00098	
9,920	-0,5037	156,37	150,11	-0,00091	
9,940	-0,5037	156,35	150,10	-0,00086	
9,960	-0,5037	156,39	150,11	-0,00079	
9,980	-0,5037	156,43	150,11	-0,00079	
10,00	-0,5037	156,39	150,12	-0,00093	
10,02	-0,5037	156,33	150,11	-0,00104	
10,04	-0,5037	156,33	150,11	-0,00103	
10,06	-0,5037	156,33	150,11	-0,00092	
10,08	-0,5037	156,30	150,11	-0,00090	
10,10	-0,5037	156,34	150,11	-0,00086	
10,12	-0,5037	156,42	150,12	-0,00079	
10,14	-0,5036	156,48	150,11	-0,00083	
10,16	-0,5036	156,45	150,11	-0,00086	
10,18	-0,5036	156,40	150,11	-0,00094	
10,20	-0,5037	156,40	150,11	-0,00100	
10,22	-0,5037	156,46	150,12	-0,00103	
10,24	-0,5037	156,43	150,12	-0,00094	
10,26	-0,5037	156,45	150,11	-0,00077	
10,28	-0,5037	156,55	150,11	-0,00073	
10,30	-0,5037	156,62	150,11	-0,00080	
10,32	-0,5037	156,60	150,11	-0,00084	
10,34	-0,5037	156,52	150,12	-0,00092	
10,36	-0,5037	156,45	150,12	-0,00099	
10,38	-0,5037	156,38	150,11	-0,00100	
10,40	-0,5037	156,36	150,11	-0,00090	
10,42	-0,5037	156,37	150,11	-0,00077	
10,44	-0,5037	156,36	150,12	-0,00073	
10,46	-0,5037	156,42	150,12	-0,00068	
10,48	-0,5037	156,48	150,11	-0,00067	
10,50	-0,5037	156,50	150,11	-0,00077	
10,52	-0,5037	156,43	150,11	-0,00093	
10,54	-0,5037	156,38	150,11	-0,00103	
10,56	-0,5037	156,42	150,11	-0,00103	
10,58	-0,5036	156,48	150,11	-0,00092	
10,60	-0,5036	156,46	150,11	-0,00082	
10,62	-0,5037	156,39	150,11	-0,00078	
10,64	-0,5037	156,37	150,10	-0,00080	
10,66	-0,5036	156,44	150,10	-0,00091	
10,68	-0,5036	156,45	150,11	-0,00099	
10,70	-0,5036	156,46	150,11	-0,00102	
10,72	-0,5036	156,47	150,12	-0,00097	
10,74	-0,5036	156,41	150,11	-0,00092	
10,76	-0,5037	156,43	150,11	-0,00085	
10,78	-0,5037	156,51	150,11	-0,00074	
10,80	-0,5037	156,53	150,11	-0,00071	
10,82	-0,5037	156,48	150,11	-0,00077	
10,84	-0,5037	156,45	150,12	-0,00086	
10,86	-0,5037	156,44	150,11	-0,00095	
10,88	-0,5037	156,49	150,11	-0,00101	
10,90	-0,5037	156,59	150,10	-0,00103	
10,92	-0,5036	156,59	150,10	-0,00090	
10,94	-0,5036	156,50	150,11	-0,00081	
10,96	-0,5036	156,49	150,12	-0,00080	
10,98	-0,5036	156,48	150,12	-0,00082	
11,00	-0,5036	156,47	150,11	-0,00094	
11,02	-0,5036	156,45	150,11	-0,00102	
11,04	-0,5036	156,42	150,10	-0,00102	
11,06	-0,5036	156,43	150,11	-0,00100	
11,08	-0,5036	156,43	150,11	-0,00098	
11,10	-0,5036	156,42	150,11	-0,00088	
11,12	-0,5036	156,43	150,11	-0,00076	
11,14	-0,5036	156,45	150,11	-0,00073	
11,16	-0,5036	156,44	150,11	-0,00076	
11,18	-0,5037	156,59	150,11	-0,00089	
11,20	-0,5037	157,26	150,11	-0,00104	
11,22	-0,5036	157,16	150,12	-0,00104	
11,24	-0,5036	156,73	150,12	-0,00097	
11,26	-0,5036	156,58	150,11	-0,00084	
11,28	-0,5036	156,62	150,11	-0,00076	
11,30	-0,5036	156,66	150,11	-0,00072	
11,32	-0,5036	156,67	150,11	-0,00081	
11,34	-0,5037	156,64	150,11	-0,00100	
11,36	-0,5037	156,61	150,11	-0,00109	
11,38	-0,5037	156,64	150,11	-0,00103	
11,40	-0,5037	156,58	150,11	-0,00093	
11,42	-0,5036	156,54	150,11	-0,00085	
11,44	-0,5036	156,53	150,11	-0,00081	
11,46	-0,5036	156,55	150,11	-0,00079	
11,48	-0,5036	156,59	150,11	-0,00090	
11,50	-0,5036	156,56	150,11	-0,00107	
11,52	-0,5036	156,54	150,10	-0,00108	
11,54	-0,5036	156,54	150,10	-0,00106	
11,56	-0,5037	156,62	150,11	-0,00103	
11,58	-0,5037	156,66	150,12	-0,00092	
11,60	-0,5037	156,61	150,12	-0,00080	
11,62	-0,5036	156,55	150,11	-0,00074	
11,64	-0,5036	156,54	150,11	-0,00082	
11,66	-0,5037	156,53	150,10	-0,00102	
11,68	-0,5037	156,53	150,11	-0,00113	
11,70	-0,5036	156,53	150,11	-0,00104	
11,72	-0,5036	156,52	150,11	-0,00090	
11,74	-0,5036	156,56	150,11	-0,00083	
11,76	-0,5036	156,60	150,11	-0,00080	
11,78	-0,5036	156,57	150,11	-0,00078	
11,80	-0,5036	156,53	150,11	-0,00073	
11,82	-0,5036	156,52	150,11	-0,00080	
11,84	-0,5036	156,51	150,12	-0,00095	
11,86	-0,5036	156,62	150,12	-0,00100	
11,88	-0,5036	157,73	150,11	-0,00094	
11,90	-0,5036	158,75	150,10	-0,00086	
11,92	-0,5036	159,06	150,10	-0,00080	
11,94	-0,5036	159,51	150,10	-0,00082	
11,96	-0,5036	159,35	150,11	-0,00085	
11,98	-0,5036	158,00	150,11	-0,00095	
12,00	-0,5036	156,91	150,11	-0,00104	
12,02	-0,5036	157,02	150,11	-0,00106	
12,04	-0,5036	158,16	150,11	-0,00100	
12,06	-0,5036	158,89	150,11	-0,00094	
12,08	-0,5036	159,57	150,11	-0,00091	
12,10	-0,5036	159,94	150,11	-0,00086	
12,12	-0,5037	159,90	150,13	-0,00083	
12,14	-0,5041	159,17	150,20	-0,00148	
12,16	-0,5035	129,22	150,08	-0,00250	
12,18	-0,5033	84,96	150,05	-0,00261	
12,20	-0,5035	41,08	150,09	-0,00220	
12,22	-0,5033	-1,612	150,12	-0,00181	
12,24	-0,5011	-37,99	150,12	-0,00157	
12,26	-0,4970	-43,47	150,11	-0,00145	
12,28	-0,4925	-21,48	150,11	-0,00136	
12,30	-0,4885	10,46	150,11	-0,00132	
12,32	-0,4849	46,49	150,11	-0,00145	
12,34	-0,4819	81,32	150,12	-0,00158	
12,36	-0,4798	110,10	150,11	-0,00160	
12,38	-0,4785	130,22	150,11	-0,00149	
12,40	-0,4778	143,44	150,11	-0,00139	
12,42	-0,4775	151,63	150,11	-0,00135	
12,44	-0,4774	155,96	150,11	-0,00122	
12,46	-0,4774	158,43	150,11	-0,00111	
12,48	-0,4774	159,52	150,11	-0,00124	
12,50	-0,4775	159,84	150,11	-0,00143	
12,52	-0,4775	159,86	150,11	-0,00152	
12,54	-0,4775	160,27	150,11	-0,00149	
12,56	-0,4775	161,78	150,11	-0,00141	
12,58	-0,4775	162,87	150,12	-0,00132	
12,60	-0,4774	162,06	150,12	-0,00125	
12,62	-0,4774	161,00	150,11	-0,00125	
12,64	-0,4775	161,78	150,11	-0,00126	
12,66	-0,4779	162,27	150,11	-0,00137	
12,68	-0,4781	161,60	150,11	-0,00145	
12,70	-0,4781	162,07	150,12	-0,00147	
12,72	-0,4781	162,46	150,12	-0,00145	
12,74	-0,4781	162,39	150,11	-0,00136	
12,76	-0,4781	162,64	150,11	-0,00124	
12,78	-0,4781	161,79	150,11	-0,00121	
12,80	-0,4781	160,47	150,11	-0,00120	
12,82	-0,4784	160,36	150,12	-0,00131	
12,84	-0,4786	160,77	150,11	-0,00145	
12,86	-0,4788	160,43	150,11	-0,00144	
12,88	-0,4788	160,06	150,11	-0,00140	
12,90	-0,4788	159,92	150,11	-0,00131	
12,92	-0,4788	159,93	150,11	-0,00129	
12,94	-0,4788	159,90	150,12	-0,00123	
12,96	-0,4788	159,80	150,11	-0,00120	
12,98	-0,4788	159,83	150,11	-0,00126	
13,00	-0,4790	159,92	150,11	-0,00134	
13,02	-0,4793	159,87	150,11	-0,00139	
13,04	-0,4795	159,84	150,11	-0,00141	
13,06	-0,4795	159,83	150,12	-0,00134	
13,08	-0,4795	159,85	150,11	-0,00128	
13,10	-0,4795	159,86	150,11	-0,00124	
13,12	-0,4795	159,85	150,11	-0,00121	
13,14	-0,4795	159,92	150,11	-0,00120	
13,16	-0,4795	159,96	150,11	-0,00128	
13,18	-0,4795	159,95	150,12	-0,00140	
13,20	-0,4795	159,88	150,11	-0,00143	
13,22	-0,4795	159,82	150,11	-0,00140	
13,24	-0,4795	159,82	150,11	-0,00133	
13,26	-0,4795	159,86	150,11	-0,00122	
13,28	-0,4795	159,83	150,12	-0,00114	
13,30	-0,4795	159,87	150,12	-0,00109	
13,32	-0,4797	159,89	150,11	-0,00121	
13,34	-0,4800	159,91	150,11	-0,00136	
13,36	-0,4801	159,98	150,11	-0,00143	
13,38	-0,4802	159,91	150,11	-0,00143	
13,40	-0,4801	159,80	150,11	-0,00138	
13,42	-0,4801	159,80	150,12	-0,00123	
13,44	-0,4801	159,89	150,11	-0,00114	
13,46	-0,4801	159,83	150,11	-0,00112	
13,48	-0,4801	159,78	150,11	-0,00120	
13,50	-0,4801	159,77	150,11	-0,00136	
13,52	-0,4801	159,79	150,11	-0,00146	
13,54	-0,4801	159,80	150,12	-0,00150	
13,56	-0,4801	159,69	150,11	-0,00143	
13,58	-0,4801	159,00	150,11	-0,00125	
13,60	-0,4801	159,07	150,11	-0,00108	
13,62	-0,4801	159,11	150,11	-0,00105	
13,64	-0,4801	157,81	150,11	-0,00114	
13,66	-0,4801	157,17	150,11	-0,00123	
13,68	-0,4801	158,28	150,11	-0,00129	
13,70	-0,4801	159,37	150,11	-0,00132	
13,72	-0,4801	159,76	150,11	-0,00133	
13,74	-0,4801	159,78	150,11	-0,00124	
13,76	-0,4801	159,71	150,12	-0,00115	
13,78	-0,4801	159,63	150,12	-0,00108	
13,80	-0,4804	159,15	150,11	-0,00106	
13,82	-0,4806	157,81	150,11	-0,00117	
13,84	-0,4808	157,88	150,11	-0,00132	
13,86	-0,4808	158,56	150,11	-0,00139	
13,88	-0,4808	158,18	150,12	-0,00133	
13,90	-0,4808	158,71	150,11	-0,00122	
13,92	-0,4808	159,06	150,11	-0,00117	
13,94	-0,4808	157,82	150,11	-0,00116	
13,96	-0,4808	157,17	150,11	-0,00116	
13,98	-0,4808	157,82	150,12	-0,00118	
14,00	-0,4808	157,38	150,12	-0,00127	
14,02	-0,4808	156,63	150,11	-0,00138	
14,04	-0,4808	156,31	150,11	-0,00137	
14,06	-0,4808	156,27	150,11	-0,00122	
14,08	-0,4808	156,77	150,11	-0,00115	
14,10	-0,4808	157,81	150,11	-0,00118	
14,12	-0,4808	157,85	150,12	-0,00120	
14,14	-0,4808	158,57	150,11	-0,00118	
14,16	-0,4808	159,38	150,11	-0,00125	
14,18	-0,4808	159,75	150,11	-0,00134	
14,20	-0,4808	159,76	150,11	-0,00137	
14,22	-0,4808	159,61	150,12	-0,00134	
14,24	-0,4808	158,54	150,11	-0,00126	
14,26	-0,4808	158,11	150,11	-0,00118	
14,28	-0,4808	157,81	150,11	-0,00113	
14,30	-0,4808	156,93	150,11	-0,00113	
14,32	-0,4808	156,95	150,12	-0,00118	
14,34	-0,4808	158,32	150,12	-0,00135	
14,36	-0,4808	159,05	150,11	-0,00143	
14,38	-0,4808	158,54	150,11	-0,00137	
14,40	-0,4808	157,37	150,11	-0,00126	
14,42	-0,4808	156,53	150,11	-0,00116	
14,44	-0,4808	156,26	150,12	-0,00106	
14,46	-0,4808	156,22	150,12	-0,00101	
14,48	-0,4808	156,26	150,11	-0,00111	
14,50	-0,4809	157,33	150,11	-0,00120	
14,52	-0,4812	157,87	150,11	-0,00128	
14,54	-0,4814	157,11	150,12	-0,00132	
14,56	-0,4815	156,49	150,12	-0,00131	
14,58	-0,4815	156,35	150,11	-0,00125	
14,60	-0,4815	156,35	150,11	-0,00111	
14,62	-0,4814	156,39	150,11	-0,00104	
14,64	-0,4814	156,32	150,12	-0,00104	
14,66	-0,4815	156,35	150,12	-0,00113	
14,68	-0,4815	157,50	150,11	-0,00131	
14,70	-0,4814	159,01	150,11	-0,00138	
14,72	-0,4814	159,27	150,11	-0,00129	
14,74	-0,4814	158,97	150,11	-0,00112	
14,76	-0,4814	159,36	150,12	-0,00103	
14,78	-0,4814	159,72	150,12	-0,00094	
14,80	-0,4815	159,83	150,12	-0,00095	
14,82	-0,4814	159,87	150,11	-0,00109	
14,84	-0,4814	159,81	150,11	-0,00130	
14,86	-0,4814	159,79	150,11	-0,00138	
14,88	-0,4814	159,78	150,12	-0,00132	
14,90	-0,4814	159,77	150,11	-0,00118	
14,92	-0,4815	159,75	150,11	-0,00112	
14,94	-0,4815	159,58	150,11	-0,00111	
14,96	-0,4814	158,44	150,10	-0,00101	
14,98	-0,4814	157,48	150,11	-0,00109	
15,00	-0,4814	157,89	150,12	-0,00123	
15,02	-0,4814	157,44	150,12	-0,00125	
15,04	-0,4815	156,70	150,11	-0,00124	
15,06	-0,4815	156,39	150,11	-0,00118	
15,08	-0,4815	156,31	150,11	-0,00108	
15,10	-0,4815	156,40	150,11	-0,00100	
15,12	-0,4815	156,44	150,12	-0,00089	
15,14	-0,4814	156,38	150,12	-0,00088	
15,16	-0,4815	156,32	150,11	-0,00094	
15,18	-0,4814	156,32	150,11	-0,00110	
15,20	-0,4815	156,39	150,11	-0,00124	
15,22	-0,4818	156,41	150,11	-0,00133	
15,24	-0,4821	156,35	150,12	-0,00131	
15,26	-0,4821	156,28	150,12	-0,00114	
15,28	-0,4822	156,31	150,11	-0,00104	
15,30	-0,4821	156,32	150,11	-0,00105	
15,32	-0,4821	156,34	150,11	-0,00109	
15,34	-0,4821	156,76	150,12	-0,00115	
15,36	-0,4821	157,18	150,12	-0,00124	
15,38	-0,4821	156,92	150,11	-0,00126	
15,40	-0,4821	157,61	150,11	-0,00121	
15,42	-0,4821	158,50	150,11	-0,00109	
15,44	-0,4821	157,73	150,11	-0,00099	
15,46	-0,4822	156,79	150,12	-0,00097	
15,48	-0,4822	156,44	150,11	-0,00096	
15,50	-0,4822	156,35	150,11	-0,00108	
15,52	-0,4822	156,37	150,11	-0,00126	
15,54	-0,4822	156,36	150,11	-0,00132	
15,56	-0,4822	156,32	150,11	-0,00121	
15,58	-0,4822	156,44	150,12	-0,00107	
15,60	-0,4822	156,56	150,12	-0,00098	
15,62	-0,4821	156,52	150,11	-0,00092	
15,64	-0,4821	156,83	150,11	-0,00099	
15,66	-0,4821	157,17	150,11	-0,00111	
15,68	-0,4821	156,88	150,11	-0,00125	
15,70	-0,4822	157,66	150,11	-0,00132	
15,72	-0,4822	158,97	150,11	-0,00128	
15,74	-0,4821	158,64	150,11	-0,00117	
15,76	-0,4821	158,33	150,11	-0,00100	
15,78	-0,4822	158,63	150,11	-0,00087	
15,80	-0,4821	157,71	150,11	-0,00090	
15,82	-0,4821	157,16	150,12	-0,00104	
15,84	-0,4821	157,80	150,11	-0,00119	
15,86	-0,4821	157,33	150,11	-0,00128	
15,88	-0,4821	156,49	150,10	-0,00124	
15,90	-0,4821	156,09	150,10	-0,00118	
15,92	-0,4821	156,02	150,09	-0,00113	
15,94	-0,4821	156,47	150,09	-0,00107	
15,96	-0,4821	156,92	150,09	-0,00103	
15,98	-0,4821	156,60	150,10	-0,00110	
16,00	-0,4821	156,38	150,10	-0,00127	
16,02	-0,4821	156,34	150,11	-0,00138	
16,04	-0,4822	156,30	150,12	-0,00131	
16,06	-0,4822	156,33	150,12	-0,00120	
16,08	-0,4822	156,31	150,11	-0,00119	
16,10	-0,4822	156,23	150,11	-0,00117	
16,12	-0,4822	156,27	150,11	-0,00107	
16,14	-0,4822	156,36	150,12	-0,00106	
16,16	-0,4823	156,42	150,12	-0,00120	
16,18	-0,4825	156,44	150,11	-0,00131	
16,20	-0,4828	156,44	150,11	-0,00135	
16,22	-0,4828	156,42	150,11	-0,00125	
16,24	-0,4828	156,85	150,11	-0,00114	
16,26	-0,4828	157,97	150,12	-0,00102	
16,28	-0,4828	157,65	150,11	-0,00094	
16,30	-0,4828	156,82	150,11	-0,00095	
16,32	-0,4828	156,46	150,11	-0,00110	
16,34	-0,4828	156,37	150,11	-0,00126	
16,36	-0,4828	156,36	150,11	-0,00130	
16,38	-0,4828	156,43	150,12	-0,00122	
16,40	-0,4828	156,41	150,12	-0,00116	
16,42	-0,4828	156,43	150,11	-0,00112	
16,44	-0,4828	156,39	150,11	-0,00102	
16,46	-0,4828	156,38	150,11	-0,00100	
16,48	-0,4828	156,45	150,11	-0,00113	
16,50	-0,4828	156,45	150,12	-0,00122	
16,52	-0,4828	156,40	150,11	-0,00128	
16,54	-0,4828	156,70	150,11	-0,00131	
16,56	-0,4828	157,11	150,11	-0,00118	
16,58	-0,4828	156,78	150,11	-0,00106	
16,60	-0,4828	156,80	150,12	-0,00109	
16,62	-0,4828	157,22	150,12	-0,00110	
16,64	-0,4828	156,89	150,11	-0,00113	
16,66	-0,4828	156,47	150,11	-0,00123	
16,68	-0,4828	156,36	150,11	-0,00130	
16,70	-0,4828	156,36	150,11	-0,00129	
16,72	-0,4828	156,45	150,12	-0,00126	
16,74	-0,4828	156,47	150,11	-0,00111	
16,76	-0,4828	156,44	150,11	-0,00099	
16,78	-0,4828	156,42	150,11	-0,00093	
16,80	-0,4828	156,39	150,11	-0,00093	
16,82	-0,4828	156,38	150,11	-0,00110	
16,84	-0,4828	156,44	150,11	-0,00126	
16,86	-0,4828	156,39	150,11	-0,00133	
16,88	-0,4828	156,36	150,11	-0,00131	
16,90	-0,4828	156,39	150,11	-0,00128	
16,92	-0,4828	156,41	150,11	-0,00117	
16,94	-0,4828	156,46	150,12	-0,00112	
16,96	-0,4828	156,54	150,12	-0,00117	
16,98	-0,4828	156,47	150,11	-0,00122	
17,00	-0,4828	156,39	150,11	-0,00128	
17,02	-0,4828	156,41	150,10	-0,00135	
17,04	-0,4828	156,50	150,11	-0,00135	
17,06	-0,4828	156,54	150,11	-0,00125	
17,08	-0,4828	156,96	150,12	-0,00112	
17,10	-0,4828	158,00	150,11	-0,00107	
17,12	-0,4828	157,58	150,11	-0,00109	
17,14	-0,4828	156,74	150,11	-0,00112	
17,16	-0,4828	156,47	150,12	-0,00122	
17,18	-0,4828	156,43	150,12	-0,00128	
17,20	-0,4828	156,37	150,12	-0,00129	
17,22	-0,4828	156,30	150,11	-0,00124	
17,24	-0,4828	156,34	150,11	-0,00111	
17,26	-0,4828	156,40	150,11	-0,00104	
17,28	-0,4828	156,36	150,11	-0,00101	
17,30	-0,4829	156,41	150,12	-0,00102	
17,32	-0,4832	156,82	150,11	-0,00122	
17,34	-0,4834	157,27	150,11	-0,00133	
17,36	-0,4835	156,92	150,11	-0,00130	
17,38	-0,4835	156,48	150,11	-0,00124	
17,40	-0,4835	156,36	150,12	-0,00116	
17,42	-0,4835	156,34	150,12	-0,00107	
17,44	-0,4835	156,37	150,11	-0,00101	
17,46	-0,4835	156,43	150,11	-0,00102	
17,48	-0,4835	156,32	150,11	-0,00120	
17,50	-0,4835	156,31	150,11	-0,00131	
17,52	-0,4835	156,35	150,12	-0,00136	
17,54	-0,4835	156,36	150,12	-0,00133	
17,56	-0,4835	156,45	150,11	-0,00121	
17,58	-0,4835	156,49	150,11	-0,00106	
17,60	-0,4835	156,45	150,11	-0,00105	
17,62	-0,4835	156,44	150,11	-0,00110	
17,64	-0,4835	156,37	150,11	-0,00114	
17,66	-0,4835	156,31	150,12	-0,00121	
17,68	-0,4835	156,73	150,11	-0,00128	
17,70	-0,4835	157,80	150,11	-0,00127	
17,72	-0,4835	157,45	150,11	-0,00118	
17,74	-0,4835	156,66	150,12	-0,00109	
17,76	-0,4835	156,31	150,12	-0,00103	
17,78	-0,4835	156,28	150,11	-0,00102	
17,80	-0,4835	156,38	150,11	-0,00110	
17,82	-0,4835	156,41	150,10	-0,00131	
17,84	-0,4835	156,41	150,10	-0,00141	
17,86	-0,4835	156,47	150,11	-0,00137	
17,88	-0,4835	156,48	150,11	-0,00127	
17,90	-0,4835	156,49	150,11	-0,00109	
17,92	-0,4835	156,52	150,11	-0,00097	
17,94	-0,4835	156,45	150,11	-0,00101	
17,96	-0,4835	156,45	150,10	-0,00110	
17,98	-0,4835	156,54	150,10	-0,00122	
18,00	-0,4835	156,56	150,10	-0,00130	
18,02	-0,4835	156,50	150,11	-0,00132	
18,04	-0,4835	156,51	150,12	-0,00127	
18,06	-0,4835	156,46	150,11	-0,00117	
18,08	-0,4835	156,36	150,11	-0,00109	
18,10	-0,4835	156,33	150,10	-0,00103	
18,12	-0,4835	156,42	150,11	-0,00102	
18,14	-0,4835	156,46	150,11	-0,00110	
18,16	-0,4835	156,43	150,12	-0,00119	
18,18	-0,4835	156,48	150,12	-0,00122	
18,20	-0,4835	156,53	150,11	-0,00117	
18,22	-0,4835	156,55	150,11	-0,00104	
18,24	-0,4835	156,50	150,10	-0,00096	
18,26	-0,4835	156,48	150,11	-0,00097	
18,28	-0,4835	156,44	150,12	-0,00097	
18,30	-0,4835	156,39	150,12	-0,00109	
18,32	-0,4835	156,42	150,11	-0,00120	
18,34	-0,4835	156,49	150,11	-0,00126	
18,36	-0,4835	156,49	150,11	-0,00128	
18,38	-0,4835	156,52	150,12	-0,00122	
18,40	-0,4835	157,54	150,12	-0,00111	
18,42	-0,4835	158,04	150,12	-0,00103	
18,44	-0,4835	157,27	150,11	-0,00098	
18,46	-0,4837	156,65	150,11	-0,00101	
18,48	-0,4840	156,46	150,11	-0,00111	
18,50	-0,4841	156,47	150,12	-0,00125	
18,52	-0,4842	156,56	150,12	-0,00131	
18,54	-0,4842	156,53	150,11	-0,00127	
18,56	-0,4842	156,46	150,11	-0,00116	
18,58	-0,4842	156,47	150,11	-0,00106	
18,60	-0,4842	156,45	150,11	-0,00098	
18,62	-0,4842	156,37	150,12	-0,00093	
18,64	-0,4842	156,33	150,12	-0,00101	
18,66	-0,4842	156,34	150,11	-0,00119	
18,68	-0,4842	156,42	150,11	-0,00126	
18,70	-0,4842	157,53	150,11	-0,00117	
18,72	-0,4841	158,61	150,12	-0,00111	
18,74	-0,4841	157,88	150,12	-0,00109	
18,76	-0,4842	157,89	150,11	-0,00101	
18,78	-0,4842	159,00	150,11	-0,00099	
18,80	-0,4842	159,39	150,11	-0,00110	
18,82	-0,4842	159,18	150,11	-0,00123	
18,84	-0,4842	159,42	150,12	-0,00131	
18,86	-0,4842	158,74	150,12	-0,00127	
18,88	-0,4842	157,79	150,11	-0,00117	
18,90	-0,4842	158,20	150,11	-0,00103	
18,92	-0,4842	157,81	150,11	-0,00092	
18,94	-0,4842	156,95	150,11	-0,00090	
18,96	-0,4842	156,51	150,12	-0,00100	
18,98	-0,4842	156,44	150,12	-0,00116	
19,00	-0,4842	156,49	150,11	-0,00127	
19,02	-0,4842	156,48	150,11	-0,00126	
19,04	-0,4842	156,45	150,11	-0,00119	
19,06	-0,4842	156,41	150,12	-0,00110	
19,08	-0,4842	156,32	150,12	-0,00102	
19,10	-0,4842	156,30	150,11	-0,00097	
19,12	-0,4842	156,35	150,11	-0,00095	
19,14	-0,4842	156,33	150,11	-0,00100	
19,16	-0,4842	156,31	150,11	-0,00115	
19,18	-0,4842	156,34	150,12	-0,00125	
19,20	-0,4842	156,32	150,12	-0,00123	
19,22	-0,4842	156,32	150,11	-0,00112	
19,24	-0,4842	156,34	150,11	-0,00101	
19,26	-0,4842	156,31	150,11	-0,00095	
19,28	-0,4842	156,33	150,12	-0,00089	
19,30	-0,4842	156,35	150,12	-0,00087	
19,32	-0,4842	156,34	150,11	-0,00103	
19,34	-0,4842	156,36	150,11	-0,00118	
19,36	-0,4842	156,46	150,11	-0,00123	
19,38	-0,4842	156,47	150,11	-0,00118	
19,40	-0,4842	156,45	150,11	-0,00109	
19,42	-0,4842	156,47	150,12	-0,00104	
19,44	-0,4842	156,50	150,11	-0,00097	
19,46	-0,4842	156,50	150,11	-0,00093	
19,48	-0,4842	156,48	150,11	-0,00103	
19,50	-0,4842	156,51	150,11	-0,00116	
19,52	-0,4842	156,46	150,11	-0,00121	
19,54	-0,4842	156,41	150,11	-0,00121	
19,56	-0,4842	156,36	150,11	-0,00111	
19,58	-0,4842	156,40	150,11	-0,00100	
19,60	-0,4842	156,42	150,10	-0,00098	
19,62	-0,4842	156,43	150,10	-0,00099	
19,64	-0,4842	156,46	150,10	-0,00106	
19,66	-0,4842	156,85	150,11	-0,00119	
19,68	-0,4842	157,30	150,11	-0,00124	
19,70	-0,4842	157,43	150,13	-0,00120	
19,72	-0,4844	157,64	150,15	-0,00128	
19,74	-0,4843	151,50	150,13	-0,00147	
19,76	-0,4843	139,44	150,11	-0,00153	
19,78	-0,4846	126,03	150,10	-0,00151	
19,80	-0,4846	112,92	150,10	-0,00150	
19,82	-0,4841	99,90	150,10	-0,00155	
19,84	-0,4831	90,34	150,10	-0,00167	
19,86	-0,4821	84,45	150,11	-0,00174	
19,88	-0,4810	79,54	150,11	-0,00171	
19,90	-0,4798	73,68	150,11	-0,00165	
19,92	-0,4784	68,51	150,11	-0,00160	
19,94	-0,4771	66,14	150,10	-0,00151	
19,96	-0,4757	66,01	150,10	-0,00146	
19,98	-0,4740	67,84	150,10	-0,00151	
20,00	-0,4725	70,85	150,11	-0,00156	
20,02	-0,4710	74,12	150,11	-0,00171	
20,04	-0,4693	77,50	150,11	-0,00186	
20,06	-0,4678	80,49	150,11	-0,00183	
20,08	-0,4664	82,02	150,10	-0,00170	
20,10	-0,4652	82,43	150,10	-0,00158	
20,12	-0,4642	82,49	150,11	-0,00153	
20,14	-0,4630	82,09	150,11	-0,00149	
20,16	-0,4616	80,62	150,11	-0,00157	
20,18	-0,4603	79,44	150,11	-0,00170	
20,20	-0,4589	79,09	150,11	-0,00171	
20,22	-0,4576	79,07	150,11	-0,00172	
20,24	-0,4563	79,06	150,10	-0,00180	
20,26	-0,4549	79,06	150,10	-0,00176	
20,28	-0,4536	79,12	150,11	-0,00158	
20,30	-0,4522	79,16	150,11	-0,00145	
20,32	-0,4509	79,17	150,11	-0,00151	
20,34	-0,4495	79,13	150,11	-0,00167	
20,36	-0,4482	79,07	150,11	-0,00172	
20,38	-0,4468	79,08	150,10	-0,00173	
20,40	-0,4455	79,15	150,10	-0,00177	
20,42	-0,4441	79,19	150,11	-0,00173	
20,44	-0,4428	79,13	150,11	-0,00163	
20,46	-0,4415	79,07	150,11	-0,00161	
20,48	-0,4401	79,05	150,11	-0,00163	
20,50	-0,4388	79,08	150,11	-0,00176	
20,52	-0,4374	79,11	150,10	-0,00189	
20,54	-0,4358	79,11	150,11	-0,00189	
20,56	-0,4342	79,10	150,11	-0,00178	
20,58	-0,4328	79,10	150,11	-0,00164	
20,60	-0,4314	79,17	150,11	-0,00151	
20,62	-0,4301	78,79	150,11	-0,00146	
20,64	-0,4287	77,28	150,11	-0,00150	
20,66	-0,4274	76,08	150,11	-0,00166	
20,68	-0,4260	75,77	150,11	-0,00182	
20,70	-0,4247	75,79	150,11	-0,00186	
20,72	-0,4234	75,79	150,11	-0,00177	
20,74	-0,4220	75,77	150,11	-0,00161	
20,76	-0,4207	75,75	150,11	-0,00150	
20,78	-0,4193	75,74	150,10	-0,00147	
20,80	-0,4178	75,70	150,10	-0,00153	
20,82	-0,4161	75,29	150,11	-0,00164	
20,84	-0,4147	73,89	150,11	-0,00170	
20,86	-0,4133	72,70	150,11	-0,00168	
20,88	-0,4119	72,30	150,11	-0,00169	
20,90	-0,4106	72,34	150,10	-0,00165	
20,92	-0,4093	72,42	150,10	-0,00157	
20,94	-0,4078	72,43	150,10	-0,00150	
20,96	-0,4062	72,40	150,11	-0,00146	
20,98	-0,4046	72,43	150,11	-0,00149	
21,00	-0,4032	72,45	150,11	-0,00163	
21,02	-0,4019	72,45	150,11	-0,00171	
21,04	-0,4005	72,48	150,11	-0,00176	
21,06	-0,3988	72,50	150,10	-0,00173	
21,08	-0,3973	72,51	150,10	-0,00161	
21,10	-0,3958	72,51	150,11	-0,00147	
21,12	-0,3945	72,51	150,11	-0,00144	
21,14	-0,3931	72,48	150,11	-0,00149	
21,16	-0,3914	72,01	150,11	-0,00160	
21,18	-0,3898	70,51	150,11	-0,00174	
21,20	-0,3884	69,32	150,10	-0,00185	
21,22	-0,3871	68,96	150,10	-0,00181	
21,24	-0,3855	68,99	150,11	-0,00167	
21,26	-0,3839	69,02	150,11	-0,00155	
21,28	-0,3824	69,02	150,11	-0,00147	
21,30	-0,3810	68,98	150,11	-0,00145	
21,32	-0,3797	68,99	150,10	-0,00154	
21,34	-0,3780	68,97	150,10	-0,00171	
21,36	-0,3764	68,95	150,10	-0,00177	
21,38	-0,3750	68,92	150,11	-0,00173	
21,40	-0,3735	68,91	150,11	-0,00171	
21,42	-0,3719	68,96	150,11	-0,00166	
21,44	-0,3703	68,99	150,11	-0,00153	
21,46	-0,3688	68,91	150,10	-0,00144	
21,48	-0,3671	68,86	150,10	-0,00151	
21,50	-0,3657	68,83	150,10	-0,00168	
21,52	-0,3642	68,85	150,10	-0,00175	
21,54	-0,3626	68,91	150,11	-0,00175	
21,56	-0,3610	68,91	150,11	-0,00170	
21,58	-0,3595	68,88	150,11	-0,00159	
21,60	-0,3579	68,94	150,11	-0,00146	
21,62	-0,3563	68,94	150,10	-0,00139	
21,64	-0,3549	67,97	150,10	-0,00143	
21,66	-0,3533	66,49	150,10	-0,00160	
21,68	-0,3517	65,71	150,11	-0,00169	
21,70	-0,3502	65,56	150,11	-0,00169	
21,72	-0,3487	65,58	150,12	-0,00165	
21,74	-0,3470	65,61	150,31	-0,00157	
21,76	-0,3455	65,63	151,24	-0,00149	
21,78	-0,3440	65,26	152,40	-0,00149	
21,80	-0,3423	63,84	153,45	-0,00150	
21,82	-0,3408	62,65	154,46	-0,00151	
21,84	-0,3391	62,25	155,30	-0,00167	
21,86	-0,3375	62,30	156,16	-0,00183	
21,88	-0,3359	62,36	157,90	-0,00178	
21,90	-0,3343	62,37	160,19	-0,00166	
21,92	-0,3327	62,34	162,33	-0,00157	
21,94	-0,3310	62,36	163,85	-0,00149	
21,96	-0,3294	62,37	165,31	-0,00150	
21,98	-0,3277	62,38	166,82	-0,00161	
22,00	-0,3261	62,39	167,74	-0,00169	
22,02	-0,3245	62,38	168,48	-0,00174	
22,04	-0,3229	62,42	169,96	-0,00175	
22,06	-0,3213	62,43	171,81	-0,00163	
22,08	-0,3196	62,37	173,34	-0,00148	
22,10	-0,3180	62,33	174,48	-0,00143	
22,12	-0,3163	62,26	175,56	-0,00145	
22,14	-0,3146	61,39	177,07	-0,00151	
22,16	-0,3129	59,96	178,84	-0,00160	
22,18	-0,3112	59,11	180,43	-0,00171	
22,20	-0,3095	58,88	181,70	-0,00175	
22,22	-0,3079	58,86	182,91	-0,00164	
22,24	-0,3062	58,91	184,14	-0,00151	
22,26	-0,3045	58,99	185,26	-0,00142	
22,28	-0,3028	59,08	186,45	-0,00139	
22,30	-0,3012	59,07	187,70	-0,00145	
22,32	-0,2995	59,05	189,00	-0,00153	
22,34	-0,2977	59,05	190,34	-0,00168	
22,36	-0,2959	58,99	191,61	-0,00176	
22,38	-0,2941	58,94	192,89	-0,00167	
22,40	-0,2924	58,94	194,36	-0,00151	
22,42	-0,2907	58,96	195,82	-0,00144	
22,44	-0,2889	58,57	197,31	-0,00138	
22,46	-0,2872	57,11	198,72	-0,00138	
22,48	-0,2855	55,91	200,09	-0,00145	
22,50	-0,2839	55,49	201,43	-0,00159	
22,52	-0,2822	55,42	202,82	-0,00166	
22,54	-0,2805	55,07	204,24	-0,00165	
22,56	-0,2787	53,71	205,63	-0,00161	
22,58	-0,2768	52,55	207,03	-0,00156	
22,60	-0,2751	52,18	208,46	-0,00149	
22,62	-0,2733	52,15	209,85	-0,00144	
22,64	-0,2715	52,20	211,23	-0,00153	
22,66	-0,2697	52,23	212,63	-0,00162	
22,68	-0,2679	52,20	214,01	-0,00169	
22,70	-0,2661	52,27	215,45	-0,00176	
22,72	-0,2642	52,35	216,92	-0,00178	
22,74	-0,2623	52,34	218,33	-0,00172	
22,76	-0,2605	52,35	219,73	-0,00156	
22,78	-0,2587	52,32	221,17	-0,00147	
22,80	-0,2569	52,23	222,63	-0,00144	
22,82	-0,2551	52,21	224,11	-0,00149	
22,84	-0,2534	52,22	225,59	-0,00160	
22,86	-0,2516	52,19	227,07	-0,00170	
22,88	-0,2497	51,59	228,59	-0,00166	
22,90	-0,2478	51,23	230,08	-0,00154	
22,92	-0,2460	50,25	231,49	-0,00142	
22,94	-0,2441	49,26	232,90	-0,00134	
22,96	-0,2422	48,87	234,32	-0,00135	
22,98	-0,2404	48,80	235,75	-0,00147	
23,00	-0,2386	48,85	237,17	-0,00161	
23,02	-0,2367	49,80	238,57	-0,00176	
23,04	-0,2348	51,31	239,95	-0,00182	
23,06	-0,2329	52,06	241,33	-0,00170	
23,08	-0,2310	52,23	242,73	-0,00154	
23,10	-0,2292	52,33	244,15	-0,00140	
23,12	-0,2273	53,29	245,56	-0,00138	
23,14	-0,2254	54,72	246,99	-0,00147	
23,16	-0,2236	54,54	248,41	-0,00162	
23,18	-0,2218	53,21	249,80	-0,00170	
23,20	-0,2200	52,46	251,20	-0,00172	
23,22	-0,2182	52,25	252,59	-0,00167	
23,24	-0,2164	52,24	253,95	-0,00162	
23,26	-0,2146	52,29	255,31	-0,00155	
23,28	-0,2128	52,27	256,72	-0,00151	
23,30	-0,2110	51,32	258,44	-0,00152	
23,32	-0,2093	49,77	262,15	-0,00160	
23,34	-0,2074	48,93	266,44	-0,00169	
23,36	-0,2055	48,76	269,23	-0,00177	
23,38	-0,2037	48,82	270,90	-0,00176	
23,40	-0,2019	48,87	272,44	-0,00168	
23,42	-0,2001	48,85	274,03	-0,00160	
23,44	-0,1981	47,97	275,48	-0,00152	
23,46	-0,1961	46,52	276,93	-0,00146	
23,48	-0,1943	45,78	278,44	-0,00149	
23,50	-0,1924	45,56	279,86	-0,00163	
23,52	-0,1905	45,56	281,26	-0,00176	
23,54	-0,1886	45,56	282,70	-0,00174	
23,56	-0,1867	45,52	284,18	-0,00167	
23,58	-0,1847	45,45	285,72	-0,00154	
23,60	-0,1829	45,41	287,21	-0,00145	
23,62	-0,1810	45,37	288,68	-0,00142	
23,64	-0,1790	45,38	290,16	-0,00142	
23,66	-0,1770	45,44	291,71	-0,00154	
23,68	-0,1749	45,48	293,29	-0,00171	
23,70	-0,1731	45,50	294,88	-0,00176	
23,72	-0,1712	44,66	296,44	-0,00170	
23,74	-0,1693	43,17	297,93	-0,00162	
23,76	-0,1673	42,36	299,44	-0,00155	
23,78	-0,1652	42,21	301,01	-0,00148	
23,80	-0,1632	42,22	302,63	-0,00146	
23,82	-0,1612	42,19	304,21	-0,00150	
23,84	-0,1592	42,20	305,80	-0,00160	
23,86	-0,1571	42,23	307,44	-0,00170	
23,88	-0,1551	42,20	309,10	-0,00171	
23,90	-0,1531	41,29	310,76	-0,00170	
23,92	-0,1511	39,81	312,41	-0,00165	
23,94	-0,1491	39,04	314,06	-0,00154	
23,96	-0,1471	38,92	315,72	-0,00147	
23,98	-0,1451	38,01	317,41	-0,00146	
24,00	-0,1431	36,50	319,08	-0,00160	
24,02	-0,1411	35,75	320,80	-0,00180	
24,04	-0,1389	35,61	322,55	-0,00183	
24,06	-0,1367	35,62	324,27	-0,00173	
24,08	-0,1347	35,67	325,95	-0,00165	
24,10	-0,1326	35,61	327,64	-0,00151	
24,12	-0,1304	34,67	329,36	-0,00142	
24,14	-0,1283	33,20	331,13	-0,00146	
24,16	-0,1261	32,41	332,93	-0,00159	
24,18	-0,1240	32,20	334,74	-0,00166	
24,20	-0,1219	32,15	336,54	-0,00168	
24,22	-0,1197	32,14	338,33	-0,00171	
24,24	-0,1175	32,20	340,18	-0,00166	
24,26	-0,1154	32,27	342,03	-0,00156	
24,28	-0,1132	32,22	343,89	-0,00148	
24,30	-0,1111	31,87	345,81	-0,00144	
24,32	-0,1089	30,45	347,73	-0,00145	
24,34	-0,1067	29,22	349,62	-0,00127	
24,36	-0,1044	28,78	351,56	-0,00064	
24,38	-0,1022	28,80	353,50	-0,00021	
24,40	-0,09995	28,84	355,41	0,000	
24,42	-0,09771	28,79	357,36	0,000	
24,44	-0,09547	28,81	359,34	0,00014	
24,46	-0,09316	28,83	361,35	0,00012	
24,48	-0,09075	28,36	363,36	0,000	
24,50	-0,08848	28,74	365,01	0,000	
24,52	-0,08638	35,81	365,92	0,000	
24,54	-0,08428	48,44	366,30	0,000	
24,56	-0,08213	62,73	366,54	0,00021	
24,58	-0,08007	77,16	366,84	-0,00023	
24,60	-0,07838	91,68	367,31	-0,00092	
24,62	-0,07711	101,03	367,97	-0,00122	
24,64	-0,07612	105,01	368,71	-0,00135	
24,66	-0,07524	107,82	369,55	-0,00152	
24,68	-0,07430	110,56	370,51	-0,00162	
24,70	-0,07351	113,57	371,42	-0,00160	
24,72	-0,07273	117,25	372,27	-0,00153	
24,74	-0,07188	119,06	373,19	-0,00149	
24,76	-0,07118	120,82	374,07	-0,00144	
24,78	-0,07051	123,02	374,91	-0,00141	
24,80	-0,06994	122,78	375,80	-0,00140	
24,82	-0,06943	121,09	376,64	-0,00149	
24,84	-0,06887	120,64	377,53	-0,00159	
24,86	-0,06834	119,55	378,46	-0,00165	
24,88	-0,06777	118,42	379,27	-0,00163	
24,90	-0,06704	117,45	380,16	-0,00152	
24,92	-0,06632	115,20	381,19	-0,00140	
24,94	-0,06570	113,95	382,11	-0,00130	
24,96	-0,06500	115,36	382,92	-0,00131	
24,98	-0,06431	116,65	383,78	-0,00133	
25,00	-0,06353	116,94	384,72	-0,00143	
25,02	-0,06277	118,93	385,61	-0,00149	
25,04	-0,06215	120,83	386,44	-0,00154	
25,06	-0,06162	119,53	387,34	-0,00152	
25,08	-0,06104	117,18	388,31	-0,00150	
25,10	-0,06050	116,33	389,22	-0,00142	
25,12	-0,06003	117,16	390,04	-0,00131	
25,14	-0,05938	116,99	390,95	-0,00131	
25,16	-0,05873	115,85	391,89	-0,00143	
25,18	-0,05827	116,31	392,76	-0,00154	
25,20	-0,05786	117,81	393,59	-0,00147	
25,22	-0,05736	117,75	394,44	-0,00149	
25,24	-0,05674	115,78	395,44	-0,00151	
25,26	-0,05623	114,69	396,41	-0,00143	
25,28	-0,05570	114,97	397,26	-0,00139	
25,30	-0,05519	115,37	398,08	-0,00134	
25,32	-0,05465	115,28	398,95	-0,00140	
25,34	-0,05409	116,09	399,80	-0,00156	
25,36	-0,05359	116,61	400,69	-0,00164	
25,38	-0,05308	114,36	401,72	-0,00159	
25,40	-0,05260	112,73	402,62	-0,00149	
25,42	-0,05212	114,31	403,41	-0,00139	
25,44	-0,05160	114,93	404,28	-0,00134	
25,46	-0,05098	114,09	405,23	-0,00132	
25,48	-0,05044	114,80	406,12	-0,00133	
25,50	-0,04997	115,78	406,93	-0,00145	
25,52	-0,04933	114,88	407,85	-0,00150	
25,54	-0,04868	114,44	408,80	-0,00149	
25,56	-0,04821	115,54	409,69	-0,00147	
25,58	-0,04777	115,86	410,58	-0,00137	
25,60	-0,04730	115,51	411,42	-0,00127	
25,62	-0,04685	115,91	412,27	-0,00122	
25,64	-0,04641	115,80	413,19	-0,00132	
25,66	-0,04594	114,76	414,12	-0,00147	
25,68	-0,04552	114,84	414,99	-0,00160	
25,70	-0,04509	114,87	415,87	-0,00160	
25,72	-0,04458	114,70	416,75	-0,00147	
25,74	-0,04403	115,55	417,66	-0,00139	
25,76	-0,04351	115,80	418,61	-0,00135	
25,78	-0,04307	115,52	419,49	-0,00126	
25,80	-0,04264	115,99	420,34	-0,00130	
25,82	-0,04216	115,89	421,26	-0,00146	
25,84	-0,04162	115,71	422,16	-0,00155	
25,86	-0,04111	116,73	423,02	-0,00151	
25,88	-0,04064	116,59	423,90	-0,00143	
25,90	-0,04018	116,07	424,81	-0,00134	
25,92	-0,03974	117,19	425,66	-0,00128	
25,94	-0,03932	118,19	426,51	-0,00122	
25,96	-0,03885	116,99	427,46	-0,00118	
25,98	-0,03837	115,73	428,37	-0,00123	
26,00	-0,03797	116,15	429,21	-0,00137	
26,02	-0,03751	116,14	430,11	-0,00148	
26,04	-0,03704	115,09	431,03	-0,00144	
26,06	-0,03657	114,42	431,94	-0,00139	
26,08	-0,03617	114,92	432,81	-0,00138	
26,10	-0,03575	114,43	433,68	-0,00134	
26,12	-0,03529	113,81	434,58	-0,00131	
26,14	-0,03483	113,87	435,50	-0,00138	
26,16	-0,03439	114,44	436,34	-0,00152	
26,18	-0,03390	114,88	437,21	-0,00157	
26,20	-0,03328	113,42	438,17	-0,00152	
26,22	-0,03281	112,55	439,04	-0,00143	
26,24	-0,03238	113,38	439,89	-0,00135	
26,26	-0,03189	113,03	440,82	-0,00133	
26,28	-0,03144	112,61	441,68	-0,00126	
26,30	-0,03098	112,72	442,55	-0,00118	
26,32	-0,03052	111,97	443,47	-0,00128	
26,34	-0,03010	110,65	444,34	-0,00149	
26,36	-0,02957	110,74	445,21	-0,00161	
26,38	-0,02900	110,83	446,14	-0,00160	
26,40	-0,02848	110,20	447,05	-0,00149	
26,42	-0,02794	110,32	447,90	-0,00139	
26,44	-0,02741	110,37	448,78	-0,00135	
26,46	-0,02697	110,04	449,67	-0,00132	
26,48	-0,02652	110,29	450,56	-0,00131	
26,50	-0,02607	110,38	451,46	-0,00142	
26,52	-0,02552	109,67	452,36	-0,00148	
26,54	-0,02501	108,94	453,21	-0,00150	
26,56	-0,02452	108,38	454,08	-0,00149	
26,58	-0,02402	106,72	455,03	-0,00141	
26,60	-0,02361	105,84	455,92	-0,00131	
26,62	-0,02312	106,62	456,79	-0,00130	
26,64	-0,02254	106,09	457,72	-0,00129	
26,66	-0,02206	104,93	458,57	-0,00135	
26,68	-0,02147	104,50	459,47	-0,00152	
26,70	-0,02088	103,25	460,41	-0,00157	
26,72	-0,02043	103,65	461,21	-0,00148	
26,74	-0,01989	104,39	462,07	-0,00138	
26,76	-0,01931	102,64	463,07	-0,00133	
26,78	-0,01881	102,31	463,93	-0,00133	
26,80	-0,01829	102,93	464,80	-0,00134	
26,82	-0,01772	101,19	465,71	-0,00142	
26,84	-0,01715	99,96	466,56	-0,00150	
26,86	-0,01653	100,61	467,44	-0,00159	
26,88	-0,01598	99,64	468,37	-0,00160	
26,90	-0,01547	98,55	469,22	-0,00153	
26,92	-0,01492	98,31	470,14	-0,00144	
26,94	-0,01435	96,79	471,05	-0,00132	
26,96	-0,01382	96,58	471,86	-0,00122	
26,98	-0,01318	96,15	472,79	-0,00123	
27,00	-0,01261	93,82	473,75	-0,00136	
27,02	-0,01215	93,33	474,55	-0,00147	
27,04	-0,01147	93,21	475,44	-0,00154	
27,06	-0,01074	91,72	476,36	-0,00153	
27,08	-0,01012	91,94	477,20	-0,00143	
27,10	-0,00953	91,85	478,15	-0,00135	
27,12	-0,00897	89,68	479,09	-0,00128	
27,14	-0,00847	88,79	479,92	-0,00123	
27,16	-0,00795	87,74	480,84	-0,00133	
27,18	-0,00737	86,07	481,70	-0,00149	
27,20	-0,00678	86,41	482,50	-0,00157	
27,22	-0,00606	85,94	483,46	-0,00153	
27,24	-0,00537	84,46	484,37	-0,00145	
27,26	-0,00474	85,03	485,21	-0,00139	
27,28	-0,00404	84,49	486,16	-0,00135	
27,30	-0,00339	82,31	487,04	-0,00135	
27,32	-0,00273	81,90	487,89	-0,00141	
27,34	-0,00201	81,08	488,83	-0,00149	
27,36	-0,00135	79,79	489,67	-0,00157	
27,38	-0,00072	80,37	490,49	-0,00163	
27,40	0,000	79,89	491,47	-0,00161	
27,42	0,00067	78,10	492,37	-0,00145	
27,44	0,00136	78,10	493,23	-0,00134	
27,46	0,00210	77,02	494,15	-0,00129	
27,48	0,00272	75,54	494,95	-0,00126	
27,50	0,00338	76,41	495,81	-0,00138	
27,52	0,00408	76,34	496,79	-0,00155	
27,54	0,00473	75,41	497,65	-0,00163	
27,56	0,00553	75,53	498,53	-0,00163	
27,58	0,00637	74,01	499,49	-0,00155	
27,60	0,00701	73,15	500,32	-0,00142	
27,62	0,00768	73,97	501,20	-0,00133	
27,64	0,00845	72,77	502,21	-0,00130	
27,66	0,00918	71,63	503,08	-0,00140	
27,68	0,00998	71,75	503,95	-0,00154	
27,70	0,01076	70,86	504,82	-0,00160	
27,72	0,01143	70,70	505,59	-0,00158	
27,74	0,01228	71,42	506,51	-0,00145	
27,76	0,01313	69,18	507,54	-0,00135	
27,78	0,01376	67,32	508,41	-0,00133	
27,80	0,01442	67,34	509,26	-0,00130	
27,82	0,01526	66,97	510,14	-0,00141	
27,84	0,01610	66,47	510,98	-0,00150	
27,86	0,01700	66,19	511,89	-0,00158	
27,88	0,01782	65,10	512,76	-0,00165	
27,90	0,01858	65,23	513,57	-0,00154	
27,92	0,01942	65,21	514,53	-0,00141	
27,94	0,02025	63,68	515,51	-0,00134	
27,96	0,02105	63,80	516,37	-0,00133	
27,98	0,02184	63,75	517,27	-0,00138	
28,00	0,02265	62,48	518,10	-0,00143	
28,02	0,02346	62,44	518,91	-0,00153	
28,04	0,02429	62,17	519,89	-0,00160	
28,06	0,02512	61,13	520,82	-0,00160	
28,08	0,02596	61,59	521,66	-0,00154	
28,10	0,02689	61,02	522,59	-0,00146	
28,12	0,02778	59,30	523,47	-0,00140	
28,14	0,02865	59,08	524,31	-0,00136	
28,16	0,02953	58,51	525,23	-0,00135	
28,18	0,03031	57,07	526,09	-0,00134	
28,20	0,03124	57,06	526,92	-0,00139	
28,22	0,03224	57,04	527,86	-0,00150	
28,24	0,03314	55,91	528,74	-0,00150	
28,26	0,03404	55,68	529,61	-0,00143	
28,28	0,03497	54,59	530,57	-0,00136	
28,30	0,03580	53,70	531,42	-0,00131	
28,32	0,03669	54,12	532,29	-0,00137	
28,34	0,03766	53,02	533,24	-0,00151	
28,36	0,03850	52,32	534,08	-0,00164	
28,38	0,03944	52,85	534,96	-0,00167	
28,40	0,04049	52,11	535,89	-0,00157	
28,42	0,04138	51,35	536,69	-0,00145	
28,44	0,04228	51,47	537,58	-0,00140	
28,46	0,04338	49,78	538,63	-0,00133	
28,48	0,04430	49,48	539,51	-0,00129	
28,50	0,04519	50,23	540,34	-0,00145	
28,52	0,04619	48,65	541,23	-0,00158	
28,54	0,04717	47,06	542,08	-0,00161	
28,56	0,04814	46,82	542,98	-0,00163	
28,58	0,04909	45,38	543,86	-0,00159	
28,60	0,05003	44,34	544,66	-0,00151	
28,62	0,05102	43,43	545,59	-0,00140	
28,64	0,05211	41,70	546,58	-0,00134	
28,66	0,05305	41,31	547,44	-0,00134	
28,68	0,05395	40,69	548,30	-0,00140	
28,70	0,05494	38,56	549,23	-0,00152	
28,72	0,05605	37,19	550,10	-0,00157	
28,74	0,05706	36,67	550,96	-0,00158	
28,76	0,05816	35,15	551,86	-0,00153	
28,78	0,05925	33,29	552,75	-0,00145	
28,80	0,06025	32,14	553,62	-0,00143	
28,82	0,06126	30,52	554,50	-0,00148	
28,84	0,06230	29,23	555,42	-0,00151	
28,86	0,06347	28,61	556,29	-0,00149	
28,88	0,06461	27,72	557,16	-0,00153	
28,90	0,06568	26,04	558,05	-0,00153	
28,92	0,06683	24,90	558,91	-0,00146	
28,94	0,06807	24,23	559,80	-0,00143	
28,96	0,06919	22,06	560,75	-0,00141	
28,98	0,07027	20,57	561,62	-0,00136	
29,00	0,07152	19,99	562,49	-0,00138	
29,02	0,07288	19,00	563,42	-0,00146	
29,04	0,07415	17,66	564,30	-0,00155	
29,06	0,07520	16,79	565,16	-0,00160	
29,08	0,07632	15,56	566,04	-0,00153	
29,10	0,07756	14,13	566,92	-0,00139	
29,12	0,07887	13,41	567,78	-0,00136	
29,14	0,08022	12,68	568,69	-0,00133	
29,16	0,08161	11,40	569,65	-0,00135	
29,18	0,08289	11,14	570,45	-0,00144	
29,20	0,08404	10,94	571,31	-0,00155	
29,22	0,08520	8,114	572,42	-0,00167	
29,24	0,08645	6,423	573,34	-0,00160	
29,26	0,08773	6,536	574,08	-0,00139	
29,28	0,08900	4,971	574,91	-0,00132	
29,30	0,09049	2,312	575,88	-0,00136	
29,32	0,09200	1,687	576,76	-0,00137	
29,34	0,09345	2,479	577,56	-0,00143	
29,36	0,09497	1,497	578,55	-0,00153	
29,38	0,09637	0,2191	579,55	-0,00164	
29,40	0,09768	0,7388	580,34	-0,00170	
29,42	0,09901	1,413	581,12	-0,00160	
29,44	0,1004	0,4057	582,05	-0,00148	
29,46	0,1018	-0,6757	583,01	-0,00138	
29,48	0,1031	0,9711	583,83	-0,00138	
29,50	0,1044	0,7351	584,78	-0,00146	
29,52	0,1059	-1,416	585,78	-0,00146	
29,54	0,1074	-0,7814	586,59	-0,00144	
29,56	0,1090	0,4654	587,45	-0,00150	
29,58	0,1105	-0,6318	588,39	-0,00151	
29,60	0,1118	-0,01013	589,22	-0,00140	
29,62	0,1131	1,590	590,06	-0,00136	
29,64	0,1145	0,9886	590,98	-0,00140	
29,66	0,1159	0,5843	591,89	-0,00142	
29,68	0,1172	2,074	592,77	-0,00144	
29,70	0,1185	2,591	593,68	-0,00150	
29,72	0,1199	2,392	594,58	-0,00159	
29,74	0,1212	2,813	595,42	-0,00165	
29,76	0,1225	3,194	596,30	-0,00156	
29,78	0,1239	3,309	597,21	-0,00136	
29,80	0,1252	4,292	598,06	-0,00125	
29,82	0,1266	5,321	598,97	-0,00129	
29,84	0,1280	4,674	599,96	-0,00143	
29,86	0,1293	5,014	600,84	-0,00156	
29,88	0,1306	6,444	601,66	-0,00159	
29,90	0,1319	6,817	602,56	-0,00156	
29,92	0,1333	7,139	603,47	-0,00148	
29,94	0,1346	9,681	604,21	-0,00144	
29,96	0,1359	11,63	605,11	-0,00139	
29,98	0,1374	11,21	606,29	-0,00140	
30,00	0,1387	12,15	607,23	-0,00148	
30,02	0,1400	15,13	607,93	-0,00157	
30,04	0,1413	16,41	608,76	-0,00160	
30,06	0,1427	15,60	609,72	-0,00160	
30,08	0,1441	17,26	610,56	-0,00153	
30,10	0,1452	19,73	611,38	-0,00143	
30,12	0,1463	18,98	612,36	-0,00136	
30,14	0,1474	18,94	613,33	-0,00134	
30,16	0,1487	21,14	614,18	-0,00138	
30,18	0,1500	22,64	615,03	-0,00153	
30,20	0,1514	22,47	615,93	-0,00160	
30,22	0,1525	22,86	616,80	-0,00160	
30,24	0,1535	24,51	617,63	-0,00154	
30,26	0,1548	25,23	618,59	-0,00144	
30,28	0,1561	26,09	619,50	-0,00138	
30,30	0,1571	28,29	620,31	-0,00133	
30,32	0,1582	29,26	621,23	-0,00138	
30,34	0,1595	28,76	622,19	-0,00154	
30,36	0,1606	30,47	623,06	-0,00163	
30,38	0,1617	32,12	623,95	-0,00159	
30,40	0,1629	32,06	624,82	-0,00153	
30,42	0,1640	32,87	625,69	-0,00142	
30,44	0,1651	33,66	626,59	-0,00138	
30,46	0,1662	34,01	627,44	-0,00138	
30,48	0,1674	35,03	628,31	-0,00134	
30,50	0,1684	34,57	629,30	-0,00141	
30,52	0,1696	34,88	630,20	-0,00154	
30,54	0,1707	36,63	631,06	-0,00163	
30,56	0,1718	36,90	631,98	-0,00164	
30,58	0,1728	37,79	632,80	-0,00157	
30,60	0,1739	39,28	633,68	-0,00147	
30,62	0,1750	39,54	634,67	-0,00139	
30,64	0,1761	40,17	635,56	-0,00138	
30,66	0,1771	42,01	636,41	-0,00139	
30,68	0,1781	42,29	637,32	-0,00148	
30,70	0,1791	42,82	638,20	-0,00162	
30,72	0,1801	45,33	639,05	-0,00162	
30,74	0,1812	46,53	639,96	-0,00155	
30,76	0,1823	46,40	640,88	-0,00147	
30,78	0,1833	47,35	641,70	-0,00142	
30,80	0,1842	48,74	642,54	-0,00135	
30,82	0,1852	48,15	643,52	-0,00128	
30,84	0,1862	47,37	644,47	-0,00137	
30,86	0,1872	48,48	645,32	-0,00147	
30,88	0,1881	49,52	646,18	-0,00153	
30,90	0,1890	49,46	647,05	-0,00152	
30,92	0,1900	49,49	647,99	-0,00147	
30,94	0,1910	49,65	648,91	-0,00139	
30,96	0,1918	51,11	649,66	-0,00127	
30,98	0,1927	52,24	650,51	-0,00122	
31,00	0,1938	51,57	651,59	-0,00131	
31,02	0,1947	52,49	652,52	-0,00145	
31,04	0,1956	54,21	653,36	-0,00150	
31,06	0,1966	53,31	654,22	-0,00147	
31,08	0,1974	52,97	655,04	-0,00145	
31,10	0,1983	53,72	655,98	-0,00141	
31,12	0,1993	53,42	656,92	-0,00133	
31,14	0,2001	54,18	657,68	-0,00127	
31,16	0,2010	55,38	658,59	-0,00130	
31,18	0,2020	54,40	659,60	-0,00138	
31,20	0,2028	54,81	660,45	-0,00145	
31,22	0,2037	55,69	661,35	-0,00154	
31,24	0,2046	55,08	662,22	-0,00156	
31,26	0,2055	55,13	663,03	-0,00150	
31,28	0,2064	55,90	663,97	-0,00136	
31,30	0,2073	56,04	664,88	-0,00126	
31,32	0,2081	57,01	665,69	-0,00130	
31,34	0,2091	57,39	666,62	-0,00148	
31,36	0,2100	56,74	667,57	-0,00162	
31,38	0,2109	57,65	668,44	-0,00162	
31,40	0,2118	58,39	669,33	-0,00154	
31,42	0,2127	57,69	670,21	-0,00144	
31,44	0,2135	57,44	671,08	-0,00135	
31,46	0,2143	57,80	671,98	-0,00127	
31,48	0,2151	57,42	672,88	-0,00126	
31,50	0,2160	57,46	673,75	-0,00140	
31,52	0,2169	57,68	674,63	-0,00158	
31,54	0,2178	57,29	675,53	-0,00163	
31,56	0,2187	56,96	676,43	-0,00162	
31,58	0,2196	57,02	677,32	-0,00157	
31,60	0,2205	56,99	678,22	-0,00142	
31,62	0,2214	56,95	679,07	-0,00128	
31,64	0,2222	57,10	679,92	-0,00126	
31,66	0,2230	56,83	680,86	-0,00139	
31,68	0,2239	56,26	681,72	-0,00157	
31,70	0,2247	57,07	682,50	-0,00173	
31,72	0,2257	57,05	683,50	-0,00174	
31,74	0,2267	55,55	684,51	-0,00157	
31,76	0,2276	55,58	685,34	-0,00140	
31,78	0,2284	55,21	686,23	-0,00131	
31,80	0,2294	53,59	687,11	-0,00132	
31,82	0,2302	54,14	687,93	-0,00143	
31,84	0,2311	54,65	688,85	-0,00157	
31,86	0,2321	52,72	689,76	-0,00163	
31,88	0,2330	51,25	690,61	-0,00163	
31,90	0,2339	50,81	691,51	-0,00159	
31,92	0,2349	49,94	692,40	-0,00146	
31,94	0,2359	49,58	693,28	-0,00136	
31,96	0,2369	49,72	694,17	-0,00133	
31,98	0,2378	48,95	695,04	-0,00131	
32,00	0,2387	48,92	695,90	-0,00142	
32,02	0,2398	47,97	696,84	-0,00158	
32,04	0,2407	46,58	697,72	-0,00162	
32,06	0,2416	46,48	698,58	-0,00157	
32,08	0,2428	45,66	699,52	-0,00146	
32,10	0,2438	43,83	700,43	-0,00132	
32,12	0,2447	43,28	701,27	-0,00126	
32,14	0,2457	42,61	702,15	-0,00130	
32,16	0,2467	41,78	703,05	-0,00140	
32,18	0,2478	41,31	703,94	-0,00153	
32,20	0,2489	41,01	704,84	-0,00156	
32,22	0,2498	39,66	705,73	-0,00156	
32,24	0,2508	38,31	706,58	-0,00151	
32,26	0,2518	37,65	707,46	-0,00139	
32,28	0,2529	36,71	708,39	-0,00136	
32,30	0,2540	35,51	709,30	-0,00135	
32,32	0,2550	34,22	710,14	-0,00142	
32,34	0,2560	33,61	710,97	-0,00162	
32,36	0,2570	32,55	711,88	-0,00172	
32,38	0,2582	30,88	712,81	-0,00170	
32,40	0,2594	29,92	713,68	-0,00162	
32,42	0,2604	28,37	714,53	-0,00149	
32,44	0,2616	26,19	715,45	-0,00141	
32,46	0,2627	24,18	716,37	-0,00139	
32,48	0,2638	23,37	717,19	-0,00141	
32,50	0,2649	22,56	718,01	-0,00150	
32,52	0,2662	20,01	718,99	-0,00166	
32,54	0,2673	17,94	719,98	-0,00166	
32,56	0,2684	17,32	720,81	-0,00157	
32,58	0,2696	17,41	721,57	-0,00145	
32,60	0,2710	16,02	722,52	-0,00140	
32,62	0,2723	14,69	723,61	-0,00138	
32,64	0,2736	15,07	724,49	-0,00135	
32,66	0,2746	16,47	725,19	-0,00145	
32,68	0,2757	17,36	726,07	-0,00162	
32,70	0,2771	17,49	727,17	-0,00165	
32,72	0,2784	19,64	728,07	-0,00164	
32,74	0,2797	22,03	728,86	-0,00154	
32,76	0,2810	23,16	729,76	-0,00140	
32,78	0,2824	24,91	730,68	-0,00128	
32,80	0,2834	28,42	731,52	-0,00126	
32,82	0,2845	31,71	732,40	-0,00137	
32,84	0,2856	33,73	733,33	-0,00152	
32,86	0,2866	36,57	734,19	-0,00162	
32,88	0,2877	39,85	735,06	-0,00161	
32,90	0,2888	41,15	736,01	-0,00155	
32,92	0,2898	42,49	736,83	-0,00141	
32,94	0,2909	44,86	737,72	-0,00130	
32,96	0,2920	45,51	738,68	-0,00130	
32,98	0,2928	47,51	739,42	-0,00139	
33,00	0,2938	49,69	740,36	-0,00153	
33,02	0,2949	48,48	741,57	-0,00159	
33,04	0,2959	49,25	742,44	-0,00153	
33,06	0,2968	52,19	743,18	-0,00151	
33,08	0,2978	52,08	744,06	-0,00145	
33,10	0,2987	51,98	744,90	-0,00137	
33,12	0,2997	53,80	745,81	-0,00132	
33,14	0,3006	53,87	746,68	-0,00133	
33,16	0,3014	53,52	747,46	-0,00144	
33,18	0,3024	53,12	748,46	-0,00157	
33,20	0,3034	53,30	749,35	-0,00155	
33,22	0,3043	56,04	749,98	-0,00146	
33,24	0,3052	56,78	751,11	-0,00142	
33,26	0,3062	53,89	752,54	-0,00130	
33,28	0,3071	54,39	753,28	-0,00123	
33,30	0,3078	58,10	753,56	-0,00128	
33,32	0,3087	57,83	754,41	-0,00144	
33,34	0,3100	54,08	755,96	-0,00153	
33,36	0,3110	55,01	757,05	-0,00149	
33,38	0,3117	58,03	757,33	-0,00144	
33,40	0,3124	58,34	757,75	-0,00141	
33,42	0,3134	55,27	759,11	-0,00131	
33,44	0,3144	53,37	760,69	-0,00122	
33,46	0,3151	55,15	761,30	-0,00126	
33,48	0,3157	57,29	761,36	-0,00141	
33,50	0,3166	56,02	762,22	-0,00155	
33,52	0,3177	52,94	763,95	-0,00158	
33,54	0,3185	52,30	765,18	-0,00150	
33,56	0,3190	54,98	765,38	-0,00136	
33,58	0,3196	54,28	765,84	-0,00136	
33,60	0,3206	48,92	767,32	-0,00135	
33,62	0,3215	46,39	768,73	-0,00129	
33,64	0,3221	49,39	769,08	-0,00136	
33,66	0,3226	51,29	769,18	-0,00152	
33,68	0,3235	46,97	770,25	-0,00162	
33,70	0,3246	42,65	772,08	-0,00163	
33,72	0,3253	42,95	773,21	-0,00154	
33,74	0,3257	46,01	773,39	-0,00137	
33,76	0,3263	44,15	774,08	-0,00132	
33,78	0,3274	38,52	775,61	-0,00137	
33,80	0,3282	38,59	776,65	-0,00135	
33,82	0,3287	42,42	776,85	-0,00142	
33,84	0,3293	41,99	777,24	-0,00163	
33,86	0,3302	37,32	778,66	-0,00173	
33,88	0,3311	34,82	780,29	-0,00159	
33,90	0,3316	37,40	780,86	-0,00136	
33,92	0,3320	41,45	780,86	-0,00128	
33,94	0,3328	40,38	781,75	-0,00130	
33,96	0,3338	36,53	783,54	-0,00135	
33,98	0,3346	35,47	784,81	-0,00142	
34,00	0,3350	37,88	785,00	-0,00154	
34,02	0,3355	36,74	785,48	-0,00163	
34,04	0,3365	32,25	786,95	-0,00162	
34,06	0,3373	31,11	788,25	-0,00152	
34,08	0,3377	35,98	788,48	-0,00138	
34,10	0,3381	37,77	788,61	-0,00132	
34,12	0,3389	34,31	789,82	-0,00134	
34,14	0,3398	30,96	791,76	-0,00138	
34,16	0,3404	30,50	792,92	-0,00142	
34,18	0,3406	32,60	793,13	-0,00145	
34,20	0,3411	30,57	793,86	-0,00146	
34,22	0,3420	26,69	795,26	-0,00142	
34,24	0,3426	28,56	796,08	-0,00133	
34,26	0,3430	32,19	796,50	-0,00126	
34,28	0,3436	28,69	797,38	-0,00136	
34,30	0,3442	25,26	798,31	-0,00153	
34,32	0,3446	29,08	798,82	-0,00160	
34,34	0,3451	32,28	799,62	-0,00162	
34,36	0,3457	28,91	801,21	-0,00158	
34,38	0,3463	26,56	802,45	-0,00147	
34,40	0,3467	29,83	802,82	-0,00132	
34,42	0,3471	31,36	803,41	-0,00130	
34,44	0,3477	28,39	804,67	-0,00138	
34,46	0,3483	28,81	805,57	-0,00145	
34,48	0,3486	33,83	806,07	-0,00155	
34,50	0,3492	32,86	807,28	-0,00161	
34,52	0,3498	28,78	808,72	-0,00150	
34,54	0,3502	31,42	809,26	-0,00136	
34,56	0,3505	36,53	809,48	-0,00133	
34,58	0,3510	35,34	810,57	-0,00129	
34,60	0,3517	31,72	812,23	-0,00136	
34,62	0,3521	34,89	813,10	-0,00145	
34,64	0,3524	38,13	813,49	-0,00148	
34,66	0,3530	36,56	814,30	-0,00153	
34,68	0,3536	35,94	815,21	-0,00156	
34,70	0,3541	40,01	815,77	-0,00145	
34,72	0,3545	42,80	816,64	-0,00137	
34,74	0,3551	40,52	818,20	-0,00135	
34,76	0,3555	40,90	819,28	-0,00135	
34,78	0,3558	43,79	819,87	-0,00145	
34,80	0,3563	43,44	820,62	-0,00153	
34,82	0,3568	43,18	821,38	-0,00163	
34,84	0,3572	45,70	822,31	-0,00163	
34,86	0,3578	47,15	823,18	-0,00149	
34,88	0,3581	49,28	823,57	-0,00139	
34,90	0,3585	51,89	824,45	-0,00137	
34,92	0,3591	50,35	826,26	-0,00134	
34,94	0,3596	47,50	827,54	-0,00132	
34,96	0,3599	51,76	827,58	-0,00147	
34,98	0,3602	55,22	827,79	-0,00161	
35,00	0,3608	52,35	829,32	-0,00166	
35,02	0,3614	49,26	831,25	-0,00160	
35,04	0,3618	51,59	831,95	-0,00141	
35,06	0,3620	54,90	831,96	-0,00128	
35,08	0,3625	52,16	832,99	-0,00128	
35,10	0,3631	48,54	834,62	-0,00134	
35,12	0,3634	51,65	835,32	-0,00149	
35,14	0,3636	54,61	835,43	-0,00162	
35,16	0,3640	49,87	836,38	-0,00164	
35,18	0,3645	43,74	838,09	-0,00161	
35,20	0,3648	45,69	839,05	-0,00148	
35,22	0,3650	48,80	839,39	-0,00136	
35,24	0,3655	46,12	840,06	-0,00133	
35,26	0,3660	42,75	840,98	-0,00133	
35,28	0,3662	44,95	841,56	-0,00142	
35,30	0,3666	46,37	842,39	-0,00158	
35,32	0,3672	41,11	844,04	-0,00167	
35,34	0,3675	37,97	845,30	-0,00152	
35,36	0,3678	40,05	845,81	-0,00138	
35,38	0,3682	39,03	846,43	-0,00137	
35,40	0,3687	35,76	847,26	-0,00134	
35,42	0,3691	36,03	848,08	-0,00132	
35,44	0,3695	36,51	848,96	-0,00144	
35,46	0,3699	34,53	849,44	-0,00155	
35,48	0,3702	35,76	849,57	-0,00154	
35,50	0,3708	36,62	849,96	-0,00148	
35,52	0,3712	37,95	850,05	-0,00135	
35,54	0,3714	44,63	849,71	-0,00128	
35,56	0,3718	48,96	849,81	-0,00133	
35,58	0,3723	49,06	849,97	-0,00128	
35,60	0,3726	53,56	849,71	-0,00133	
35,62	0,3730	57,27	849,77	-0,00151	
35,64	0,3734	54,95	850,02	-0,00154	
35,66	0,3736	56,95	849,81	-0,00150	
35,68	0,3739	61,79	849,71	-0,00147	
35,70	0,3744	60,30	849,90	-0,00135	
35,72	0,3746	61,53	849,72	-0,00120	
35,74	0,3749	66,83	849,69	-0,00123	
35,76	0,3754	65,64	850,09	-0,00135	
35,78	0,3757	64,69	850,05	-0,00147	
35,80	0,3759	70,53	849,69	-0,00152	
35,82	0,3762	71,85	849,79	-0,00152	
35,84	0,3766	69,69	849,86	-0,00140	
35,86	0,3767	73,95	849,64	-0,00131	
35,88	0,3772	74,32	849,88	-0,00127	
35,90	0,3776	70,79	850,12	-0,00116	
35,92	0,3778	73,78	849,83	-0,00114	
35,94	0,3781	77,60	849,73	-0,00122	
35,96	0,3785	74,88	849,94	-0,00137	
35,98	0,3787	76,39	849,75	-0,00145	
36,00	0,3788	80,30	849,69	-0,00155	
36,02	0,3791	78,05	850,07	-0,00153	
36,04	0,3794	76,76	850,06	-0,00133	
36,06	0,3795	81,19	849,71	-0,00123	
36,08	0,3799	80,87	849,80	-0,00125	
36,10	0,3803	78,06	849,89	-0,00130	
36,12	0,3805	81,94	849,62	-0,00144	
36,14	0,3808	83,83	849,76	-0,00153	
36,16	0,3810	80,24	850,09	-0,00154	
36,18	0,3812	81,72	849,88	-0,00141	
36,20	0,3814	86,03	849,70	-0,00130	
36,22	0,3818	83,47	849,90	-0,00118	
36,24	0,3821	83,09	849,80	-0,00107	
36,26	0,3821	87,73	849,62	-0,00113	
36,28	0,3825	86,20	849,91	-0,00139	
36,30	0,3828	83,50	849,97	-0,00149	
36,32	0,3828	87,89	849,68	-0,00143	
36,34	0,3831	88,69	849,81	-0,00143	
36,36	0,3835	85,03	849,93	-0,00135	
36,38	0,3835	87,95	849,67	-0,00120	
36,40	0,3839	89,94	849,78	-0,00113	
36,42	0,3843	86,81	850,04	-0,00118	
36,44	0,3844	88,22	849,81	-0,00132	
36,46	0,3846	92,09	849,65	-0,00143	
36,48	0,3850	89,51	849,92	-0,00143	
36,50	0,3851	88,85	849,85	-0,00135	
36,52	0,3853	93,88	849,64	-0,00130	
36,54	0,3856	92,75	849,93	-0,00128	
36,56	0,3858	89,47	850,03	-0,00121	
36,58	0,3860	92,62	849,70	-0,00124	
36,60	0,3862	94,02	849,76	-0,00139	
36,62	0,3864	90,51	850,00	-0,00148	
36,64	0,3866	92,38	849,79	-0,00150	
36,66	0,3868	95,95	849,66	-0,00145	
36,68	0,3870	93,14	849,94	-0,00136	
36,70	0,3873	92,80	849,88	-0,00125	
36,72	0,3874	97,98	849,62	-0,00118	
36,74	0,3876	97,12	849,87	-0,00118	
36,76	0,3878	93,96	850,04	-0,00125	
36,78	0,3880	98,27	849,73	-0,00136	
36,80	0,3882	100,49	849,73	-0,00145	
36,82	0,3885	95,79	849,98	-0,00141	
36,84	0,3887	96,39	849,79	-0,00124	
36,86	0,3888	100,09	849,67	-0,00116	
36,88	0,3891	96,96	849,93	-0,00120	
36,90	0,3893	95,73	849,86	-0,00124	
36,92	0,3894	100,65	849,64	-0,00137	
36,94	0,3897	99,58	849,88	-0,00149	
36,96	0,3897	96,95	849,94	-0,00142	
36,98	0,3898	100,91	849,65	-0,00130	
37,00	0,3902	101,60	849,79	-0,00132	
37,02	0,3904	98,04	849,99	-0,00132	
37,04	0,3904	100,07	849,72	-0,00127	
37,06	0,3907	102,24	849,72	-0,00128	
37,08	0,3910	98,44	850,01	-0,00135	
37,10	0,3910	98,80	849,85	-0,00139	
37,12	0,3910	102,38	849,67	-0,00144	
37,14	0,3915	99,59	849,92	-0,00145	
37,16	0,3917	97,38	849,90	-0,00133	
37,18	0,3916	101,98	849,61	-0,00127	
37,20	0,3920	101,84	849,83	-0,00126	
37,22	0,3923	98,03	850,04	-0,00129	
37,24	0,3923	101,28	849,75	-0,00131	
37,26	0,3923	103,90	849,69	-0,00134	
37,28	0,3927	99,92	850,00	-0,00139	
37,30	0,3929	100,27	849,86	-0,00139	
37,32	0,3929	104,41	849,66	-0,00137	
37,34	0,3932	101,16	850,03	-0,00131	
37,36	0,3935	97,79	850,13	-0,00119	
37,38	0,3936	101,72	849,78	-0,00121	
37,40	0,3937	102,26	849,79	-0,00129	
37,42	0,3941	98,46	849,95	-0,00136	
37,44	0,3942	101,68	849,69	-0,00144	
37,46	0,3943	104,82	849,72	-0,00150	
37,48	0,3945	100,85	850,12	-0,00143	
37,50	0,3947	99,68	850,03	-0,00127	
37,52	0,3948	103,96	849,70	-0,00118	
37,54	0,3950	101,79	849,87	-0,00117	
37,56	0,3951	98,47	849,93	-0,00118	
37,58	0,3952	103,19	849,64	-0,00129	
37,60	0,3956	104,29	849,78	-0,00145	
37,62	0,3958	100,21	850,03	-0,00143	
37,64	0,3958	102,40	849,77	-0,00129	
37,66	0,3961	105,47	849,71	-0,00131	
37,68	0,3964	101,81	849,99	-0,00128	
37,70	0,3964	100,88	849,86	-0,00115	
37,72	0,3963	104,45	849,65	-0,00115	
37,74	0,3967	102,47	849,92	-0,00128	
37,76	0,3970	100,01	849,96	-0,00139	
37,78	0,3969	104,04	849,64	-0,00140	
37,80	0,3971	104,34	849,79	-0,00139	
37,82	0,3974	100,87	850,04	-0,00133	
37,84	0,3976	103,21	849,80	-0,00122	
37,86	0,3977	105,84	849,69	-0,00120	
37,88	0,3979	102,05	849,90	-0,00122	
37,90	0,3982	102,37	849,77	-0,00127	
37,92	0,3983	106,52	849,64	-0,00140	
37,94	0,3985	103,77	849,96	-0,00147	
37,96	0,3986	101,72	849,99	-0,00142	
37,98	0,3988	106,82	849,66	-0,00134	
38,00	0,3990	107,01	849,84	-0,00127	
38,02	0,3992	103,45	850,07	-0,00122	
38,04	0,3991	106,29	849,81	-0,00123	
38,06	0,3993	108,60	849,70	-0,00124	
38,08	0,3997	104,45	849,87	-0,00125	
38,10	0,3997	104,49	849,70	-0,00135	
38,12	0,3997	108,47	849,61	-0,00151	
38,14	0,3999	106,12	850,02	-0,00153	
38,16	0,4003	103,33	850,07	-0,00135	
38,18	0,4003	107,26	849,73	-0,00121	
38,20	0,4004	107,03	849,82	-0,00121	
38,22	0,4007	103,43	849,98	-0,00123	
38,24	0,4008	106,29	849,71	-0,00132	
38,26	0,4010	108,40	849,73	-0,00145	
38,28	0,4012	104,42	849,98	-0,00147	
38,30	0,4012	105,18	849,79	-0,00131	
38,32	0,4015	108,38	849,70	-0,00124	
38,34	0,4018	105,72	850,00	-0,00125	
38,36	0,4018	104,55	849,96	-0,00118	
38,38	0,4017	108,77	849,63	-0,00121	
38,40	0,4019	108,19	849,80	-0,00133	
38,42	0,4023	105,00	849,97	-0,00137	
38,44	0,4023	108,63	849,70	-0,00137	
38,46	0,4024	110,64	849,74	-0,00140	
38,48	0,4027	105,81	850,06	-0,00131	
38,50	0,4029	105,65	849,90	-0,00116	
38,52	0,4030	109,87	849,68	-0,00110	
38,54	0,4032	107,16	849,91	-0,00119	
38,56	0,4033	105,17	849,91	-0,00128	
38,58	0,4034	110,14	849,64	-0,00135	
38,60	0,4037	110,34	849,85	-0,00141	
38,62	0,4039	106,86	850,02	-0,00139	
38,64	0,4037	109,62	849,73	-0,00129	
38,66	0,4039	111,70	849,76	-0,00121	
38,68	0,4043	107,86	850,05	-0,00112	
38,70	0,4044	108,47	849,89	-0,00109	
38,72	0,4043	112,53	849,66	-0,00116	
38,74	0,4046	109,95	849,92	-0,00127	
38,76	0,4049	107,44	849,97	-0,00126	
38,78	0,4049	111,71	849,66	-0,00128	
38,80	0,4051	112,21	849,81	-0,00141	
38,82	0,4052	108,34	850,07	-0,00132	
38,84	0,4053	110,57	849,82	-0,00112	
38,86	0,4056	113,43	849,71	-0,00111	
38,88	0,4058	109,74	849,95	-0,00122	
38,90	0,4058	109,41	849,82	-0,00129	
38,92	0,4057	113,98	849,62	-0,00134	
38,94	0,4061	112,03	849,94	-0,00140	
38,96	0,4064	109,04	850,07	-0,00129	
38,98	0,4064	112,94	849,74	-0,00119	
39,00	0,4065	113,88	849,76	-0,00119	
39,02	0,4068	109,43	849,92	-0,00119	
39,04	0,4070	111,69	849,67	-0,00126	
39,06	0,4071	115,17	849,69	-0,00142	
39,08	0,4072	111,76	850,04	-0,00149	
39,10	0,4073	110,72	849,96	-0,00139	
39,12	0,4075	115,06	849,66	-0,00131	
39,14	0,4078	113,57	849,85	-0,00120	
39,16	0,4079	110,46	849,95	-0,00111	
39,18	0,4077	114,25	849,65	-0,00116	
39,20	0,4078	115,27	849,75	-0,00122	
39,22	0,4082	111,06	850,02	-0,00130	
39,24	0,4083	112,50	849,81	-0,00136	
39,26	0,4084	115,71	849,70	-0,00148	
39,28	0,4086	112,73	849,99	-0,00148	
39,30	0,4088	111,64	849,92	-0,00134	
39,32	0,4089	116,18	849,66	-0,00122	
39,34	0,4092	114,92	849,86	-0,00120	
39,36	0,4092	111,22	849,92	-0,00125	
39,38	0,4091	114,86	849,64	-0,00136	
39,40	0,4093	115,88	849,78	-0,00151	
39,42	0,4097	111,94	850,03	-0,00152	
39,44	0,4097	113,47	849,78	-0,00137	
39,46	0,4098	116,12	849,66	-0,00127	
39,48	0,4099	112,70	849,95	-0,00124	
39,50	0,4100	111,91	849,88	-0,00116	
39,52	0,4102	116,96	849,61	-0,00115	
39,54	0,4105	115,37	849,88	-0,00121	
39,56	0,4106	111,20	850,07	-0,00129	
39,58	0,4104	114,95	849,77	-0,00136	
39,60	0,4105	117,41	849,72	-0,00139	
39,62	0,4109	112,94	849,91	-0,00138	
39,64	0,4110	113,99	849,72	-0,00129	
39,66	0,4111	117,22	849,75	-0,00124	
39,68	0,4113	114,15	850,06	-0,00116	
39,70	0,4113	113,26	849,89	-0,00114	
39,72	0,4115	117,30	849,66	-0,00129	
39,74	0,4119	115,40	849,94	-0,00143	
39,76	0,4119	112,75	849,99	-0,00139	
39,78	0,4118	117,04	849,68	-0,00133	
39,80	0,4120	117,11	849,79	-0,00130	
39,82	0,4124	112,94	849,97	-0,00121	
39,84	0,4124	115,80	849,71	-0,00109	
39,86	0,4125	118,56	849,72	-0,00109	
39,88	0,4126	114,89	850,04	-0,00126	
39,90	0,4127	114,78	849,90	-0,00137	
39,92	0,4129	118,55	849,67	-0,00141	
39,94	0,4132	116,46	849,90	-0,00141	
39,96	0,4133	114,19	849,92	-0,00128	
39,98	0,4131	118,28	849,63	-0,00118	
40,00	0,4132	118,24	849,81	-0,00119	
40,02	0,4136	114,54	850,02	-0,00119	
40,04	0,4137	116,72	849,77	-0,00119	
40,06	0,4138	119,22	849,73	-0,00138	
40,08	0,4139	115,59	849,97	-0,00148	
40,10	0,4139	115,77	849,80	-0,00142	
40,12	0,4141	119,94	849,63	-0,00134	
40,14	0,4145	117,42	849,89	-0,00130	
40,16	0,4146	115,37	849,89	-0,00120	
40,18	0,4144	120,13	849,62	-0,00120	
40,20	0,4145	119,70	849,86	-0,00128	
40,22	0,4147	115,81	850,04	-0,00139	
40,24	0,4149	118,89	849,75	-0,00145	
40,26	0,4151	120,39	849,80	-0,00149	
40,28	0,4153	115,68	850,07	-0,00132	
40,30	0,4152	116,33	849,85	-0,00110	
40,32	0,4151	121,13	849,62	-0,00107	
40,34	0,4155	118,43	849,99	-0,00120	
40,36	0,4158	115,41	850,12	-0,00133	
40,38	0,4158	119,00	849,76	-0,00142	
40,40	0,4158	119,40	849,78	-0,00147	
40,42	0,4160	115,19	850,09	-0,00140	
40,44	0,4161	116,61	849,90	-0,00133	
40,46	0,4163	120,08	849,73	-0,00132	
40,48	0,4166	117,06	850,02	-0,00128	
40,50	0,4166	115,18	849,99	-0,00126	
40,52	0,4164	119,47	849,70	-0,00135	
40,54	0,4166	118,40	849,85	-0,00147	
40,56	0,4169	114,76	849,91	-0,00144	
40,58	0,4170	118,32	849,65	-0,00134	
40,60	0,4172	119,36	849,81	-0,00132	
40,62	0,4173	115,38	850,04	-0,00122	
40,64	0,4171	117,41	849,76	-0,00114	
40,66	0,4173	120,95	849,67	-0,00123	
40,68	0,4177	117,24	850,04	-0,00134	
40,70	0,4179	116,03	850,01	-0,00141	
40,72	0,4178	120,02	849,70	-0,00149	
40,74	0,4179	118,33	849,83	-0,00150	
40,76	0,4181	115,05	849,89	-0,00141	
40,78	0,4182	119,03	849,62	-0,00130	
40,80	0,4185	119,72	849,86	-0,00124	
40,82	0,4186	114,76	850,19	-0,00115	
40,84	0,4185	115,16	849,92	-0,00113	
40,86	0,4185	118,45	849,70	-0,00126	
40,88	0,4189	114,75	849,98	-0,00144	
40,90	0,4192	113,17	849,98	-0,00156	
40,92	0,4191	118,00	849,68	-0,00150	
40,94	0,4192	117,07	849,81	-0,00140	
40,96	0,4194	113,99	849,88	-0,00122	
40,98	0,4196	117,40	849,66	-0,00114	
41,00	0,4199	117,74	849,87	-0,00122	
41,02	0,4200	113,92	850,07	-0,00128	
41,04	0,4198	115,79	849,77	-0,00134	
41,06	0,4198	118,29	849,74	-0,00150	
41,08	0,4201	114,69	850,06	-0,00149	
41,10	0,4203	115,17	849,92	-0,00132	
41,12	0,4204	118,60	849,69	-0,00121	
41,14	0,4206	114,87	849,89	-0,00116	
41,16	0,4207	112,18	849,86	-0,00112	
41,18	0,4208	116,10	849,64	-0,00118	
41,20	0,4211	115,54	849,90	-0,00137	
41,22	0,4213	112,76	850,02	-0,00146	
41,24	0,4212	116,02	849,71	-0,00144	
41,26	0,4213	117,85	849,76	-0,00143	
41,28	0,4216	114,50	849,98	-0,00132	
41,30	0,4218	116,02	849,77	-0,00115	
41,32	0,4218	119,33	849,63	-0,00111	
41,34	0,4220	116,52	849,87	-0,00117	
41,36	0,4220	115,91	849,78	-0,00125	
41,38	0,4222	119,42	849,63	-0,00131	
41,40	0,4226	116,95	850,01	-0,00133	
41,42	0,4227	113,67	850,15	-0,00122	
41,44	0,4225	117,54	849,78	-0,00109	
41,46	0,4226	118,99	849,77	-0,00106	
41,48	0,4229	115,22	850,06	-0,00110	
41,50	0,4231	116,45	849,90	-0,00111	
41,52	0,4232	120,09	849,68	-0,00119	
41,54	0,4233	117,20	849,95	-0,00133	
41,56	0,4234	115,05	849,98	-0,00140	
41,58	0,4236	118,78	849,69	-0,00139	
41,60	0,4239	118,38	849,81	-0,00129	
41,62	0,4240	114,67	849,93	-0,00118	
41,64	0,4238	117,91	849,65	-0,00113	
41,66	0,4239	120,00	849,80	-0,00117	
41,68	0,4243	115,35	850,18	-0,00135	
41,70	0,4245	115,09	849,99	-0,00151	
41,72	0,4245	118,87	849,74	-0,00167	
41,74	0,4247	116,05	850,00	-0,00168	
41,76	0,4248	113,65	850,02	-0,00155	
41,78	0,4249	118,00	849,69	-0,00147	
41,80	0,4252	118,21	849,81	-0,00144	
41,82	0,4254	114,72	849,97	-0,00143	
41,84	0,4252	117,96	849,71	-0,00157	
41,86	0,4252	120,67	849,73	-0,00168	
41,88	0,4256	116,41	849,98	-0,00158	
41,90	0,4257	116,72	849,79	-0,00144	
41,92	0,4258	120,59	849,66	-0,00174	
41,94	0,4260	117,69	850,00	-0,00296	
41,96	0,4262	115,18	850,02	-0,00353	
41,98	0,4264	118,82	849,69	-0,00365	
42,00	0,4266	118,11	849,80	-0,00406	
42,02	0,4267	114,61	849,96	-0,00456	
42,04	0,4265	118,33	849,68	-0,00490	
42,06	0,4267	121,07	849,69	-0,00514	
42,08	0,4271	117,02	850,01	-0,00563	
42,10	0,4272	117,35	849,87	-0,00615	
42,12	0,4272	120,92	849,69	-0,00612	
42,14	0,4273	117,85	849,93	-0,00613	
42,16	0,4276	115,49	849,88	-0,00640	
42,18	0,4277	120,07	849,63	-0,00664	
42,20	0,4280	119,71	849,90	-0,00685	
42,22	0,4280	115,77	850,07	-0,00706	
42,24	0,4279	118,83	849,74	-0,00706	
42,26	0,4282	121,10	849,76	-0,00713	
42,28	0,4286	116,62	850,07	-0,00742	
42,30	0,4286	117,16	849,90	-0,00793	
42,32	0,4285	121,43	849,69	-0,00835	
42,34	0,4288	118,24	849,94	-0,00852	
42,36	0,4291	116,06	849,93	-0,00870	
42,38	0,4291	120,92	849,67	-0,00884	
42,40	0,4293	120,47	849,86	-0,00887	
42,42	0,4293	116,88	849,98	-0,00880	
42,44	0,4294	119,55	849,70	-0,00877	
42,46	0,4298	121,31	849,75	-0,00878	
42,48	0,4300	117,89	849,98	-0,00895	
42,50	0,4299	119,32	849,77	-0,00952	
42,52	0,4299	122,50	849,66	-0,01092	
42,54	0,4303	119,04	849,96	-0,01217	
42,56	0,4305	117,58	849,90	-0,01230	
42,58	0,4305	121,79	849,64	-0,01296	
42,60	0,4306	120,60	849,86	-0,01300	
42,62	0,4307	117,35	849,98	-0,01246	
42,64	0,4308	120,98	849,68	-0,01385	
42,66	0,4311	122,32	849,74	-0,01549	
42,68	0,4313	118,56	850,01	-0,01632	
42,70	0,4312	120,00	849,81	-0,01655	
42,72	0,4312	122,83	849,67	-0,01661	
42,74	0,4315	119,00	849,92	-0,01657	
42,76	0,4317	117,45	849,85	-0,01650	
42,78	0,4318	121,69	849,63	-0,01648	
42,80	0,4320	120,46	849,93	-0,01654	
42,82	0,4321	117,20	850,06	-0,01663	
42,84	0,4321	120,82	849,74	-0,01674	
42,86	0,4325	121,51	849,82	-0,01685	
42,88	0,4327	116,50	850,04	-0,01689	
42,90	0,4326	118,26	849,79	-0,01686	
42,92	0,4326	121,65	849,69	-0,01681	
42,94	0,4330	117,69	849,97	-0,01669	
42,96	0,4332	116,46	849,87	-0,01657	
42,98	0,4332	120,57	849,66	-0,01660	
43,00	0,4334	118,27	849,94	-0,01672	
43,02	0,4335	115,37	850,00	-0,01684	
43,04	0,4336	119,21	849,69	-0,01692	
43,06	0,4339	119,24	849,82	-0,01692	
43,08	0,4341	115,08	850,02	-0,01680	
43,10	0,4339	117,77	849,75	-0,01661	
43,12	0,4339	120,68	849,69	-0,01660	
43,14	0,4343	116,30	850,01	-0,01670	
43,16	0,4345	115,61	849,92	-0,01681	
43,18	0,4345	120,68	849,66	-0,01692	
43,20	0,4347	119,15	849,92	-0,01702	
43,22	0,4350	115,22	850,04	-0,01700	
43,24	0,4351	119,01	849,70	-0,01689	
43,26	0,4353	120,80	849,76	-0,01691	
43,28	0,4354	116,20	850,11	-0,01686	
43,30	0,4353	116,61	849,94	-0,01674	
43,32	0,4354	119,98	849,70	-0,01676	
43,34	0,4358	117,22	849,92	-0,01691	
43,36	0,4360	115,07	849,91	-0,01708	
43,38	0,4359	119,47	849,63	-0,01717	
43,40	0,4360	119,12	849,85	-0,01715	
43,42	0,4364	115,39	850,07	-0,01702	
43,44	0,4365	118,49	849,77	-0,01690	
43,46	0,4366	121,11	849,71	-0,01682	
43,48	0,4368	116,56	850,02	-0,01683	
43,50	0,4369	116,41	849,90	-0,01694	
43,52	0,4371	120,50	849,69	-0,01715	
43,54	0,4374	117,91	849,90	-0,01726	
43,56	0,4374	115,50	849,87	-0,01719	
43,58	0,4373	119,94	849,63	-0,01705	
43,60	0,4376	119,89	849,89	-0,01699	
43,62	0,4380	116,62	850,04	-0,01684	
43,64	0,4379	119,17	849,73	-0,01675	
43,66	0,4380	119,85	849,74	-0,01684	
43,68	0,4382	115,50	849,99	-0,01698	
43,70	0,4384	116,65	849,79	-0,01707	
43,72	0,4385	120,80	849,63	-0,01712	
43,74	0,4387	117,75	849,96	-0,01708	
43,76	0,4387	115,10	849,99	-0,01697	
43,78	0,4386	119,30	849,69	-0,01686	
43,80	0,4390	118,52	849,83	-0,01679	
43,82	0,4393	114,61	849,98	-0,01685	
43,84	0,4393	118,18	849,69	-0,01693	
43,86	0,4393	120,35	849,75	-0,01701	
43,88	0,4396	115,66	850,06	-0,01708	
43,90	0,4398	115,83	849,89	-0,01706	
43,92	0,4399	119,55	849,68	-0,01701	
43,94	0,4401	117,11	849,90	-0,01701	
43,96	0,4401	115,15	849,86	-0,01695	
43,98	0,4402	119,35	849,62	-0,01698	
44,00	0,4406	118,44	849,88	-0,01714	
44,02	0,4408	114,53	850,02	-0,01727	
44,04	0,4406	117,94	849,71	-0,01729	
44,06	0,4407	119,49	849,79	-0,01732	
44,08	0,4410	115,49	850,04	-0,01717	
44,10	0,4412	116,63	849,80	-0,01697	
44,12	0,4413	118,67	849,75	-0,01698	
44,14	0,4415	114,71	850,03	-0,01704	
44,16	0,4415	113,72	849,89	-0,01709	
44,18	0,4417	117,64	849,66	-0,01717	
44,20	0,4421	116,24	849,96	-0,01730	
44,22	0,4422	113,89	850,05	-0,01731	
44,24	0,4420	118,03	849,72	-0,01722	
44,26	0,4421	119,18	849,75	-0,01713	
44,28	0,4426	115,84	849,96	-0,01699	
44,30	0,4427	118,67	849,74	-0,01690	
44,32	0,4427	121,92	849,68	-0,01700	
44,34	0,4429	118,21	850,01	-0,01721	
44,36	0,4432	117,13	849,93	-0,01738	
44,38	0,4433	121,26	849,64	-0,01740	
44,40	0,4434	119,91	849,85	-0,01736	
44,42	0,4435	116,92	849,97	-0,01729	
44,44	0,4434	120,76	849,67	-0,01719	
44,46	0,4438	122,24	849,80	-0,01717	
44,48	0,4441	118,59	850,12	-0,01716	
44,50	0,4441	119,76	849,90	-0,01725	
44,52	0,4440	123,33	849,68	-0,01740	
44,54	0,4442	119,96	850,02	-0,01751	
44,56	0,4445	117,80	850,05	-0,01745	
44,58	0,4446	121,75	849,73	-0,01734	
44,60	0,4448	120,79	849,81	-0,01726	
44,62	0,4450	116,93	849,91	-0,01721	
44,64	0,4451	120,46	849,65	-0,01726	
44,66	0,4454	122,56	849,77	-0,01737	
44,68	0,4455	118,88	850,04	-0,01742	
44,70	0,4454	120,56	849,82	-0,01739	
44,72	0,4454	124,40	849,69	-0,01743	
44,74	0,4458	121,03	849,94	-0,01741	
44,76	0,4460	119,88	849,84	-0,01726	
44,78	0,4460	123,53	849,65	-0,01707	
44,80	0,4461	121,09	849,92	-0,01704	
44,82	0,4462	118,67	849,96	-0,01703	
44,84	0,4463	123,28	849,68	-0,01891	
44,86	0,4466	123,34	849,82	-0,01462	
44,88	0,4468	119,25	849,98	0,00361	
44,90	0,4467	121,87	849,70	0,01777	
44,92	0,4467	124,44	849,70	0,02248	
44,94	0,4470	121,11	849,99	0,02399	
44,96	0,4472	121,67	849,83	0,02503	
44,98	0,4473	125,30	849,65	0,02582	
45,00	0,4475	121,70	849,97	0,02641	
45,02	0,4475	119,01	850,00	0,02689	
45,04	0,4474	123,91	849,67	0,02729	
45,06	0,4477	123,71	849,85	0,02717	
45,08	0,4481	119,24	850,10	0,02721	
45,10	0,4480	121,68	849,82	0,02747	
45,12	0,4480	124,37	849,71	0,02773	
45,14	0,4482	119,91	850,00	0,02795	
45,16	0,4484	119,51	849,90	0,02847	
45,18	0,4485	124,36	849,65	0,02891	
45,20	0,4488	122,77	849,93	0,02866	
45,22	0,4489	119,48	850,05	0,02813	
45,24	0,4487	123,46	849,73	0,02746	
45,26	0,4489	124,25	849,76	0,02656	
45,28	0,4493	120,19	849,89	0,02579	
45,30	0,4493	121,97	849,65	0,02535	
45,32	0,4494	124,24	849,73	0,02517	
45,34	0,4495	121,02	850,02	0,02500	
45,36	0,4495	121,57	849,83	0,02477	
45,38	0,4498	125,17	849,67	0,02455	
45,40	0,4501	122,29	849,98	0,02422	
45,42	0,4502	120,70	849,96	0,02422	
45,44	0,4500	124,80	849,69	0,02439	
45,46	0,4502	123,87	849,86	0,02451	
45,48	0,4504	120,66	849,92	0,02476	
45,50	0,4505	123,94	849,65	0,02510	
45,52	0,4508	124,29	849,78	0,02515	
45,54	0,4509	120,06	850,01	0,02505	
45,56	0,4508	121,83	849,76	0,02528	
45,58	0,4508	125,07	849,69	0,02547	
45,60	0,4511	121,71	850,04	0,02594	
45,62	0,4514	121,15	849,97	0,02683	
45,64	0,4514	125,02	849,68	0,02765	
45,66	0,4515	123,39	849,85	0,02787	
45,68	0,4516	120,35	849,90	0,02785	
45,70	0,4518	123,91	849,63	0,02780	
45,72	0,4521	124,09	849,84	0,02771	
45,74	0,4522	119,73	850,13	0,02778	
45,76	0,4521	122,00	849,87	0,02806	
45,78	0,4521	125,49	849,73	0,02832	
45,80	0,4523	121,98	849,97	0,02843	
45,82	0,4525	121,80	849,85	0,02827	
45,84	0,4527	125,22	849,66	0,02752	
45,86	0,4529	121,74	849,93	0,02643	
45,88	0,4529	118,66	849,93	0,02570	
45,90	0,4527	123,15	849,64	0,02547	
45,92	0,4531	122,92	849,88	0,02526	
45,94	0,4534	118,52	850,09	0,02498	
45,96	0,4534	121,49	849,79	0,02475	
45,98	0,4534	123,81	849,78	0,02439	
46,00	0,4536	119,25	850,03	0,02410	
46,02	0,4537	119,38	849,84	0,02415	
46,04	0,4540	122,50	849,67	0,02416	
46,06	0,4542	119,81	849,89	0,02433	
46,08	0,4542	118,70	849,79	0,02471	
46,10	0,4541	122,73	849,62	0,02502	
46,12	0,4543	120,72	849,95	0,02529	
46,14	0,4545	117,18	850,03	0,02563	
46,16	0,4546	120,53	849,70	0,02596	
46,18	0,4548	120,97	849,76	0,02607	
46,20	0,4549	117,12	849,95	0,02606	
46,22	0,4548	119,23	849,70	0,02587	
46,24	0,4549	121,93	849,71	0,02561	
46,26	0,4554	118,26	850,03	0,02605	
46,28	0,4555	118,29	849,88	0,02683	
46,30	0,4555	121,75	849,70	0,02717	
46,32	0,4556	118,33	849,99	0,02735	
46,34	0,4558	115,26	850,01	0,02756	
46,36	0,4560	119,31	849,68	0,02777	
46,38	0,4562	118,83	849,78	0,02781	
46,40	0,4563	114,72	849,95	0,02802	
46,42	0,4561	118,02	849,70	0,02819	
46,44	0,4561	120,58	849,73	0,02790	
46,46	0,4565	116,39	850,06	0,02770	
46,48	0,4567	116,82	849,92	0,02757	
46,50	0,4568	120,92	849,68	0,02696	
46,52	0,4569	118,13	849,89	0,02604	
46,54	0,4570	115,37	849,87	0,02554	
46,56	0,4572	119,36	849,62	0,02546	
46,58	0,4575	118,73	849,91	0,02521	
46,60	0,4576	114,73	850,13	0,02486	
46,62	0,4575	117,56	849,80	0,02474	
46,64	0,4575	119,77	849,75	0,02445	
46,66	0,4579	115,51	850,03	0,02415	
46,68	0,4581	115,80	849,86	0,02390	
46,70	0,4581	119,34	849,67	0,02342	
46,72	0,4583	116,51	850,00	0,02285	
46,74	0,4583	113,78	850,04	0,02279	
46,76	0,4583	117,84	849,72	0,02319	
46,78	0,4587	117,98	849,87	0,02338	
46,80	0,4589	114,55	850,02	0,02385	
46,82	0,4588	117,97	849,73	0,02485	
46,84	0,4588	120,47	849,73	0,02572	
46,86	0,4590	116,30	850,01	0,02635	
46,88	0,4593	117,06	849,83	0,02688	
46,90	0,4594	121,48	849,62	0,02713	
46,92	0,4596	118,45	849,91	0,02723	
46,94	0,4596	115,76	849,95	0,02769	
46,96	0,4595	120,13	849,66	0,02810	
46,98	0,4598	119,32	849,84	0,02820	
47,00	0,4602	114,87	850,03	0,02832	
47,02	0,4601	118,04	849,74	0,02866	
47,04	0,4602	121,08	849,76	0,02875	
47,06	0,4603	116,81	850,09	0,02866	
47,08	0,4605	116,40	849,94	0,02856	
47,10	0,4606	120,67	849,67	0,02809	
47,12	0,4609	118,21	849,89	0,02712	
47,14	0,4610	115,36	849,93	0,02637	
47,16	0,4608	119,40	849,65	0,02607	
47,18	0,4610	118,91	849,83	0,02569	
47,20	0,4614	114,87	850,03	0,02519	
47,22	0,4614	118,14	849,75	0,02490	
47,24	0,4615	121,18	849,72	0,02462	
47,26	0,4616	116,88	849,98	0,02432	
47,28	0,4615	116,43	849,81	0,02434	
47,30	0,4617	119,95	849,66	0,02426	
47,32	0,4621	117,22	849,98	0,02402	
47,34	0,4623	115,01	849,97	0,02394	
47,36	0,4621	119,36	849,68	0,02408	
47,38	0,4623	118,91	849,86	0,02415	
47,40	0,4624	115,33	849,98	0,02444	
47,42	0,4626	118,78	849,69	0,02533	
47,44	0,4628	120,18	849,76	0,02638	
47,46	0,4630	115,85	850,02	0,02731	
47,48	0,4629	116,98	849,80	0,02807	
47,50	0,4628	120,26	849,66	0,02848	
47,52	0,4632	116,49	850,00	0,02872	
47,54	0,4635	115,22	850,01	0,02910	
47,56	0,4635	119,77	849,67	0,02958	
47,58	0,4636	118,91	849,83	0,02972	
47,60	0,4637	114,59	850,05	0,02977	
47,62	0,4638	117,34	849,78	0,03005	
47,64	0,4641	119,79	849,73	0,03017	
47,66	0,4643	115,62	849,97	0,02995	
47,68	0,4643	115,83	849,80	0,02968	
47,70	0,4642	120,41	849,63	0,02922	
47,72	0,4644	118,08	849,98	0,02860	
47,74	0,4647	115,25	850,04	0,02811	
47,76	0,4648	119,34	849,72	0,02781	
47,78	0,4649	119,39	849,83	0,02746	
47,80	0,4650	115,60	849,97	0,02720	
47,82	0,4648	118,40	849,69	0,02714	
47,84	0,4650	120,94	849,76	0,02679	
47,86	0,4654	117,07	850,07	0,02639	
47,88	0,4655	117,49	849,87	0,02634	
47,90	0,4655	121,09	849,70	0,02639	
47,92	0,4657	117,60	850,01	0,02640	
47,94	0,4657	115,33	849,97	0,02658	
47,96	0,4659	119,91	849,68	0,02682	
47,98	0,4662	119,13	849,88	0,02677	
48,00	0,4663	115,24	849,98	0,02683	
48,02	0,4662	118,56	849,70	0,02692	
48,04	0,4663	119,94	849,79	0,02687	
48,06	0,4666	115,71	850,03	0,02681	
48,08	0,4668	116,90	849,78	0,02697	
48,10	0,4669	120,06	849,69	0,02697	
48,12	0,4670	116,36	849,98	0,02692	
48,14	0,4670	115,27	849,90	0,02716	
48,16	0,4669	119,04	849,64	0,02729	
48,18	0,4672	117,20	849,88	0,02713	
48,20	0,4675	114,73	849,96	0,02706	
48,22	0,4675	118,80	849,66	0,02708	
48,24	0,4676	119,38	849,82	0,02694	
48,26	0,4678	115,43	850,09	0,02701	
48,28	0,4680	117,31	849,84	0,02734	
48,30	0,4682	120,38	849,71	0,02752	
48,32	0,4683	116,38	849,95	0,02752	
48,34	0,4683	115,33	849,86	0,02763	
48,36	0,4682	120,26	849,63	0,02759	
48,38	0,4684	118,72	849,92	0,02730	
48,40	0,4687	115,52	850,02	0,02731	
48,42	0,4688	119,65	849,70	0,02749	
48,44	0,4689	120,11	849,80	0,02740	
48,46	0,4690	115,45	850,01	0,02744	
48,48	0,4689	117,46	849,75	0,02767	
48,50	0,4690	120,65	849,70	0,02778	
48,52	0,4694	116,57	850,01	0,02762	
48,54	0,4696	115,33	849,90	0,02750	
48,56	0,4695	118,97	849,67	0,02747	
48,58	0,4697	117,18	849,89	0,02743	
48,60	0,4699	115,01	849,88	0,02758	
48,62	0,4700	119,61	849,62	0,02771	
48,64	0,4703	119,55	849,90	0,02761	
48,66	0,4704	115,15	850,10	0,02763	
48,68	0,4702	117,42	849,79	0,02771	
48,70	0,4703	118,97	849,74	0,02758	
48,72	0,4706	114,92	849,93	0,02738	
48,74	0,4708	116,06	849,72	0,02746	
48,76	0,4709	119,67	849,67	0,02748	
48,78	0,4711	116,28	850,02	0,02748	
48,80	0,4710	115,34	849,94	0,02764	
48,82	0,4711	120,29	849,67	0,02773	
48,84	0,4715	118,70	849,92	0,02752	
48,86	0,4717	114,76	850,01	0,02739	
48,88	0,4715	117,99	849,69	0,02737	
48,90	0,4716	118,23	849,82	0,02722	
48,92	0,4718	114,06	850,12	0,02723	
48,94	0,4720	115,71	849,88	0,02750	
48,96	0,4722	119,34	849,72	0,02760	
48,98	0,4724	116,11	850,05	0,02751	
49,00	0,4723	115,10	850,03	0,02755	
49,02	0,4722	119,09	849,71	0,02748	
49,04	0,4726	117,32	849,83	0,02724	
49,06	0,4729	113,73	849,89	0,02720	
49,08	0,4729	117,13	849,62	0,02736	
49,10	0,4730	117,81	849,80	0,02731	
49,12	0,4731	113,94	850,06	0,02734	
49,14	0,4733	115,82	849,79	0,02757	
49,16	0,4735	118,85	849,72	0,02755	
49,18	0,4737	115,46	850,00	0,02740	
49,20	0,4736	115,86	849,86	0,02732	
49,22	0,4735	120,02	849,68	0,02720	
49,24	0,4739	117,46	849,97	0,02703	
49,26	0,4742	114,90	849,98	0,02712	
49,28	0,4742	118,56	849,66	0,02729	
49,30	0,4743	118,41	849,84	0,02723	
49,32	0,4745	114,65	850,07	0,02723	
49,34	0,4746	117,30	849,78	0,02737	
49,36	0,4748	119,16	849,71	0,02729	
49,38	0,4750	114,87	850,02	0,02707	
49,40	0,4750	114,53	849,90	0,02707	
49,42	0,4749	118,98	849,65	0,02708	
49,44	0,4752	117,23	849,95	0,02700	
49,46	0,4756	114,06	850,04	0,02716	
49,48	0,4755	117,71	849,72	0,02736	
49,50	0,4756	118,13	849,80	0,02721	
49,52	0,4757	114,03	849,99	0,02706	
49,54	0,4758	115,72	849,73	0,02705	
49,56	0,4761	117,98	849,73	0,02675	
49,58	0,4764	114,53	850,06	0,02655	
49,60	0,4763	114,55	849,94	0,02675	
49,62	0,4762	118,35	849,68	0,02701	
49,64	0,4764	115,15	849,92	0,02696	
49,66	0,4768	112,10	849,97	0,02702	
49,68	0,4768	116,82	849,67	0,02709	
49,70	0,4770	117,15	849,82	0,02687	
49,72	0,4771	112,71	850,01	0,02673	
49,74	0,4770	114,79	849,75	0,02681	
49,76	0,4773	116,39	849,76	0,02670	
49,78	0,4777	112,34	850,02	0,02667	
49,80	0,4776	113,44	849,80	0,02694	
49,82	0,4776	117,62	849,68	0,02702	
49,84	0,4778	114,56	850,05	0,02685	
49,86	0,4781	112,75	850,03	0,02686	
49,88	0,4782	117,15	849,70	0,02689	
49,90	0,4783	116,18	849,84	0,02665	
49,92	0,4784	111,96	849,95	0,02652	
49,94	0,4783	114,99	849,67	0,02671	
49,96	0,4787	115,95	849,79	0,02668	
49,98	0,4790	111,82	850,04	0,02665	
50,00	0,4790	113,30	849,81	0,02680	
50,02	0,4789	116,70	849,72	0,02677	
50,04	0,4792	113,11	849,96	0,02660	
50,06	0,4794	112,09	849,81	0,02660	
50,08	0,4795	116,32	849,66	0,02654	
50,10	0,4797	114,52	850,00	0,02634	
50,12	0,4797	111,73	850,05	0,02645	
50,14	0,4797	115,15	849,71	0,02668	
50,16	0,4801	115,03	849,81	0,02656	
50,18	0,4804	111,24	849,96	0,02654	
50,20	0,4803	114,36	849,68	0,02667	
50,22	0,4803	116,56	849,75	0,02650	
50,24	0,4806	112,52	850,11	0,02624	
50,26	0,4809	112,92	849,95	0,02634	
50,28	0,4809	117,29	849,71	0,02642	
50,30	0,4811	114,91	849,94	0,02631	
50,32	0,4811	112,33	849,94	0,02647	
50,34	0,4813	116,55	849,65	0,02670	
50,36	0,4816	115,93	849,86	0,02658	
50,38	0,4818	111,42	850,05	0,02643	
50,40	0,4816	114,24	849,74	0,02645	
50,42	0,4816	116,45	849,75	0,02629	
50,44	0,4820	112,53	850,00	0,02612	
50,46	0,4821	113,08	849,81	0,02626	
50,48	0,4822	116,13	849,66	0,02631	
50,50	0,4824	112,81	849,99	0,02625	
50,52	0,4825	111,68	850,01	0,02641	
50,54	0,4826	116,92	849,68	0,02653	
50,56	0,4829	116,28	849,84	0,02624	
50,58	0,4831	111,87	850,05	0,02604	
50,60	0,4829	114,86	849,77	0,02621	
50,62	0,4830	116,82	849,74	0,02621	
50,64	0,4833	112,14	850,03	0,02612	
50,66	0,4835	112,09	849,86	0,02641	
50,68	0,4836	117,00	849,63	0,02653	
50,70	0,4837	114,92	849,96	0,02628	
50,72	0,4839	111,69	850,08	0,02619	
50,74	0,4840	115,72	849,73	0,02626	
50,76	0,4843	116,26	849,80	0,02604	
50,78	0,4844	112,33	850,03	0,02598	
50,80	0,4843	114,75	849,77	0,02625	
50,82	0,4843	117,90	849,70	0,02627	
50,84	0,4847	113,60	850,04	0,02609	
50,86	0,4849	112,00	849,97	0,02622	
50,88	0,4849	116,46	849,68	0,02636	
50,90	0,4851	114,82	849,90	0,02607	
50,92	0,4852	111,81	850,00	0,02595	
50,94	0,4853	116,12	849,70	0,02610	
50,96	0,4856	116,93	849,80	0,02601	
50,98	0,4858	112,28	850,05	0,02595	
51,00	0,4857	113,98	849,79	0,02618	
51,02	0,4857	117,41	849,72	0,02618	
51,04	0,4860	113,67	850,02	0,02594	
51,06	0,4863	112,90	849,92	0,02592	
51,08	0,4863	117,15	849,65	0,02592	
51,10	0,4864	115,01	849,84	0,02577	
51,12	0,4867	111,82	849,90	0,02583	
51,14	0,4868	115,80	849,62	0,02605	
51,16	0,4870	115,76	849,81	0,02594	
51,18	0,4871	111,38	850,12	0,02581	
51,20	0,4870	114,12	849,87	0,02600	
51,22	0,4870	117,89	849,70	0,02605	
51,24	0,4875	113,72	850,00	0,02578	
51,26	0,4877	111,88	849,98	0,02574	
51,28	0,4876	116,23	849,66	0,02581	
51,30	0,4877	114,99	849,89	0,02564	
51,32	0,4880	110,71	850,12	0,02565	
51,34	0,4882	113,63	849,82	0,02596	
51,36	0,4883	115,91	849,75	0,02597	
51,38	0,4885	111,84	850,06	0,02575	
51,40	0,4885	111,86	849,94	0,02571	
51,42	0,4887	115,73	849,69	0,02571	
51,44	0,4890	113,41	849,96	0,02557	
51,46	0,4891	110,92	850,02	0,02558	
51,48	0,4890	114,87	849,69	0,02577	
51,50	0,4891	115,06	849,87	0,02571	
51,52	0,4895	111,26	850,12	0,02571	
51,54	0,4896	114,23	849,83	0,02593	
51,56	0,4896	117,38	849,75	0,02584	
51,58	0,4899	112,97	850,05	0,02550	
51,60	0,4901	112,30	849,92	0,02547	
51,62	0,4902	115,79	849,68	0,02554	
51,64	0,4904	113,38	849,91	0,02542	
51,66	0,4905	110,36	849,94	0,02552	
51,68	0,4905	114,20	849,64	0,02580	
51,70	0,4909	114,77	849,85	0,02571	
51,72	0,4911	111,08	850,14	0,02553	
51,74	0,4910	113,62	849,87	0,02558	
51,76	0,4910	116,43	849,72	0,02549	
51,78	0,4913	112,28	849,99	0,02525	
51,80	0,4916	111,86	849,90	0,02542	
51,82	0,4916	116,04	849,65	0,02559	
51,84	0,4918	114,14	849,91	0,02546	
51,86	0,4921	110,66	850,00	0,02549	
51,88	0,4922	114,19	849,69	0,02565	
51,90	0,4924	114,82	849,81	0,02543	
51,92	0,4925	111,15	850,07	0,02521	
51,94	0,4925	114,04	849,82	0,02530	
51,96	0,4927	117,62	849,72	0,02528	
51,98	0,4931	113,54	850,03	0,02518	
52,00	0,4931	112,53	849,92	0,02539	
52,02	0,4930	116,89	849,66	0,02559	
52,04	0,4932	114,78	849,95	0,02543	
52,06	0,4935	110,85	850,08	0,02523	
52,08	0,4936	114,22	849,75	0,02526	
52,10	0,4937	115,23	849,78	0,02516	
52,12	0,4939	111,86	849,99	0,02508	
52,14	0,4941	114,46	849,74	0,02527	
52,16	0,4943	117,62	849,72	0,02531	
52,18	0,4945	113,41	850,07	0,02520	
52,20	0,4945	111,77	849,97	0,02531	
52,22	0,4945	116,08	849,69	0,02533	
52,24	0,4950	114,46	849,93	0,02505	
52,26	0,4951	111,49	850,02	0,02492	
52,28	0,4950	115,88	849,70	0,02505	
52,30	0,4952	116,47	849,82	0,02500	
52,32	0,4956	111,85	850,06	0,02493	
52,34	0,4957	114,21	849,80	0,02512	
52,36	0,4957	117,54	849,72	0,02514	
52,38	0,4960	113,85	849,99	0,02498	
52,40	0,4962	113,74	849,85	0,02499	
52,42	0,4963	118,01	849,67	0,02494	
52,44	0,4965	115,41	849,97	0,02471	
52,46	0,4965	112,33	849,99	0,02479	
52,48	0,4966	116,79	849,68	0,02518	
52,50	0,4970	117,20	849,85	0,02578	
52,52	0,4972	113,73	850,05	0,02635	
52,54	0,4970	116,72	849,76	0,02675	
52,56	0,4971	118,99	849,74	0,02674	
52,58	0,4974	115,05	850,03	0,02650	
52,60	0,4976	115,17	849,87	0,02644	
52,62	0,4977	119,00	849,65	0,02644	
52,64	0,4978	116,13	849,96	0,02631	
52,66	0,4312	113,73	850,04	0,02640	
52,68	0,2129	117,82	849,73	0,02667	
52,70	0,04866	117,58	849,81	0,02661	
52,72	0,000	113,93	849,91	0,02618	
52,74	-0,00098	117,16	849,65	0,02538	
52,76	0,00229	118,97	849,79	0,02468	
52,78	0,00284	115,26	850,09	0,02448	
52,80	0,00253	116,04	849,85	0,02470	
52,82	0,00250	119,36	849,70	0,02479	
52,84	0,00274	116,26	850,04	0,02471	
52,86	0,00292	114,97	850,02	0,02481	
52,88	0,00303	118,95	849,72	0,02488	
52,90	0,00329	117,44	849,89	0,02473	
52,92	0,00342	114,14	849,95	0,02457	
52,94	0,00342	118,71	849,67	0,02446	
52,96	0,00386	121,37	849,82	0,02427	
52,98	0,00455	121,08	850,02	0,02418	
53,00	0,00528	129,72	849,75	0,02414	
53,02	0,00657	142,17	849,74	0,02386	
53,04	0,00845	151,03	850,09	0,02343	
53,06	0,01051	166,19	849,95	0,02300	
53,08	0,01286	188,82	849,67	0,02243	
53,10	0,01585	207,52	849,95	0,02160	
53,12	0,01917	228,35	850,06	0,02084	
53,14	0,02258	258,39	849,74	0,02011	
53,16	0,02668	286,27	849,81	0,01915	
53,18	0,03126	311,00	849,96	0,01801	
53,20	0,03591	343,45	849,70	0,01676	
53,22	0,04125	377,52	849,76	0,01514	
53,24	0,04707	406,72	850,11	0,01325	
53,26	0,05310	440,41	849,94	0,01123	
53,28	0,05954	477,44	849,70	0,00888	
53,30	0,06650	507,48	849,94	0,00638	
53,32	0,07382	536,69	849,93	0,00372	
53,34	0,08152	569,61	849,68	0,00078	
53,36	0,08972	595,45	849,94	-0,00255	
53,38	0,09807	617,19	850,08	-0,00618	
53,40	0,1066	643,44	849,75	-0,01026	
53,42	0,1160	664,92	849,81	-0,01471	
53,44	0,1258	680,20	850,03	-0,01931	
53,46	0,1358	699,64	849,77	-0,02417	
53,48	0,1463	717,75	849,71	-0,02939	
53,50	0,1573	726,72	850,08	-0,03485	
53,52	0,1684	737,90	849,98	-0,04051	
53,54	0,1798	753,04	849,70	-0,04666	
53,56	0,1921	760,18	849,97	-0,05312	
53,58	0,2046	766,05	850,07	-0,05988	
53,60	0,2173	778,66	849,74	-0,06699	
53,62	0,2306	786,42	849,85	-0,07420	
53,64	0,2444	788,85	850,11	-0,08147	
53,66	0,2583	797,47	849,86	-0,08895	
53,68	0,2727	806,18	849,68	-0,09684	
53,70	0,2878	807,40	849,95	-0,1049	
53,72	0,3031	811,50	849,92	-0,1133	
53,74	0,3185	820,98	849,61	-0,1220	
53,76	0,3348	823,91	849,84	-0,1308	
53,78	0,3514	823,69	850,12	-0,1396	
53,80	0,3682	831,55	849,84	-0,1486	
53,82	0,3853	838,13	849,73	-0,1579	
53,84	0,4032	837,29	850,01	-0,1672	
53,86	0,4212	841,20	849,91	-0,1765	
53,88	0,4395	849,19	849,66	-0,1862	
53,90	0,4585	849,74	849,93	-0,1960	
53,92	0,4778	850,20	850,01	-0,2057	
53,94	0,4972	858,70	849,69	-0,2155	
53,96	0,5171	862,69	849,81	-0,2251	
53,98	0,5372	860,90	850,12	-0,2345	
54,00	0,5569	865,08	849,89	-0,2439	
54,02	0,5768	870,78	849,70	-0,2533	
54,04	0,5970	868,82	850,01	-0,2626	
54,06	0,6171	869,92	850,01	-0,2719	
54,08	0,6369	876,90	849,70	-0,2814	
54,10	0,6569	877,08	849,85	-0,2907	
54,12	0,6770	874,36	850,03	-0,2998	
54,14	0,6969	879,92	849,74	-0,3088	
54,16	0,7169	884,26	849,70	-0,3179	
54,18	0,7369	881,14	850,08	-0,3269	
54,20	0,7569	882,13	850,04	-0,3359	
54,22	0,7769	888,37	849,69	-0,3449	
54,24	0,7971	888,12	849,90	-0,3539	
54,26	0,8173	886,38	850,14	-0,3628	
54,28	0,8371	891,87	849,86	-0,3717	
54,30	0,8570	895,05	849,77	-0,3806	
54,32	0,8771	891,37	850,00	-0,3893	
54,34	0,8971	892,36	849,86	-0,3980	
54,36	0,9170	897,85	849,65	-0,4067	
54,38	0,9370	896,68	850,03	-0,4156	
54,40	0,9570	894,72	850,21	-0,4245	
54,42	0,9770	899,57	849,85	-0,4331	
54,44	0,9971	902,02	849,84	-0,4419	
54,46	1,017	899,58	850,14	-0,4505	
54,48	1,037	902,58	849,97	-0,4590	
54,50	1,057	907,32	849,71	-0,4677	
54,52	1,077	904,72	849,97	-0,4764	
54,54	1,097	902,80	850,02	-0,4851	
54,56	1,117	908,23	849,68	-0,4938	
54,58	1,137	909,11	849,83	-0,5024	
54,60	1,157	905,88	850,16	-0,5108	
54,62	1,177	909,07	849,94	-0,5192	
54,64	1,197	913,59	849,70	-0,5278	
54,66	1,217	910,79	849,98	-0,5364	
54,68	1,237	910,86	850,03	-0,5449	
54,70	1,257	917,02	849,71	-0,5534	
54,72	1,277	916,75	849,85	-0,5620	
54,74	1,297	913,11	850,08	-0,5704	
54,76	1,317	916,75	849,83	-0,5788	
54,78	1,337	920,35	849,75	-0,5873	
54,80	1,357	916,85	850,09	-0,5958	
54,82	1,377	917,33	850,03	-0,6041	
54,84	1,397	923,61	849,71	-0,6126	
54,86	1,417	922,70	849,86	-0,6212	
54,88	1,437	919,28	849,97	-0,6297	
54,90	1,457	923,71	849,68	-0,6381	
54,92	1,477	925,99	849,76	-0,6466	
54,94	1,497	921,92	850,11	-0,6549	
54,96	1,517	922,76	849,97	-0,6631	
54,98	1,537	928,31	849,66	-0,6716	
55,00	1,557	927,16	849,94	-0,6802	
55,02	1,577	925,01	850,13	-0,6886	
55,04	1,597	929,82	849,80	-0,6968	
55,06	1,617	932,02	849,82	-0,7053	
55,08	1,637	927,70	850,21	-0,7137	
55,10	1,657	928,82	850,11	-0,7219	
55,12	1,677	934,19	849,78	-0,7303	
55,14	1,697	932,20	850,02	-0,7387	
55,16	1,717	928,80	850,16	-0,7471	
55,18	1,737	933,40	849,82	-0,7554	
55,20	1,757	934,72	849,84	-0,7638	
55,22	1,777	930,36	850,10	-0,7722	
55,24	1,797	932,25	849,88	-0,7805	
55,26	1,817	936,49	849,75	-0,7888	
55,28	1,837	933,99	850,05	-0,7971	
55,30	1,857	933,35	849,99	-0,8054	
55,32	1,877	938,33	849,68	-0,8138	
55,34	1,897	937,70	849,95	-0,8223	
55,36	1,917	934,39	850,18	-0,8306	
55,38	1,937	938,27	849,86	-0,8387	
55,40	1,957	941,14	849,74	-0,8471	
55,42	1,977	936,36	850,06	-0,8553	
55,44	1,997	936,25	849,98	-0,8635	
55,46	2,017	941,52	849,69	-0,8718	
55,48	2,037	940,43	849,89	-0,8803	
55,50	2,057	937,68	850,02	-0,8887	
55,52	2,077	941,95	849,71	-0,8970	
55,54	2,097	942,64	849,79	-0,9054	
55,56	2,117	938,24	850,15	-0,9136	
55,58	2,137	939,93	850,00	-0,9216	
55,60	2,157	944,47	849,74	-0,9299	
55,62	2,177	941,58	849,98	-0,9383	
55,64	2,197	940,26	849,97	-0,9465	
55,66	2,217	944,95	849,69	-0,9547	
55,68	2,237	944,23	849,96	-0,9631	
55,70	2,257	940,30	850,14	-0,9713	
55,72	2,277	943,71	849,82	-0,9794	
55,74	2,297	946,12	849,88	-0,9876	
55,76	2,317	942,11	850,21	-0,9958	
55,78	2,337	942,95	850,01	-1,004	
55,80	2,357	946,78	849,79	-1,012	
55,82	2,377	943,09	850,13	-1,020	
55,84	2,397	941,03	850,18	-1,029	
55,86	2,417	946,41	849,80	-1,037	
55,88	2,437	946,64	849,91	-1,045	
55,90	2,457	942,97	850,14	-1,053	
55,92	2,477	945,83	849,85	-1,061	
55,94	2,497	948,03	849,86	-1,069	
55,96	2,517	943,76	850,23	-1,078	
55,98	2,537	943,71	850,07	-1,086	
56,00	2,557	948,06	849,77	-1,094	
56,02	2,577	945,67	850,06	-1,102	
56,04	2,597	943,32	850,13	-1,110	
56,06	2,617	947,75	849,76	-1,118	
56,08	2,637	947,60	849,91	-1,126	
56,10	2,657	943,31	850,20	-1,135	
56,12	2,677	945,63	849,92	-1,143	
56,14	2,697	949,15	849,76	-1,151	
56,16	2,717	945,32	850,19	-1,159	
56,18	2,737	944,53	850,26	-1,167	
56,20	2,757	950,37	849,85	-1,175	
56,22	2,777	950,52	849,75	-1,183	
56,24	2,797	946,43	849,85	-1,191	
56,26	2,817	949,14	849,63	-1,199	
56,28	2,837	950,61	849,82	-1,207	
56,30	2,857	945,68	850,34	-1,216	
56,32	2,877	944,85	850,25	-1,224	
56,34	2,897	950,13	849,79	-1,232	
56,36	2,917	949,10	850,03	-1,240	
56,38	2,937	945,85	850,39	-1,248	
56,40	2,957	949,22	850,09	-1,256	
56,42	2,977	951,79	849,82	-1,264	
56,44	2,997	946,74	850,28	-1,272	
56,46	3,017	944,86	850,45	-1,280	
56,48	3,037	950,40	849,99	-1,288	
56,50	3,057	951,92	849,96	-1,296	
56,52	3,077	946,79	850,44	-1,304	
56,54	3,097	946,81	850,39	-1,312	
56,56	3,117	951,52	849,87	-1,320	
56,58	3,137	949,94	850,11	-1,328	
56,60	3,157	945,05	850,65	-1,336	
56,62	3,177	947,67	850,49	-1,344	
56,64	3,197	952,16	849,90	-1,352	
56,66	3,217	949,97	850,17	-1,360	
56,68	3,237	945,52	850,80	-1,368	
56,70	3,257	947,61	850,71	-1,376	
56,72	3,277	951,14	850,06	-1,384	
56,74	3,297	949,95	849,92	-1,392	
56,76	3,317	945,43	850,53	-1,400	
56,78	3,337	946,74	850,64	-1,408	
56,80	3,357	950,02	850,06	-1,416	
56,82	3,377	949,12	849,96	-1,424	
56,84	3,397	943,55	850,64	-1,432	
56,86	3,417	944,59	850,79	-1,440	
56,88	3,437	949,39	850,21	-1,448	
56,90	3,457	950,42	849,86	-1,456	
56,92	3,477	945,57	850,49	-1,464	
56,94	3,497	945,56	850,81	-1,472	
56,96	3,517	948,82	850,35	-1,480	
56,98	3,537	950,12	849,88	-1,488	
57,00	3,557	946,51	850,28	-1,496	
57,02	3,577	946,03	850,56	-1,504	
57,04	3,597	949,90	850,15	-1,512	
57,06	3,617	951,19	849,86	-1,520	
57,08	3,637	945,97	850,43	-1,528	
57,10	3,657	944,19	850,69	-1,536	
57,12	3,677	948,33	850,19	-1,544	
57,14	3,697	949,49	849,88	-1,552	
57,16	3,717	944,25	850,32	-1,560	
57,18	3,737	944,27	850,44	-1,568	
57,20	3,757	949,23	849,96	-1,576	
57,22	3,777	949,33	849,90	-1,584	
57,24	3,797	944,35	850,40	-1,592	
57,26	3,817	945,32	850,35	-1,599	
57,28	3,837	950,03	849,86	-1,607	
57,30	3,857	947,54	850,14	-1,615	
57,32	3,877	942,42	850,66	-1,623	
57,34	3,897	945,10	850,44	-1,631	
57,36	3,917	949,63	849,88	-1,639	
57,38	3,937	946,36	850,10	-1,647	
57,40	3,957	943,14	850,52	-1,655	
57,42	3,977	946,74	850,26	-1,663	
57,44	3,997	949,85	849,82	-1,671	
57,46	4,017	945,24	850,34	-1,679	
57,48	4,037	941,80	850,86	-1,687	
57,50	4,057	944,92	850,58	-1,694	
57,52	4,077	948,71	849,93	-1,702	
57,54	4,097	946,50	850,18	-1,710	
57,56	4,117	943,23	850,88	-1,718	
57,58	4,137	944,99	850,83	-1,726	
57,60	4,157	946,55	850,15	-1,734	
57,62	4,177	945,74	849,94	-1,741	
57,64	4,197	941,64	850,79	-1,749	
57,66	4,217	941,91	851,18	-1,757	
57,68	4,237	944,29	850,68	-1,765	
57,70	4,257	946,20	849,94	-1,773	
57,72	4,277	943,56	850,32	-1,781	
57,74	4,297	940,58	851,24	-1,789	
57,76	4,317	941,39	851,30	-1,796	
57,78	4,337	942,22	850,60	-1,804	
57,80	4,357	943,09	849,89	-1,812	
57,82	4,377	941,76	850,35	-1,820	
57,84	4,397	940,98	851,14	-1,828	
57,86	4,417	941,62	851,06	-1,836	
57,88	4,437	942,35	850,33	-1,843	
57,90	4,457	942,60	849,89	-1,851	
57,92	4,477	939,90	850,60	-1,859	
57,94	4,497	939,79	851,11	-1,867	
57,96	4,517	941,35	850,74	-1,875	
57,98	4,537	942,85	850,00	-1,883	
58,00	4,557	940,69	850,24	-1,891	
58,02	4,577	937,83	851,18	-1,898	
58,04	4,597	939,55	851,37	-1,906	
58,06	4,617	941,62	850,76	-1,914	
58,08	4,637	942,07	849,97	-1,922	
58,10	4,657	940,18	850,18	-1,930	
58,12	4,677	938,56	850,96	-1,937	
58,14	4,697	938,51	850,96	-1,945	
58,16	4,717	939,10	850,27	-1,953	
58,18	4,737	939,28	849,91	-1,961	
58,20	4,757	936,03	850,70	-1,969	
58,22	4,777	935,89	851,22	-1,977	
58,24	4,797	937,80	850,83	-1,984	
58,26	4,817	939,43	850,05	-1,992	
58,28	4,837	938,51	849,99	-2,000	
58,30	4,857	936,15	850,65	-2,008	
58,32	4,877	937,02	850,71	-2,015	
58,34	4,897	939,00	850,08	-2,023	
58,36	4,917	938,36	849,98	-2,031	
58,38	4,937	933,20	850,75	-2,039	
58,40	4,957	933,38	850,99	-2,047	
58,42	4,977	936,89	850,45	-2,054	
58,44	4,997	939,03	849,85	-2,062	
58,46	5,017	934,95	850,42	-2,070	
58,48	5,037	932,48	851,18	-2,078	
58,50	5,057	933,87	851,03	-2,086	
58,52	5,077	935,49	850,26	-2,093	
58,54	5,097	935,90	849,95	-2,101	
58,56	5,117	933,21	850,88	-2,109	
58,58	5,137	933,17	851,49	-2,117	
58,60	5,157	934,27	851,15	-2,124	
58,62	5,177	933,77	850,35	-2,132	
58,64	5,197	933,76	849,88	-2,140	
58,66	5,217	933,48	850,56	-2,148	
58,68	5,237	932,78	851,12	-2,155	
58,70	5,257	932,30	850,78	-2,163	
58,72	5,277	932,83	850,01	-2,171	
58,74	5,297	931,61	850,22	-2,179	
58,76	5,317	929,35	851,21	-2,186	
58,78	5,337	930,30	851,42	-2,194	
58,80	5,357	931,71	850,80	-2,202	
58,82	5,377	932,91	849,97	-2,209	
58,84	5,397	932,70	850,18	-2,217	
58,86	5,417	930,71	851,26	-2,225	
58,88	5,437	929,15	851,56	-2,233	
58,90	5,457	928,67	850,97	-2,240	
58,92	5,477	929,21	850,11	-2,248	
58,94	5,497	929,61	850,07	-2,256	
58,96	5,517	929,05	851,00	-2,264	
58,98	5,537	928,59	851,32	-2,271	
59,00	5,557	928,54	850,78	-2,279	
59,02	5,577	929,38	850,00	-2,287	
59,04	5,597	928,87	850,24	-2,295	
59,06	5,617	927,59	851,15	-2,302	
59,08	5,637	927,89	851,28	-2,310	
59,10	5,657	928,60	850,64	-2,318	
59,12	5,677	929,56	849,92	-2,325	
59,14	5,697	928,35	850,33	-2,333	
59,16	5,717	927,54	851,18	-2,341	
59,18	5,737	928,06	851,16	-2,349	
59,20	5,757	928,29	850,45	-2,356	
59,22	5,777	927,75	849,89	-2,364	
59,24	5,797	924,56	850,62	-2,372	
59,26	5,817	923,51	851,37	-2,379	
59,28	5,837	924,55	851,16	-2,387	
59,30	5,857	925,55	850,36	-2,395	
59,32	5,877	926,32	849,93	-2,403	
59,34	5,897	925,30	850,75	-2,410	
59,36	5,917	924,91	851,37	-2,418	
59,38	5,937	925,22	851,04	-2,426	
59,40	5,957	925,80	850,22	-2,433	
59,42	5,977	925,52	849,97	-2,441	
59,44	5,997	923,53	850,85	-2,449	
59,46	6,017	923,85	851,30	-2,456	
59,48	6,037	923,94	850,83	-2,464	
59,50	6,057	923,55	850,01	-2,472	
59,52	6,077	921,90	850,21	-2,479	
59,54	6,097	919,90	851,20	-2,487	
59,56	6,117	920,51	851,39	-2,494	
59,58	6,137	921,59	850,72	-2,502	
59,60	6,157	922,75	849,96	-2,510	
59,62	6,177	920,66	850,43	-2,517	
59,64	6,197	919,32	851,36	-2,525	
59,66	6,217	920,25	851,39	-2,533	
59,68	6,237	920,01	850,69	-2,540	
59,70	6,257	920,02	849,94	-2,548	
59,72	6,277	919,15	850,38	-2,556	
59,74	6,297	918,36	851,27	-2,563	
59,76	6,317	918,48	851,30	-2,571	
59,78	6,337	918,72	850,60	-2,578	
59,80	6,357	919,58	849,90	-2,586	
59,82	6,377	918,33	850,44	-2,594	
59,84	6,397	917,62	851,30	-2,601	
59,86	6,417	918,16	851,23	-2,609	
59,88	6,437	917,84	850,48	-2,616	
59,90	6,457	917,20	849,93	-2,624	
59,92	6,477	914,97	850,65	-2,631	
59,94	6,497	914,25	851,32	-2,639	
59,96	6,517	914,88	851,03	-2,646	
59,98	6,537	915,73	850,23	-2,654	
60,00	6,557	915,45	850,01	-2,662	
60,02	6,577	913,56	850,81	-2,669	
60,04	6,597	914,01	851,16	-2,676	
60,06	6,617	915,05	850,64	-2,684	
60,08	6,637	916,19	849,93	-2,691	
60,10	6,657	913,08	850,57	-2,699	
60,12	6,677	910,22	851,65	-2,707	
60,14	6,697	910,74	851,71	-2,714	
60,16	6,717	911,71	850,98	-2,722	
60,18	6,737	912,45	850,08	-2,729	
60,20	6,757	913,07	850,13	-2,737	
60,22	6,777	911,55	851,06	-2,744	
60,24	6,797	909,53	851,31	-2,751	
60,26	6,817	908,72	850,71	-2,759	
60,28	6,837	909,42	849,94	-2,766	
60,30	6,857	908,37	850,39	-2,774	
60,32	6,877	907,53	851,34	-2,782	
60,34	6,897	907,98	851,35	-2,789	
60,36	6,917	908,57	850,58	-2,796	
60,38	6,937	909,50	849,93	-2,804	
60,40	6,957	907,44	850,61	-2,812	
60,42	6,977	906,32	851,48	-2,819	
60,44	6,997	905,92	851,40	-2,826	
60,46	7,017	905,52	850,69	-2,834	
60,48	7,037	906,18	849,94	-2,841	
60,50	7,057	906,83	850,29	-2,849	
60,52	7,077	906,21	851,07	-2,856	
60,54	7,097	905,46	851,01	-2,864	
60,56	7,117	905,56	850,26	-2,871	
60,58	7,137	905,33	850,00	-2,879	
60,60	7,157	901,55	851,06	-2,886	
60,62	7,177	901,57	851,70	-2,893	
60,64	7,197	902,95	851,29	-2,901	
60,66	7,217	902,80	850,40	-2,908	
60,68	7,237	903,20	849,92	-2,915	
60,70	7,257	902,57	850,78	-2,923	
60,72	7,277	901,81	851,51	-2,930	
60,74	7,297	901,68	851,24	-2,937	
60,76	7,317	900,99	850,42	-2,945	
60,78	7,337	900,56	849,94	-2,952	
60,80	7,357	899,39	850,80	-2,960	
60,82	7,377	898,55	851,55	-2,967	
60,84	7,397	898,38	851,29	-2,974	
60,86	7,417	898,59	850,46	-2,981	
60,88	7,437	899,37	849,94	-2,989	
60,90	7,457	898,46	850,78	-2,996	
60,92	7,477	898,00	851,54	-3,004	
60,94	7,497	897,88	851,28	-3,011	
60,96	7,517	896,80	850,44	-3,018	
60,98	7,537	896,48	849,92	-3,025	
61,00	7,557	895,21	850,85	-3,033	
61,02	7,577	894,68	851,77	-3,040	
61,04	7,597	894,93	851,61	-3,047	
61,06	7,617	895,17	850,84	-3,054	
61,08	7,637	895,43	850,00	-3,062	
61,10	7,657	896,83	850,16	-3,069	
61,12	7,677	895,61	851,00	-3,076	
61,14	7,697	893,08	851,08	-3,083	
61,16	7,717	892,08	850,40	-3,090	
61,18	7,737	892,56	849,93	-3,098	
61,20	7,757	889,91	850,77	-3,105	
61,22	7,777	889,31	851,52	-3,112	
61,24	7,797	890,89	851,26	-3,120	
61,26	7,817	891,98	850,43	-3,127	
61,28	7,837	892,80	849,93	-3,134	
61,30	7,857	890,83	850,86	-3,141	
61,32	7,877	888,86	851,64	-3,148	
61,34	7,897	888,36	851,33	-3,155	
61,36	7,917	888,64	850,44	-3,162	
61,38	7,937	889,17	849,91	-3,170	
61,40	7,957	887,41	850,75	-3,177	
61,42	7,977	885,79	851,49	-3,184	
61,44	7,997	885,16	851,22	-3,191	
61,46	8,017	885,31	850,38	-3,198	
61,48	8,037	885,58	849,99	-3,205	
61,50	8,057	884,05	850,89	-3,212	
61,52	8,077	883,99	851,54	-3,219	
61,54	8,097	884,68	851,19	-3,226	
61,56	8,117	884,38	850,34	-3,233	
61,58	8,137	883,54	849,95	-3,241	
61,60	8,157	881,79	850,96	-3,248	
61,62	8,177	881,25	851,71	-3,255	
61,64	8,197	881,43	851,41	-3,262	
61,66	8,217	880,74	850,56	-3,269	
61,68	8,237	880,43	849,91	-3,276	
61,70	8,257	879,94	850,65	-3,283	
61,72	8,277	879,00	851,53	-3,290	
61,74	8,297	878,40	851,40	-3,297	
61,76	8,317	878,36	850,59	-3,304	
61,78	8,337	879,30	849,91	-3,311	
61,80	8,357	878,16	850,70	-3,318	
61,82	8,377	876,07	851,71	-3,325	
61,84	8,397	875,09	851,66	-3,332	
61,86	8,417	874,98	850,88	-3,338	
61,88	8,437	875,84	850,02	-3,345	
61,90	8,457	876,40	850,33	-3,352	
61,92	8,477	874,28	851,43	-3,359	
61,94	8,497	872,31	851,67	-3,366	
61,96	8,517	871,68	851,06	-3,373	
61,98	8,537	872,04	850,19	-3,380	
62,00	8,557	873,00	849,99	-3,387	
62,02	8,577	872,99	850,95	-3,394	
62,04	8,597	872,22	851,46	-3,401	
62,06	8,617	871,78	851,03	-3,407	
62,08	8,637	871,89	850,18	-3,414	
62,10	8,657	870,73	850,10	-3,421	
62,12	8,677	868,53	851,15	-3,428	
62,14	8,697	867,85	851,60	-3,435	
62,16	8,717	868,05	851,08	-3,441	
62,18	8,737	868,72	850,20	-3,448	
62,20	8,757	869,00	850,06	-3,455	
62,22	8,777	867,09	851,07	-3,462	
62,24	8,797	865,40	851,54	-3,468	
62,26	8,817	864,85	851,02	-3,475	
62,28	8,837	865,48	850,11	-3,482	
62,30	8,857	864,93	850,28	-3,489	
62,32	8,877	862,07	851,62	-3,495	
62,34	8,897	861,04	852,17	-3,502	
62,36	8,917	860,99	851,71	-3,508	
62,38	8,937	859,83	850,87	-3,515	
62,40	8,957	860,67	850,04	-3,522	
62,42	8,977	864,51	850,20	-3,528	
62,44	8,997	861,89	851,18	-3,535	
62,46	9,017	858,06	851,41	-3,542	
62,48	9,037	857,53	850,78	-3,548	
62,50	9,057	858,81	849,97	-3,555	
62,52	9,077	857,73	850,38	-3,561	
62,54	9,097	855,37	851,47	-3,568	
62,56	9,117	854,56	851,63	-3,574	
62,58	9,137	854,69	850,92	-3,581	
62,60	9,157	855,30	850,02	-3,587	
62,62	9,177	854,21	850,38	-3,594	
62,64	9,197	852,21	851,59	-3,600	
62,66	9,217	851,44	851,88	-3,607	
62,68	9,237	850,60	851,24	-3,613	
62,70	9,257	849,48	850,31	-3,619	
62,72	9,277	850,18	849,97	-3,625	
62,74	9,297	850,57	850,98	-3,632	
62,76	9,317	849,42	851,69	-3,638	
62,78	9,337	848,29	851,36	-3,644	
62,80	9,357	846,72	850,52	-3,651	
62,82	9,377	846,69	849,88	-3,657	
62,84	9,397	846,59	850,62	-3,663	
62,86	9,417	845,71	851,56	-3,669	
62,88	9,437	843,79	851,48	-3,674	
62,90	9,457	838,19	850,73	-3,675	
62,92	9,476	828,35	849,95	-3,676	
62,94	9,490	812,57	850,33	-3,676	
62,96	9,498	789,10	851,28	-3,677	
62,98	9,501	759,46	851,37	-3,677	
63,00	9,502	729,47	850,71	-3,677	
63,02	9,502	703,86	849,94	-3,676	
63,04	9,503	680,41	850,41	-3,677	
63,06	9,503	659,70	851,48	-3,677	
63,08	9,503	642,04	851,62	-3,677	
63,10	9,503	625,74	850,94	-3,677	
63,12	9,503	611,44	850,06	-3,677	
63,14	9,503	599,22	850,15	-3,677	
63,16	9,503	586,36	851,42	-3,677	
63,18	9,503	574,06	851,97	-3,677	
63,20	9,503	563,18	851,47	-3,677	
63,22	9,503	553,15	850,55	-3,677	
63,24	9,503	545,13	849,92	-3,677	
63,26	9,503	537,11	850,79	-3,677	
63,28	9,503	527,10	851,81	-3,677	
63,30	9,503	518,16	851,74	-3,677	
63,32	9,503	510,06	850,97	-3,677	
63,34	9,503	502,52	850,08	-3,677	
63,36	9,503	498,19	850,07	-3,677	
63,38	9,503	492,63	851,14	-3,677	
63,40	9,503	485,30	851,61	-3,678	
63,42	9,503	435,76	851,12	-3,677	
63,44	9,503	231,90	850,25	-3,677	
63,46	9,503	55,86	850,00	-3,677	
63,48	9,503	-4,854	851,09	-3,678	
63,50	9,503	-8,705	851,78	-3,678	
63,52	9,503	-5,039	851,42	-3,678	
63,54	9,503	-4,304	850,57	-3,677	
63,56	9,503	-3,811	849,88	-3,677	
63,58	9,503	-4,654	850,53	-3,678	
63,60	9,503	-5,292	851,49	-3,678	
63,62	9,503	-5,093	851,46	-3,678	
63,64	9,503	-4,799	850,68	-3,677	
63,66	9,503	-3,859	849,93	-3,677	
63,68	9,503	-4,576	850,63	-3,678	
63,70	9,503	-5,369	851,72	-3,678	
63,72	9,503	-5,218	851,75	-3,678	
63,74	9,503	-4,887	850,98	-3,678	
63,76	9,503	-4,206	850,07	-3,677	
63,78	9,503	-4,198	850,12	-3,678	
63,80	9,503	-5,166	851,18	-3,678	
63,82	9,503	-5,270	851,58	-3,678	
63,84	9,503	-4,957	851,06	-3,678	
63,86	9,503	-4,459	850,21	-3,678	
63,88	9,503	-3,367	850,00	-3,678	
63,90	9,503	78,18	851,08	-3,678	
63,92	9,503	252,45	851,74	-3,678	
63,94	9,503	353,87	851,37	-3,678	
63,96	9,503	373,96	850,54	-3,678	
63,98	9,503	370,66	849,86	-3,678	
64,00	9,503	367,50	850,42	-3,678	
64,02	9,503	364,41	851,24	-3,678	
64,04	9,503	361,93	851,15	-3,678	
64,06	9,503	360,00	850,38	-3,678	
64,08	9,503	358,17	849,98	-3,678	
64,10	9,503	353,02	851,12	-3,678	
64,12	9,503	348,78	852,06	-3,678	
64,14	9,503	345,99	851,85	-3,678	
64,16	9,503	343,13	851,01	-3,678	
64,18	9,503	340,19	850,10	-3,678	
64,20	9,503	340,19	850,11	-3,678	
64,22	9,503	338,59	851,21	-3,678	
64,24	9,503	335,10	851,65	-3,678	
64,26	9,503	332,01	851,09	-3,678	
64,28	9,503	330,06	850,17	-3,678	
64,30	9,503	327,98	850,14	-3,678	
64,32	9,503	324,83	851,27	-3,678	
64,34	9,503	322,41	851,79	-3,678	
64,36	9,503	320,39	851,33	-3,678	
64,38	9,503	318,68	850,46	-3,678	
64,40	9,503	318,59	849,90	-3,678	
64,42	9,503	317,69	850,76	-3,678	
64,44	9,503	315,27	851,63	-3,678	
64,46	9,503	312,72	851,46	-3,678	
64,48	9,503	311,03	850,64	-3,678	
64,50	9,503	310,13	849,90	-3,678	
64,52	9,503	308,52	850,59	-3,678	
64,54	9,503	305,86	851,72	-3,678	
64,56	9,503	302,96	851,79	-3,678	
64,58	9,503	300,42	851,04	-3,678	
64,60	9,503	298,22	850,13	-3,678	
64,62	9,503	297,21	850,13	-3,678	
64,64	9,503	295,24	851,22	-3,678	
64,66	9,503	292,67	851,65	-3,678	
64,68	9,503	291,18	851,13	-3,678	
64,70	9,503	290,39	850,23	-3,678	
64,72	9,503	289,22	850,08	-3,678	
64,74	9,503	286,49	851,23	-3,678	
64,76	9,503	284,20	851,83	-3,678	
64,78	9,503	282,22	851,36	-3,678	
64,80	9,503	280,33	850,44	-3,678	
64,82	9,503	279,69	849,95	-3,678	
64,84	9,503	278,03	850,95	-3,678	
64,86	9,503	275,16	851,81	-3,678	
64,88	9,503	272,52	851,56	-3,678	
64,90	9,503	270,83	850,68	-3,678	
64,92	9,503	269,93	849,95	-3,678	
64,94	9,503	267,67	850,71	-3,678	
64,96	9,503	265,27	851,77	-3,679	
64,98	9,503	263,91	851,75	-3,678	
65,00	9,503	262,30	850,96	-3,678	
65,02	9,503	261,00	850,04	-3,678	
65,04	9,503	260,60	850,33	-3,678	
65,06	9,503	258,93	851,53	-3,678	
65,08	9,503	256,07	851,92	-3,679	
65,10	9,503	254,25	851,41	-3,678	
65,12	9,503	252,99	850,58	-3,678	
65,14	9,503	254,05	849,90	-3,678	
65,16	9,503	256,23	850,44	-3,678	
65,18	9,503	255,49	851,28	-3,678	
65,20	9,503	254,25	851,16	-3,678	
65,22	9,503	254,20	850,34	-3,678	
65,24	9,503	254,22	850,03	-3,678	
65,26	9,503	249,87	851,20	-3,678	
65,28	9,503	246,65	851,99	-3,679	
65,30	9,503	245,08	851,64	-3,678	
65,32	9,503	243,35	850,75	-3,678	
65,34	9,503	242,02	849,93	-3,678	
65,36	9,503	242,25	850,41	-3,678	
65,38	9,503	240,85	851,56	-3,678	
65,40	9,503	238,52	851,80	-3,678	
65,42	9,503	237,35	851,21	-3,678	
65,44	9,503	237,04	850,36	-3,678	
65,46	9,503	238,58	849,92	-3,678	
65,48	9,503	239,61	850,74	-3,678	
65,50	9,503	238,34	851,41	-3,678	
65,52	9,503	237,33	851,07	-3,678	
65,54	9,503	237,55	850,21	-3,678	
65,56	9,503	237,05	850,10	-3,678	
65,58	9,503	233,32	851,31	-3,679	
65,60	9,503	230,99	851,94	-3,679	
65,62	9,503	229,56	851,46	-3,678	
65,64	9,503	227,90	850,52	-3,678	
65,66	9,503	227,28	849,93	-3,678	
65,68	9,503	227,09	850,78	-3,678	
65,70	9,503	225,55	851,68	-3,679	
65,72	9,503	224,20	851,48	-3,678	
65,74	9,503	223,94	850,57	-3,678	
65,76	9,503	224,35	850,00	-3,678	
65,78	9,503	222,07	851,00	-3,678	
65,80	9,503	220,37	851,99	-3,679	
65,82	9,503	219,31	851,84	-3,679	
65,84	9,503	218,00	851,01	-3,678	
65,86	9,503	217,70	850,11	-3,678	
65,88	9,503	220,31	850,02	-3,678	
65,90	9,503	220,37	851,04	-3,678	
65,92	9,503	218,52	851,52	-3,678	
65,94	9,503	218,77	851,04	-3,678	
65,96	9,503	220,05	850,17	-3,678	
65,98	9,503	219,45	850,08	-3,678	
66,00	9,503	217,24	851,22	-3,678	
66,02	9,503	216,31	851,77	-3,678	
66,04	9,503	215,26	851,25	-3,678	
66,06	9,503	214,27	850,29	-3,678	
66,08	9,503	212,86	850,03	-3,678	
66,10	9,503	210,26	851,18	-3,679	
66,12	9,503	208,11	851,86	-3,679	
66,14	9,503	206,26	851,41	-3,678	
66,16	9,503	204,77	850,46	-3,678	
66,18	9,503	203,94	849,98	-3,678	
66,20	9,503	202,02	850,93	-3,679	
66,22	9,503	201,29	851,67	-3,679	
66,24	9,503	200,79	851,41	-3,679	
66,26	9,503	199,62	850,62	-3,678	
66,28	9,503	198,37	849,69	-3,678	
66,30	9,503	202,23	848,75	-3,678	
66,32	9,503	209,57	847,83	-3,677	
66,34	9,503	215,90	846,92	-3,677	
66,36	9,503	222,01	845,99	-3,677	
66,38	9,503	228,54	845,03	-3,677	
66,40	9,503	236,08	844,11	-3,676	
66,42	9,503	244,30	843,24	-3,676	
66,44	9,503	251,84	842,40	-3,676	
66,46	9,503	258,74	841,56	-3,676	
66,48	9,503	265,44	840,64	-3,676	
66,50	9,503	271,84	839,68	-3,675	
66,52	9,503	277,18	838,76	-3,675	
66,54	9,503	282,69	837,88	-3,675	
66,56	9,503	288,96	837,02	-3,675	
66,58	9,503	295,60	836,18	-3,675	
66,60	9,503	302,27	835,34	-3,675	
66,62	9,503	308,66	834,45	-3,674	
66,64	9,503	314,03	833,54	-3,674	
66,66	9,503	319,64	832,66	-3,674	
66,68	9,503	325,73	831,75	-3,674	
66,70	9,503	330,97	830,77	-3,674	
66,72	9,503	335,52	829,80	-3,674	
66,74	9,503	340,20	828,86	-3,674	
66,76	9,503	345,78	827,94	-3,674	
66,78	9,503	351,09	827,02	-3,673	
66,80	9,503	356,36	826,10	-3,673	
66,82	9,503	361,20	825,14	-3,673	
66,84	9,503	366,32	824,12	-3,673	
66,86	9,503	371,26	823,11	-3,673	
66,88	9,503	376,43	822,18	-3,673	
66,90	9,503	381,34	821,31	-3,672	
66,92	9,503	385,88	820,48	-3,672	
66,94	9,503	390,56	819,62	-3,672	
66,96	9,503	395,54	818,75	-3,672	
66,98	9,503	400,29	817,87	-3,672	
67,00	9,503	404,73	816,95	-3,671	
67,02	9,503	409,15	816,00	-3,671	
67,04	9,503	413,11	815,05	-3,671	
67,06	9,503	417,19	814,14	-3,671	
67,08	9,503	421,56	813,26	-3,671	
67,10	9,503	426,04	812,43	-3,671	
67,12	9,503	430,55	811,60	-3,670	
67,14	9,503	434,71	810,75	-3,670	
67,16	9,503	438,65	809,89	-3,670	
67,18	9,503	442,91	809,02	-3,670	
67,20	9,503	446,81	808,17	-3,670	
67,22	9,503	450,25	807,34	-3,670	
67,24	9,503	453,54	806,51	-3,670	
67,26	9,503	456,95	805,72	-3,669	
67,28	9,503	460,96	804,96	-3,669	
67,30	9,503	464,99	804,18	-3,669	
67,32	9,503	468,60	803,32	-3,669	
67,34	9,503	471,97	802,41	-3,669	
67,36	9,503	475,33	801,50	-3,669	
67,38	9,503	478,70	800,64	-3,668	
67,40	9,503	482,06	799,80	-3,668	
67,42	9,503	485,39	799,01	-3,668	
67,44	9,503	488,20	798,27	-3,668	
67,46	9,503	490,83	797,54	-3,667	
67,48	9,503	493,83	796,79	-3,667	
67,50	9,503	496,87	795,97	-3,667	
67,52	9,503	499,50	795,08	-3,667	
67,54	9,503	502,30	794,17	-3,667	
67,56	9,503	504,90	793,32	-3,666	
67,58	9,503	507,57	792,54	-3,666	
67,60	9,503	510,40	791,79	-3,666	
67,62	9,503	512,98	791,06	-3,666	
67,64	9,503	515,21	790,30	-3,666	
67,66	9,503	517,45	789,51	-3,665	
67,68	9,503	519,73	788,70	-3,665	
67,70	9,503	521,99	787,90	-3,665	
67,72	9,503	524,24	787,10	-3,665	
67,74	9,503	526,41	786,29	-3,664	
67,76	9,503	528,34	785,45	-3,664	
67,78	9,503	530,10	784,61	-3,664	
67,80	9,503	532,12	783,78	-3,664	
67,82	9,503	534,33	782,96	-3,663	
67,84	9,503	535,98	782,16	-3,663	
67,86	9,503	537,74	781,40	-3,663	
67,88	9,503	539,08	780,65	-3,663	
67,90	9,503	540,43	779,92	-3,662	
67,92	9,503	542,03	779,20	-3,662	
67,94	9,503	542,82	778,48	-3,662	
67,96	9,503	543,80	777,76	-3,662	
67,98	9,503	545,33	777,02	-3,662	
68,00	9,503	546,12	776,27	-3,661	
68,02	9,503	546,29	775,50	-3,661	
68,04	9,503	547,21	774,73	-3,661	
68,06	9,503	548,76	773,99	-3,660	
68,08	9,503	549,63	773,25	-3,660	
68,10	9,503	549,81	772,53	-3,660	
68,12	9,503	549,76	771,82	-3,660	
68,14	9,503	549,73	771,09	-3,659	
68,16	9,503	549,68	770,32	-3,659	
68,18	9,503	549,68	769,54	-3,659	
68,20	9,503	549,74	768,80	-3,659	
68,22	9,503	549,80	768,09	-3,658	
68,24	9,503	549,80	767,39	-3,658	
68,26	9,503	549,77	766,68	-3,658	
68,28	9,503	549,76	765,96	-3,657	
68,30	9,503	549,78	765,24	-3,657	
68,32	9,503	549,76	764,53	-3,657	
68,34	9,503	549,74	763,82	-3,657	
68,36	9,503	549,71	763,10	-3,656	
68,38	9,503	548,93	762,38	-3,656	
68,40	9,503	547,41	761,69	-3,656	
68,42	9,503	546,52	761,01	-3,655	
68,44	9,503	546,37	760,33	-3,655	
68,46	9,503	546,11	759,65	-3,655	
68,48	9,503	544,73	758,96	-3,655	
68,50	9,503	543,48	758,28	-3,655	
68,52	9,503	542,81	757,61	-3,654	
68,54	9,503	541,48	756,93	-3,654	
68,56	9,503	540,22	756,25	-3,654	
68,58	9,503	539,44	755,58	-3,654	
68,60	9,503	537,98	754,91	-3,653	
68,62	9,503	536,70	754,25	-3,653	
68,64	9,503	535,42	753,58	-3,653	
68,66	9,503	533,85	752,90	-3,653	
68,68	9,503	532,77	752,19	-3,652	
68,70	9,503	531,15	751,47	-3,652	
68,72	9,503	529,81	750,74	-3,652	
68,74	9,503	528,59	750,02	-3,652	
68,76	9,503	527,09	749,33	-3,651	
68,78	9,503	526,01	748,64	-3,651	
68,80	9,503	524,51	747,97	-3,651	
68,82	9,503	523,00	747,30	-3,651	
68,84	9,503	521,19	746,64	-3,651	
68,86	9,503	519,64	745,96	-3,650	
68,88	9,503	517,84	745,28	-3,650	
68,90	9,503	516,23	744,60	-3,650	
68,92	9,503	514,41	743,89	-3,650	
68,94	9,503	512,80	743,20	-3,650	
68,96	9,503	510,99	742,54	-3,649	
68,98	9,503	509,49	741,91	-3,649	
69,00	9,503	507,71	741,30	-3,649	
69,02	9,503	506,13	740,67	-3,649	
69,04	9,503	504,30	740,06	-3,649	
69,06	9,503	502,73	739,45	-3,648	
69,08	9,503	500,96	738,84	-3,648	
69,10	9,503	498,88	738,20	-3,648	
69,12	9,503	496,71	737,54	-3,648	
69,14	9,503	494,50	736,86	-3,648	
69,16	9,503	492,28	736,17	-3,648	
69,18	9,503	490,24	735,49	-3,647	
69,20	9,503	488,49	734,82	-3,647	
69,22	9,503	486,52	734,17	-3,647	
69,24	9,503	484,35	733,54	-3,647	
69,26	9,503	482,08	732,94	-3,647	
69,28	9,503	479,30	732,36	-3,647	
69,30	9,503	476,66	731,81	-3,647	
69,32	9,503	474,27	731,26	-3,646	
69,34	9,503	471,93	730,71	-3,646	
69,36	9,503	469,68	730,15	-3,646	
69,38	9,503	467,44	729,57	-3,646	
69,40	9,503	465,22	728,99	-3,646	
69,42	9,503	462,39	728,43	-3,646	
69,44	9,503	459,72	727,86	-3,646	
69,46	9,503	457,22	727,32	-3,646	
69,48	9,503	454,47	726,78	-3,646	
69,50	9,503	451,90	726,25	-3,645	
69,52	9,503	449,06	725,72	-3,645	
69,54	9,503	445,83	725,19	-3,645	
69,56	9,503	442,49	724,65	-3,645	
69,58	9,503	439,12	724,11	-3,645	
69,60	9,503	435,72	723,57	-3,645	
69,62	9,503	432,35	723,03	-3,645	
69,64	9,503	428,96	722,50	-3,645	
69,66	9,503	425,59	721,98	-3,645	
69,68	9,503	422,03	721,46	-3,645	
69,70	9,503	417,90	720,95	-3,645	
69,72	9,503	413,96	720,45	-3,645	
69,74	9,503	410,40	719,95	-3,645	
69,76	9,503	406,46	719,46	-3,645	
69,78	9,503	402,46	718,98	-3,645	
69,80	9,503	398,59	718,52	-3,645	
69,82	9,503	394,46	718,06	-3,646	
69,84	9,503	390,59	717,62	-3,646	
69,86	9,503	386,46	717,17	-3,646	
69,88	9,503	382,10	716,73	-3,646	
69,90	9,503	377,07	716,31	-3,646	
69,92	9,503	372,15	715,90	-3,646	
69,94	9,503	367,01	715,51	-3,647	
69,96	9,503	362,10	715,13	-3,647	
69,98	9,503	356,93	714,76	-3,647	
70,00	9,503	352,03	714,41	-3,647	
70,02	9,503	346,67	714,06	-3,647	
70,04	9,503	341,19	713,72	-3,648	
70,06	9,503	336,03	713,39	-3,648	
70,08	9,503	330,94	713,06	-3,648	
70,10	9,503	325,91	712,73	-3,649	
70,12	9,503	320,06	712,41	-3,649	
70,14	9,503	313,49	712,10	-3,649	
70,16	9,503	306,77	711,81	-3,650	
70,18	9,503	300,09	711,53	-3,650	
70,20	9,503	293,36	711,25	-3,651	
70,22	9,503	286,82	710,98	-3,651	
70,24	9,503	281,47	710,73	-3,652	
70,26	9,503	276,08	710,50	-3,652	
70,28	9,503	269,83	710,28	-3,653	
70,30	9,503	263,11	710,07	-3,653	
70,32	9,503	256,35	709,89	-3,653	
70,34	9,503	249,69	709,73	-3,654	
70,36	9,503	243,01	709,58	-3,654	
70,38	9,503	236,19	709,44	-3,655	
70,40	9,503	229,44	709,34	-3,656	
70,42	9,503	222,76	709,23	-3,656	
70,44	9,503	216,07	709,11	-3,657	
70,46	9,503	209,32	709,01	-3,657	
70,48	9,503	202,62	708,91	-3,658	
70,50	9,503	196,00	708,82	-3,659	
70,52	9,503	189,29	708,73	-3,659	
70,54	9,503	182,52	708,65	-3,660	
70,56	9,503	175,77	708,58	-3,661	
70,58	9,503	169,07	708,52	-3,661	
70,60	9,503	162,37	708,46	-3,662	
70,62	9,503	155,66	708,39	-3,663	
70,64	9,503	148,96	708,34	-3,663	
70,66	9,503	143,06	708,29	-3,664	
70,68	9,503	137,83	708,25	-3,664	
70,70	9,503	131,90	708,21	-3,665	
70,72	9,503	125,44	708,17	-3,666	
70,74	9,503	118,78	708,11	-3,667	
70,76	9,503	112,22	708,04	-3,667	
70,78	9,503	106,77	707,95	-3,668	
70,80	9,503	101,35	707,85	-3,669	
70,82	9,503	95,89	707,77	-3,669	
70,84	9,503	90,75	707,69	-3,670	
70,86	9,503	85,70	707,57	-3,671	
70,88	9,503	80,66	707,45	-3,672	
70,90	9,503	75,55	707,37	-3,672	
70,92	9,503	70,73	707,34	-3,673	
70,94	9,503	66,22	707,31	-3,673	
70,96	9,503	61,23	707,29	-3,674	
70,98	9,503	56,57	707,26	-3,675	
71,00	9,503	52,56	707,24	-3,675	
71,02	9,503	48,39	707,21	-3,676	
71,04	9,503	44,39	707,16	-3,677	
71,06	9,503	40,30	707,09	-3,677	
71,08	9,503	36,22	707,00	-3,678	
71,10	9,503	32,51	706,88	-3,679	
71,12	9,503	29,16	706,76	-3,679	
71,14	9,503	25,82	706,69	-3,680	
71,16	9,503	22,46	706,72	-3,680	
71,18	9,503	19,12	706,80	-3,681	
71,20	9,503	16,34	706,78	-3,681	
71,22	9,503	13,81	706,68	-3,682	
71,24	9,503	10,93	706,55	-3,683	
71,26	9,503	8,217	706,38	-3,683	
71,28	9,503	5,898	706,17	-3,684	
71,30	9,503	3,818	705,98	-3,684	
71,32	9,503	1,770	705,82	-3,685	
71,34	9,503	-0,2740	705,70	-3,685	
71,36	9,503	-2,096	705,59	-3,686	
71,38	9,503	-3,872	705,45	-3,686	
71,40	9,503	-5,541	705,33	-3,686	
71,42	9,503	-7,303	705,25	-3,687	
71,44	9,503	-8,427	705,15	-3,687	
71,46	9,503	-9,879	705,00	-3,688	
71,48	9,503	-11,12	704,84	-3,688	
71,50	9,503	-12,34	704,71	-3,688	
71,52	9,503	-13,89	704,56	-3,689	
71,54	9,503	-14,83	704,39	-3,689	
71,56	9,503	-15,09	704,19	-3,689	
71,58	9,503	-15,86	704,01	-3,690	
71,60	9,503	-17,30	703,84	-3,690	
71,62	9,503	-18,15	703,68	-3,691	
71,64	9,503	-18,40	703,52	-3,691	
71,66	9,503	-18,41	703,37	-3,691	
71,68	9,503	-18,65	703,21	-3,691	
71,70	9,503	-20,00	703,05	-3,692	
71,72	9,503	-21,38	702,87	-3,692	
71,74	9,503	-21,84	702,68	-3,692	
71,76	9,503	-21,79	702,49	-3,692	
71,78	9,503	-21,68	702,31	-3,693	
71,80	9,503	-21,67	702,11	-3,693	
71,82	9,503	-21,74	701,91	-3,693	
71,84	9,503	-21,72	701,70	-3,694	
71,86	9,503	-21,62	701,48	-3,694	
71,88	9,503	-21,63	701,25	-3,694	
71,90	9,503	-21,76	701,02	-3,694	
71,92	9,503	-21,83	700,79	-3,694	
71,94	9,503	-21,80	700,57	-3,694	
71,96	9,503	-21,77	700,36	-3,695	
71,98	9,503	-21,76	700,15	-3,695	
72,00	9,503	-21,74	699,93	-3,695	
72,02	9,503	-21,70	699,71	-3,695	
72,04	9,503	-21,64	699,52	-3,695	
72,06	9,503	-21,62	699,32	-3,695	
72,08	9,503	-21,60	699,12	-3,696	
72,10	9,503	-21,59	698,92	-3,696	
72,12	9,503	-20,90	698,71	-3,696	
72,14	9,503	-19,43	698,48	-3,696	
72,16	9,503	-18,52	698,24	-3,696	
72,18	9,503	-18,30	698,00	-3,696	
72,20	9,503	-18,30	697,77	-3,696	
72,22	9,503	-18,29	697,52	-3,697	
72,24	9,503	-17,54	697,26	-3,697	
72,26	9,503	-16,04	697,02	-3,697	
72,28	9,503	-15,17	696,79	-3,697	
72,30	9,503	-14,97	696,59	-3,697	
72,32	9,503	-14,93	696,40	-3,697	
72,34	9,503	-14,65	696,18	-3,697	
72,36	9,503	-13,36	695,93	-3,697	
72,38	9,503	-12,09	695,67	-3,697	
72,40	9,503	-11,55	695,42	-3,697	
72,42	9,503	-10,74	695,13	-3,698	
72,44	9,503	-9,193	694,83	-3,698	
72,46	9,503	-8,286	694,51	-3,698	
72,48	9,503	-7,928	694,16	-3,698	