Zeit  1 - Standardmessrate [s]	ZwickWeg [mm]	ZwickKraft [N]	Pyrometer [°C]	Maytec [mm]
0	-0,9965	152,22	150,13	-0,00648	
0,02000	-0,9965	152,35	150,12	-0,00646	
0,04000	-0,9965	152,34	150,12	-0,00647	
0,06000	-0,9965	152,24	150,12	-0,00662	
0,08000	-0,9965	152,19	150,13	-0,00677	
0,1000	-0,9965	152,18	150,12	-0,00674	
0,1200	-0,9965	152,22	150,12	-0,00664	
0,1400	-0,9965	152,24	150,12	-0,00659	
0,1600	-0,9965	152,21	150,13	-0,00658	
0,1800	-0,9965	152,26	150,12	-0,00654	
0,2000	-0,9965	152,35	150,12	-0,00648	
0,2200	-0,9965	152,29	150,12	-0,00653	
0,2400	-0,9965	152,19	150,12	-0,00664	
0,2600	-0,9965	152,17	150,12	-0,00661	
0,2800	-0,9965	152,21	150,12	-0,00656	
0,3000	-0,9965	152,27	150,13	-0,00649	
0,3200	-0,9965	152,35	150,13	-0,00645	
0,3400	-0,9965	152,30	150,12	-0,00649	
0,3600	-0,9965	152,19	150,12	-0,00652	
0,3800	-0,9965	152,12	150,13	-0,00661	
0,4000	-0,9965	152,17	150,12	-0,00681	
0,4200	-0,9965	152,26	150,12	-0,00686	
0,4400	-0,9965	152,37	150,12	-0,00676	
0,4600	-0,9965	152,43	150,13	-0,00662	
0,4800	-0,9965	152,40	150,13	-0,00643	
0,5000	-0,9965	152,45	150,12	-0,00636	
0,5200	-0,9965	152,46	150,12	-0,00648	
0,5400	-0,9965	152,46	150,12	-0,00657	
0,5600	-0,9965	152,47	150,12	-0,00670	
0,5800	-0,9965	152,40	150,12	-0,00676	
0,6000	-0,9965	152,37	150,12	-0,00668	
0,6200	-0,9965	152,38	150,13	-0,00654	
0,6400	-0,9965	152,33	150,12	-0,00645	
0,6600	-0,9965	152,21	150,12	-0,00636	
0,6800	-0,9965	152,25	150,12	-0,00637	
0,7000	-0,9965	152,33	150,13	-0,00652	
0,7200	-0,9965	152,33	150,12	-0,00672	
0,7400	-0,9965	152,32	150,12	-0,00680	
0,7600	-0,9965	152,33	150,12	-0,00669	
0,7800	-0,9965	152,30	150,13	-0,00660	
0,8000	-0,9965	152,32	150,12	-0,00654	
0,8200	-0,9965	152,35	150,12	-0,00648	
0,8400	-0,9965	152,27	150,12	-0,00640	
0,8600	-0,9965	152,27	150,13	-0,00643	
0,8800	-0,9965	152,31	150,12	-0,00658	
0,9000	-0,9965	152,36	150,12	-0,00671	
0,9200	-0,9965	152,32	150,12	-0,00670	
0,9400	-0,9965	152,31	150,13	-0,00656	
0,9600	-0,9965	152,32	150,12	-0,00643	
0,9800	-0,9965	152,33	150,12	-0,00631	
1,000	-0,9965	152,38	150,12	-0,00628	
1,020	-0,9965	152,42	150,12	-0,00644	
1,040	-0,9965	152,37	150,12	-0,00665	
1,060	-0,9965	152,31	150,12	-0,00672	
1,080	-0,9965	152,27	150,12	-0,00665	
1,100	-0,9965	152,25	150,12	-0,00651	
1,120	-0,9965	152,30	150,12	-0,00644	
1,140	-0,9965	152,33	150,12	-0,00645	
1,160	-0,9965	152,34	150,12	-0,00648	
1,180	-0,9965	152,36	150,13	-0,00650	
1,200	-0,9965	152,42	150,12	-0,00655	
1,220	-0,9965	152,43	150,12	-0,00664	
1,240	-0,9965	152,40	150,12	-0,00670	
1,260	-0,9965	152,35	150,13	-0,00664	
1,280	-0,9965	152,32	150,13	-0,00653	
1,300	-0,9965	152,30	150,12	-0,00643	
1,320	-0,9965	152,29	150,13	-0,00635	
1,340	-0,9965	152,34	150,13	-0,00639	
1,360	-0,9965	152,40	150,12	-0,00661	
1,380	-0,9965	152,44	150,12	-0,00674	
1,400	-0,9965	152,44	150,13	-0,00670	
1,420	-0,9965	152,43	150,13	-0,00664	
1,440	-0,9965	152,41	150,12	-0,00655	
1,460	-0,9965	152,41	150,12	-0,00646	
1,480	-0,9965	152,43	150,13	-0,00646	
1,500	-0,9965	152,39	150,12	-0,00651	
1,520	-0,9965	152,32	150,12	-0,00655	
1,540	-0,9965	152,28	150,13	-0,00665	
1,560	-0,9965	152,32	150,13	-0,00672	
1,580	-0,9965	152,36	150,12	-0,00668	
1,600	-0,9965	152,39	150,12	-0,00659	
1,620	-0,9965	152,40	150,13	-0,00654	
1,640	-0,9965	152,44	150,13	-0,00649	
1,660	-0,9965	152,44	150,12	-0,00645	
1,680	-0,9965	152,39	150,12	-0,00650	
1,700	-0,9965	152,35	150,13	-0,00662	
1,720	-0,9965	152,33	150,12	-0,00670	
1,740	-0,9965	152,31	150,12	-0,00673	
1,760	-0,9965	152,29	150,12	-0,00662	
1,780	-0,9965	152,28	150,12	-0,00646	
1,800	-0,9965	152,30	150,12	-0,00637	
1,820	-0,9965	152,34	150,12	-0,00639	
1,840	-0,9965	152,39	150,13	-0,00651	
1,860	-0,9965	152,42	150,13	-0,00664	
1,880	-0,9965	152,42	150,12	-0,00674	
1,900	-0,9965	152,39	150,12	-0,00676	
1,920	-0,9965	152,34	150,12	-0,00664	
1,940	-0,9965	152,35	150,13	-0,00653	
1,960	-0,9965	152,36	150,12	-0,00646	
1,980	-0,9965	152,37	150,12	-0,00642	
2,000	-0,9965	152,33	150,13	-0,00647	
2,020	-0,9965	152,31	150,12	-0,00659	
2,040	-0,9965	152,30	150,12	-0,00669	
2,060	-0,9965	152,26	150,12	-0,00675	
2,080	-0,9965	152,32	150,13	-0,00671	
2,100	-0,9965	152,35	150,12	-0,00662	
2,120	-0,9965	152,31	150,12	-0,00658	
2,140	-0,9965	152,29	150,12	-0,00654	
2,160	-0,9965	152,26	150,13	-0,00652	
2,180	-0,9965	152,24	150,12	-0,00656	
2,200	-0,9965	152,26	150,12	-0,00667	
2,220	-0,9965	152,25	150,12	-0,00675	
2,240	-0,9965	152,30	150,13	-0,00670	
2,260	-0,9965	152,36	150,12	-0,00659	
2,280	-0,9965	152,37	150,12	-0,00650	
2,300	-0,9965	152,30	150,12	-0,00648	
2,320	-0,9965	152,24	150,13	-0,00649	
2,340	-0,9965	152,23	150,12	-0,00657	
2,360	-0,9965	152,30	150,12	-0,00668	
2,380	-0,9965	152,26	150,12	-0,00672	
2,400	-0,9965	152,18	150,13	-0,00672	
2,420	-0,9965	152,21	150,12	-0,00663	
2,440	-0,9965	152,27	150,12	-0,00650	
2,460	-0,9965	152,29	150,12	-0,00641	
2,480	-0,9965	152,25	150,12	-0,00644	
2,500	-0,9965	152,35	150,12	-0,00657	
2,520	-0,9965	152,46	150,12	-0,00666	
2,540	-0,9965	152,44	150,12	-0,00663	
2,560	-0,9965	152,42	150,12	-0,00663	
2,580	-0,9965	152,40	150,12	-0,00660	
2,600	-0,9965	152,39	150,12	-0,00648	
2,620	-0,9965	152,36	150,12	-0,00644	
2,640	-0,9965	152,31	150,12	-0,00643	
2,660	-0,9965	152,28	150,12	-0,00648	
2,680	-0,9965	152,25	150,12	-0,00663	
2,700	-0,9965	152,31	150,12	-0,00669	
2,720	-0,9965	152,33	150,12	-0,00670	
2,740	-0,9965	152,31	150,12	-0,00664	
2,760	-0,9965	152,39	150,12	-0,00654	
2,780	-0,9965	152,49	150,13	-0,00646	
2,800	-0,9965	152,42	150,12	-0,00644	
2,820	-0,9965	152,33	150,12	-0,00648	
2,840	-0,9965	152,34	150,12	-0,00653	
2,860	-0,9965	152,38	150,13	-0,00654	
2,880	-0,9965	152,37	150,12	-0,00656	
2,900	-0,9965	152,33	150,12	-0,00656	
2,920	-0,9965	152,37	150,12	-0,00648	
2,940	-0,9965	152,44	150,12	-0,00638	
2,960	-0,9965	152,43	150,12	-0,00637	
2,980	-0,9965	152,39	150,12	-0,00637	
3,000	-0,9965	152,39	150,12	-0,00645	
3,020	-0,9965	152,34	150,12	-0,00661	
3,040	-0,9965	152,33	150,12	-0,00670	
3,060	-0,9965	152,34	150,12	-0,00667	
3,080	-0,9965	152,30	150,12	-0,00662	
3,100	-0,9965	152,24	150,12	-0,00652	
3,120	-0,9965	152,21	150,12	-0,00643	
3,140	-0,9965	152,21	150,12	-0,00642	
3,160	-0,9965	152,25	150,12	-0,00652	
3,180	-0,9965	152,30	150,12	-0,00659	
3,200	-0,9965	152,34	150,12	-0,00665	
3,220	-0,9965	152,34	150,12	-0,00670	
3,240	-0,9965	152,36	150,12	-0,00671	
3,260	-0,9965	152,32	150,12	-0,00668	
3,280	-0,9965	152,29	150,12	-0,00659	
3,300	-0,9965	152,29	150,12	-0,00649	
3,320	-0,9965	152,24	150,12	-0,00647	
3,340	-0,9965	152,20	150,12	-0,00657	
3,360	-0,9965	152,26	150,12	-0,00666	
3,380	-0,9965	152,31	150,12	-0,00674	
3,400	-0,9965	152,33	150,12	-0,00674	
3,420	-0,9965	152,28	150,12	-0,00662	
3,440	-0,9965	152,24	150,13	-0,00654	
3,460	-0,9965	152,28	150,12	-0,00649	
3,480	-0,9965	152,27	150,12	-0,00647	
3,500	-0,9965	152,31	150,13	-0,00638	
3,520	-0,9965	152,34	150,12	-0,00642	
3,540	-0,9965	152,30	150,12	-0,00662	
3,560	-0,9965	152,25	150,12	-0,00677	
3,580	-0,9965	152,21	150,13	-0,00677	
3,600	-0,9965	152,21	150,12	-0,00668	
3,620	-0,9965	152,27	150,12	-0,00655	
3,640	-0,9965	152,35	150,12	-0,00644	
3,660	-0,9965	152,38	150,12	-0,00645	
3,680	-0,9965	152,40	150,12	-0,00654	
3,700	-0,9965	152,37	150,12	-0,00667	
3,720	-0,9965	152,31	150,12	-0,00674	
3,740	-0,9965	152,29	150,13	-0,00682	
3,760	-0,9965	152,26	150,12	-0,00675	
3,780	-0,9965	152,22	150,12	-0,00660	
3,800	-0,9965	152,17	150,12	-0,00648	
3,820	-0,9965	152,16	150,13	-0,00643	
3,840	-0,9965	152,23	150,12	-0,00642	
3,860	-0,9965	152,32	150,12	-0,00651	
3,880	-0,9965	152,29	150,12	-0,00662	
3,900	-0,9965	152,20	150,12	-0,00664	
3,920	-0,9965	152,14	150,12	-0,00658	
3,940	-0,9965	152,13	150,12	-0,00648	
3,960	-0,9965	152,19	150,12	-0,00644	
3,980	-0,9965	152,21	150,12	-0,00642	
4,000	-0,9965	152,18	150,12	-0,00641	
4,020	-0,9965	152,17	150,12	-0,00651	
4,040	-0,9965	152,22	150,12	-0,00665	
4,060	-0,9965	152,20	150,12	-0,00669	
4,080	-0,9965	152,20	150,12	-0,00664	
4,100	-0,9965	152,19	150,12	-0,00661	
4,120	-0,9965	152,14	150,12	-0,00650	
4,140	-0,9965	152,18	150,12	-0,00645	
4,160	-0,9965	152,23	150,13	-0,00644	
4,180	-0,9965	152,32	150,12	-0,00649	
4,200	-0,9965	152,38	150,12	-0,00657	
4,220	-0,9965	152,35	150,12	-0,00666	
4,240	-0,9965	152,28	150,12	-0,00665	
4,260	-0,9965	152,24	150,12	-0,00658	
4,280	-0,9965	152,29	150,12	-0,00651	
4,300	-0,9965	152,27	150,13	-0,00641	
4,320	-0,9965	152,18	150,13	-0,00641	
4,340	-0,9965	152,13	150,12	-0,00647	
4,360	-0,9965	152,12	150,12	-0,00657	
4,380	-0,9965	152,16	150,13	-0,00669	
4,400	-0,9965	152,25	150,12	-0,00668	
4,420	-0,9965	152,27	150,12	-0,00660	
4,440	-0,9965	152,31	150,12	-0,00652	
4,460	-0,9965	152,40	150,13	-0,00647	
4,480	-0,9965	152,39	150,13	-0,00637	
4,500	-0,9965	152,32	150,12	-0,00638	
4,520	-0,9965	152,33	150,12	-0,00658	
4,540	-0,9965	152,34	150,13	-0,00674	
4,560	-0,9965	152,35	150,13	-0,00672	
4,580	-0,9965	152,34	150,12	-0,00667	
4,600	-0,9965	152,34	150,13	-0,00656	
4,620	-0,9965	152,38	150,13	-0,00644	
4,640	-0,9965	152,38	150,12	-0,00644	
4,660	-0,9965	152,36	150,12	-0,00648	
4,680	-0,9965	152,31	150,13	-0,00659	
4,700	-0,9965	152,22	150,12	-0,00665	
4,720	-0,9965	152,22	150,12	-0,00664	
4,740	-0,9965	152,27	150,12	-0,00655	
4,760	-0,9965	152,31	150,13	-0,00645	
4,780	-0,9965	152,32	150,12	-0,00639	
4,800	-0,9965	152,30	150,12	-0,00637	
4,820	-0,9965	152,25	150,13	-0,00640	
4,840	-0,9965	152,20	150,13	-0,00651	
4,860	-0,9965	152,19	150,12	-0,00663	
4,880	-0,9965	152,14	150,12	-0,00669	
4,900	-0,9965	152,15	150,12	-0,00670	
4,920	-0,9965	152,17	150,12	-0,00663	
4,940	-0,9965	152,21	150,12	-0,00651	
4,960	-0,9965	152,20	150,12	-0,00645	
4,980	-0,9965	152,19	150,12	-0,00646	
5,000	-0,9965	152,21	150,13	-0,00649	
5,020	-0,9965	152,26	150,12	-0,00652	
5,040	-0,9965	152,32	150,13	-0,00659	
5,060	-0,9965	152,33	150,13	-0,00664	
5,080	-0,9965	152,23	150,12	-0,00661	
5,100	-0,9965	152,23	150,12	-0,00652	
5,120	-0,9965	152,21	150,13	-0,00647	
5,140	-0,9965	152,15	150,13	-0,00649	
5,160	-0,9965	152,15	150,12	-0,00654	
5,180	-0,9965	152,17	150,12	-0,00665	
5,200	-0,9965	152,13	150,13	-0,00671	
5,220	-0,9965	152,11	150,13	-0,00671	
5,240	-0,9965	152,16	150,12	-0,00661	
5,260	-0,9965	152,25	150,12	-0,00645	
5,280	-0,9965	152,30	150,13	-0,00635	
5,300	-0,9965	152,31	150,12	-0,00640	
5,320	-0,9965	152,28	150,12	-0,00651	
5,340	-0,9965	152,21	150,12	-0,00665	
5,360	-0,9965	152,15	150,13	-0,00673	
5,380	-0,9965	152,19	150,12	-0,00671	
5,400	-0,9965	152,23	150,12	-0,00660	
5,420	-0,9965	152,20	150,12	-0,00645	
5,440	-0,9965	152,13	150,13	-0,00640	
5,460	-0,9965	152,12	150,12	-0,00639	
5,480	-0,9965	152,14	150,12	-0,00644	
5,500	-0,9965	152,21	150,12	-0,00658	
5,520	-0,9965	152,27	150,13	-0,00671	
5,540	-0,9965	152,29	150,12	-0,00675	
5,560	-0,9965	152,28	150,12	-0,00671	
5,580	-0,9965	152,22	150,12	-0,00662	
5,600	-0,9965	152,22	150,12	-0,00644	
5,620	-0,9965	152,27	150,12	-0,00635	
5,640	-0,9965	152,31	150,12	-0,00640	
5,660	-0,9965	152,29	150,13	-0,00656	
5,680	-0,9965	152,25	150,13	-0,00670	
5,700	-0,9965	152,24	150,12	-0,00676	
5,720	-0,9965	152,19	150,12	-0,00669	
5,740	-0,9965	152,18	150,13	-0,00654	
5,760	-0,9965	152,17	150,12	-0,00645	
5,780	-0,9965	152,16	150,12	-0,00645	
5,800	-0,9965	152,17	150,12	-0,00647	
5,820	-0,9965	152,18	150,13	-0,00660	
5,840	-0,9965	152,18	150,13	-0,00670	
5,860	-0,9965	152,14	150,12	-0,00669	
5,880	-0,9965	152,05	150,12	-0,00662	
5,900	-0,9965	152,02	150,13	-0,00650	
5,920	-0,9965	152,08	150,13	-0,00641	
5,940	-0,9965	152,08	150,12	-0,00635	
5,960	-0,9965	152,11	150,12	-0,00640	
5,980	-0,9965	152,19	150,12	-0,00652	
6,000	-0,9965	152,23	150,12	-0,00661	
6,020	-0,9965	152,23	150,12	-0,00661	
6,040	-0,9965	152,10	150,13	-0,00662	
6,060	-0,9965	151,97	150,13	-0,00657	
6,080	-0,9965	152,04	150,12	-0,00650	
6,100	-0,9965	152,17	150,12	-0,00644	
6,120	-0,9965	152,20	150,12	-0,00644	
6,140	-0,9965	152,23	150,12	-0,00656	
6,160	-0,9965	152,22	150,12	-0,00670	
6,180	-0,9965	152,18	150,12	-0,00676	
6,200	-0,9965	152,16	150,13	-0,00677	
6,220	-0,9965	152,15	150,12	-0,00664	
6,240	-0,9965	152,14	150,12	-0,00653	
6,260	-0,9965	152,17	150,12	-0,00644	
6,280	-0,9965	152,23	150,13	-0,00642	
6,300	-0,9965	152,26	150,13	-0,00648	
6,320	-0,9966	152,28	150,12	-0,00660	
6,340	-0,9965	152,22	150,12	-0,00668	
6,360	-0,9965	152,23	150,13	-0,00669	
6,380	-0,9965	152,27	150,12	-0,00668	
6,400	-0,9965	152,24	150,12	-0,00663	
6,420	-0,9965	152,15	150,12	-0,00646	
6,440	-0,9965	152,11	150,12	-0,00636	
6,460	-0,9965	152,08	150,12	-0,00641	
6,480	-0,9965	152,09	150,12	-0,00652	
6,500	-0,9965	152,11	150,12	-0,00667	
6,520	-0,9965	152,18	150,12	-0,00666	
6,540	-0,9965	152,20	150,12	-0,00656	
6,560	-0,9965	152,20	150,12	-0,00648	
6,580	-0,9965	152,25	150,12	-0,00640	
6,600	-0,9965	152,30	150,13	-0,00633	
6,620	-0,9965	152,28	150,12	-0,00630	
6,640	-0,9965	152,21	150,12	-0,00647	
6,660	-0,9965	152,17	150,13	-0,00668	
6,680	-0,9965	152,19	150,13	-0,00675	
6,700	-0,9965	152,16	150,12	-0,00664	
6,720	-0,9965	152,09	150,12	-0,00648	
6,740	-0,9965	152,07	150,12	-0,00644	
6,760	-0,9965	152,12	150,13	-0,00644	
6,780	-0,9965	152,22	150,12	-0,00639	
6,800	-0,9965	152,30	150,12	-0,00649	
6,820	-0,9965	152,31	150,13	-0,00663	
6,840	-0,9965	152,29	150,12	-0,00670	
6,860	-0,9965	152,30	150,12	-0,00672	
6,880	-0,9965	152,27	150,12	-0,00663	
6,900	-0,9965	152,22	150,13	-0,00652	
6,920	-0,9965	152,19	150,12	-0,00649	
6,940	-0,9965	152,18	150,12	-0,00653	
6,960	-0,9965	152,17	150,12	-0,00662	
6,980	-0,9965	152,13	150,13	-0,00669	
7,000	-0,9965	152,14	150,13	-0,00670	
7,020	-0,9965	152,15	150,12	-0,00669	
7,040	-0,9965	152,11	150,13	-0,00657	
7,060	-0,9965	152,10	150,13	-0,00644	
7,080	-0,9965	152,19	150,12	-0,00644	
7,100	-0,9965	152,24	150,12	-0,00650	
7,120	-0,9965	152,21	150,13	-0,00659	
7,140	-0,9965	152,22	150,12	-0,00672	
7,160	-0,9965	152,22	150,12	-0,00674	
7,180	-0,9965	152,22	150,12	-0,00671	
7,200	-0,9965	152,25	150,13	-0,00659	
7,220	-0,9965	152,28	150,12	-0,00646	
7,240	-0,9965	152,29	150,12	-0,00642	
7,260	-0,9965	152,24	150,12	-0,00639	
7,280	-0,9965	152,19	150,13	-0,00645	
7,300	-0,9965	152,17	150,12	-0,00662	
7,320	-0,9965	152,20	150,12	-0,00671	
7,340	-0,9965	152,26	150,13	-0,00672	
7,360	-0,9965	152,28	150,13	-0,00657	
7,380	-0,9965	152,29	150,12	-0,00643	
7,400	-0,9965	152,29	150,12	-0,00639	
7,420	-0,9965	152,27	150,13	-0,00638	
7,440	-0,9965	152,23	150,13	-0,00648	
7,460	-0,9965	152,20	150,12	-0,00665	
7,480	-0,9965	152,19	150,13	-0,00677	
7,500	-0,9965	152,18	150,13	-0,00671	
7,520	-0,9965	152,23	150,12	-0,00659	
7,540	-0,9965	152,22	150,12	-0,00653	
7,560	-0,9965	152,17	150,13	-0,00655	
7,580	-0,9965	152,18	150,13	-0,00658	
7,600	-0,9965	152,28	150,12	-0,00658	
7,620	-0,9965	152,33	150,12	-0,00662	
7,640	-0,9965	152,33	150,12	-0,00674	
7,660	-0,9965	152,35	150,12	-0,00675	
7,680	-0,9965	152,31	150,12	-0,00663	
7,700	-0,9965	152,25	150,12	-0,00652	
7,720	-0,9965	152,19	150,12	-0,00644	
7,740	-0,9965	152,18	150,12	-0,00640	
7,760	-0,9965	152,20	150,12	-0,00647	
7,780	-0,9965	152,29	150,12	-0,00661	
7,800	-0,9965	152,28	150,12	-0,00673	
7,820	-0,9965	152,22	150,12	-0,00677	
7,840	-0,9965	152,17	150,12	-0,00665	
7,860	-0,9965	152,20	150,12	-0,00657	
7,880	-0,9965	152,20	150,12	-0,00653	
7,900	-0,9965	152,23	150,12	-0,00650	
7,920	-0,9965	152,29	150,12	-0,00649	
7,940	-0,9965	152,26	150,12	-0,00661	
7,960	-0,9965	152,20	150,13	-0,00666	
7,980	-0,9965	152,18	150,13	-0,00668	
8,000	-0,9965	152,18	150,12	-0,00669	
8,020	-0,9965	152,21	150,12	-0,00657	
8,040	-0,9965	152,21	150,13	-0,00642	
8,060	-0,9965	152,21	150,12	-0,00639	
8,080	-0,9965	152,20	150,12	-0,00643	
8,100	-0,9965	152,17	150,12	-0,00649	
8,120	-0,9965	152,16	150,12	-0,00660	
8,140	-0,9965	152,17	150,12	-0,00669	
8,160	-0,9965	152,20	150,12	-0,00664	
8,180	-0,9965	152,16	150,12	-0,00652	
8,200	-0,9965	152,12	150,12	-0,00648	
8,220	-0,9965	152,11	150,12	-0,00652	
8,240	-0,9965	152,16	150,12	-0,00660	
8,260	-0,9965	152,22	150,12	-0,00669	
8,280	-0,9965	152,24	150,13	-0,00673	
8,300	-0,9965	152,20	150,12	-0,00671	
8,320	-0,9965	152,19	150,12	-0,00665	
8,340	-0,9965	152,23	150,12	-0,00653	
8,360	-0,9965	152,26	150,13	-0,00643	
8,380	-0,9965	152,25	150,12	-0,00640	
8,400	-0,9965	152,25	150,12	-0,00641	
8,420	-0,9965	152,20	150,13	-0,00649	
8,440	-0,9965	152,16	150,13	-0,00661	
8,460	-0,9965	152,13	150,12	-0,00671	
8,480	-0,9965	152,10	150,12	-0,00669	
8,500	-0,9965	152,11	150,12	-0,00657	
8,520	-0,9965	152,14	150,13	-0,00646	
8,540	-0,9965	152,20	150,12	-0,00639	
8,560	-0,9965	152,21	150,12	-0,00636	
8,580	-0,9965	152,24	150,13	-0,00644	
8,600	-0,9965	152,30	150,13	-0,00660	
8,620	-0,9965	152,28	150,12	-0,00670	
8,640	-0,9965	152,19	150,12	-0,00674	
8,660	-0,9965	152,20	150,12	-0,00666	
8,680	-0,9965	152,23	150,12	-0,00656	
8,700	-0,9965	152,25	150,12	-0,00653	
8,720	-0,9965	152,26	150,12	-0,00648	
8,740	-0,9965	152,28	150,13	-0,00646	
8,760	-0,9965	152,20	150,13	-0,00655	
8,780	-0,9965	152,17	150,12	-0,00669	
8,800	-0,9965	152,20	150,12	-0,00677	
8,820	-0,9965	152,24	150,13	-0,00680	
8,840	-0,9965	152,22	150,13	-0,00676	
8,860	-0,9965	152,19	150,12	-0,00664	
8,880	-0,9965	152,23	150,13	-0,00648	
8,900	-0,9965	152,26	150,13	-0,00638	
8,920	-0,9965	152,22	150,12	-0,00644	
8,940	-0,9965	152,22	150,12	-0,00658	
8,960	-0,9965	152,19	150,13	-0,00665	
8,980	-0,9965	152,15	150,12	-0,00661	
9,000	-0,9965	152,19	150,12	-0,00655	
9,020	-0,9965	152,23	150,12	-0,00648	
9,040	-0,9965	152,17	150,12	-0,00641	
9,060	-0,9965	152,16	150,12	-0,00638	
9,080	-0,9965	152,16	150,12	-0,00644	
9,100	-0,9965	152,19	150,12	-0,00659	
9,120	-0,9965	152,18	150,13	-0,00672	
9,140	-0,9965	152,16	150,13	-0,00674	
9,160	-0,9965	152,16	150,12	-0,00662	
9,180	-0,9965	152,20	150,12	-0,00651	
9,200	-0,9965	152,21	150,12	-0,00637	
9,220	-0,9965	152,25	150,12	-0,00638	
9,240	-0,9965	152,32	150,12	-0,00658	
9,260	-0,9965	152,34	150,13	-0,00674	
9,280	-0,9965	152,31	150,13	-0,00677	
9,300	-0,9965	152,24	150,12	-0,00675	
9,320	-0,9965	152,23	150,12	-0,00670	
9,340	-0,9965	152,28	150,13	-0,00657	
9,360	-0,9965	152,28	150,13	-0,00646	
9,380	-0,9965	152,22	150,12	-0,00645	
9,400	-0,9965	152,18	150,12	-0,00645	
9,420	-0,9965	152,21	150,13	-0,00657	
9,440	-0,9965	152,22	150,12	-0,00670	
9,460	-0,9965	152,18	150,12	-0,00671	
9,480	-0,9965	152,16	150,12	-0,00667	
9,500	-0,9965	152,21	150,13	-0,00659	
9,520	-0,9965	152,27	150,13	-0,00645	
9,540	-0,9966	152,29	150,12	-0,00639	
9,560	-0,9965	152,29	150,13	-0,00644	
9,580	-0,9965	152,32	150,13	-0,00650	
9,600	-0,9965	152,33	150,12	-0,00658	
9,620	-0,9965	152,30	150,12	-0,00668	
9,640	-0,9965	152,25	150,13	-0,00668	
9,660	-0,9965	152,26	150,13	-0,00656	
9,680	-0,9965	152,30	150,12	-0,00647	
9,700	-0,9965	152,28	150,13	-0,00647	
9,720	-0,9965	152,20	150,13	-0,00650	
9,740	-0,9965	152,17	150,13	-0,00661	
9,760	-0,9965	152,19	150,12	-0,00675	
9,780	-0,9965	152,17	150,13	-0,00678	
9,800	-0,9965	152,11	150,13	-0,00671	
9,820	-0,9965	152,08	150,12	-0,00659	
9,840	-0,9965	152,08	150,12	-0,00648	
9,860	-0,9965	152,14	150,13	-0,00646	
9,880	-0,9965	152,17	150,13	-0,00648	
9,900	-0,9965	152,17	150,12	-0,00654	
9,920	-0,9965	152,16	150,12	-0,00657	
9,940	-0,9965	152,18	150,13	-0,00657	
9,960	-0,9965	152,19	150,13	-0,00657	
9,980	-0,9965	152,23	150,12	-0,00655	
10,00	-0,9965	152,22	150,12	-0,00647	
10,02	-0,9965	152,12	150,13	-0,00642	
10,04	-0,9965	152,08	150,12	-0,00642	
10,06	-0,9965	152,09	150,12	-0,00646	
10,08	-0,9965	152,12	150,13	-0,00660	
10,10	-0,9965	152,04	150,13	-0,00670	
10,12	-0,9965	152,00	150,12	-0,00665	
10,14	-0,9965	152,11	150,12	-0,00656	
10,16	-0,9965	152,18	150,13	-0,00644	
10,18	-0,9965	152,26	150,12	-0,00635	
10,20	-0,9965	152,25	150,12	-0,00638	
10,22	-0,9965	152,21	150,13	-0,00643	
10,24	-0,9965	152,21	150,13	-0,00653	
10,26	-0,9965	152,22	150,12	-0,00663	
10,28	-0,9965	152,19	150,12	-0,00668	
10,30	-0,9965	152,14	150,12	-0,00664	
10,32	-0,9965	152,17	150,13	-0,00652	
10,34	-0,9966	152,25	150,12	-0,00648	
10,36	-0,9965	152,22	150,12	-0,00640	
10,38	-0,9965	152,13	150,13	-0,00642	
10,40	-0,9965	152,08	150,13	-0,00657	
10,42	-0,9965	152,10	150,12	-0,00665	
10,44	-0,9965	152,18	150,12	-0,00670	
10,46	-0,9965	152,26	150,13	-0,00670	
10,48	-0,9965	152,25	150,13	-0,00668	
10,50	-0,9965	152,26	150,13	-0,00662	
10,52	-0,9965	152,32	150,13	-0,00646	
10,54	-0,9965	152,29	150,13	-0,00641	
10,56	-0,9965	152,26	150,12	-0,00648	
10,58	-0,9965	152,21	150,12	-0,00668	
10,60	-0,9965	152,17	150,13	-0,00681	
10,62	-0,9965	152,23	150,13	-0,00679	
10,64	-0,9965	152,29	150,12	-0,00667	
10,66	-0,9965	152,30	150,13	-0,00653	
10,68	-0,9965	152,28	150,13	-0,00646	
10,70	-0,9965	152,25	150,12	-0,00648	
10,72	-0,9965	152,25	150,12	-0,00656	
10,74	-0,9965	152,24	150,13	-0,00662	
10,76	-0,9965	152,21	150,13	-0,00665	
10,78	-0,9965	152,17	150,12	-0,00665	
10,80	-0,9965	152,15	150,12	-0,00658	
10,82	-0,9965	152,15	150,13	-0,00650	
10,84	-0,9965	152,14	150,12	-0,00642	
10,86	-0,9965	152,15	150,12	-0,00643	
10,88	-0,9965	152,16	150,13	-0,00657	
10,90	-0,9965	152,16	150,13	-0,00668	
10,92	-0,9965	152,21	150,12	-0,00677	
10,94	-0,9965	152,18	150,12	-0,00679	
10,96	-0,9965	152,15	150,13	-0,00670	
10,98	-0,9965	152,20	150,13	-0,00655	
11,00	-0,9965	152,24	150,12	-0,00644	
11,02	-0,9965	152,17	150,13	-0,00642	
11,04	-0,9965	152,08	150,13	-0,00645	
11,06	-0,9965	152,14	150,13	-0,00659	
11,08	-0,9965	152,20	150,12	-0,00676	
11,10	-0,9965	152,21	150,13	-0,00681	
11,12	-0,9965	152,16	150,13	-0,00669	
11,14	-0,9965	152,14	150,12	-0,00656	
11,16	-0,9965	152,15	150,12	-0,00646	
11,18	-0,9965	152,17	150,13	-0,00644	
11,20	-0,9965	152,18	150,12	-0,00651	
11,22	-0,9965	152,14	150,12	-0,00661	
11,24	-0,9965	152,13	150,13	-0,00668	
11,26	-0,9965	152,13	150,13	-0,00670	
11,28	-0,9965	152,18	150,12	-0,00665	
11,30	-0,9965	152,21	150,12	-0,00655	
11,32	-0,9965	152,15	150,13	-0,00645	
11,34	-0,9965	152,10	150,12	-0,00642	
11,36	-0,9965	152,10	150,12	-0,00645	
11,38	-0,9965	152,13	150,12	-0,00657	
11,40	-0,9965	152,16	150,13	-0,00670	
11,42	-0,9965	152,19	150,12	-0,00677	
11,44	-0,9965	152,23	150,12	-0,00671	
11,46	-0,9965	152,26	150,13	-0,00658	
11,48	-0,9965	152,26	150,13	-0,00650	
11,50	-0,9965	152,25	150,12	-0,00645	
11,52	-0,9965	152,22	150,12	-0,00640	
11,54	-0,9965	152,22	150,13	-0,00641	
11,56	-0,9965	152,21	150,13	-0,00649	
11,58	-0,9965	152,19	150,12	-0,00667	
11,60	-0,9965	152,18	150,12	-0,00669	
11,62	-0,9965	152,23	150,13	-0,00663	
11,64	-0,9965	152,26	150,12	-0,00660	
11,66	-0,9965	152,18	150,12	-0,00646	
11,68	-0,9965	152,13	150,12	-0,00640	
11,70	-0,9965	152,15	150,13	-0,00646	
11,72	-0,9965	152,20	150,13	-0,00658	
11,74	-0,9965	152,11	150,12	-0,00665	
11,76	-0,9965	152,04	150,12	-0,00668	
11,78	-0,9965	152,05	150,13	-0,00666	
11,80	-0,9965	152,12	150,12	-0,00659	
11,82	-0,9965	152,17	150,12	-0,00643	
11,84	-0,9965	152,18	150,13	-0,00631	
11,86	-0,9965	152,20	150,13	-0,00641	
11,88	-0,9965	152,18	150,12	-0,00657	
11,90	-0,9965	152,17	150,12	-0,00667	
11,92	-0,9965	152,16	150,13	-0,00676	
11,94	-0,9965	152,13	150,13	-0,00675	
11,96	-0,9965	152,08	150,12	-0,00666	
11,98	-0,9965	152,08	150,12	-0,00653	
12,00	-0,9965	152,13	150,13	-0,00642	
12,02	-0,9965	152,15	150,12	-0,00639	
12,04	-0,9965	152,15	150,12	-0,00649	
12,06	-0,9965	152,20	150,13	-0,00664	
12,08	-0,9965	152,25	150,13	-0,00673	
12,10	-0,9965	152,22	150,13	-0,00670	
12,12	-0,9965	152,17	150,13	-0,00664	
12,14	-0,9965	152,22	150,13	-0,00653	
12,16	-0,9965	152,28	150,13	-0,00648	
12,18	-0,9965	152,27	150,12	-0,00648	
12,20	-0,9965	152,22	150,13	-0,00652	
12,22	-0,9965	152,17	150,12	-0,00661	
12,24	-0,9965	152,14	150,12	-0,00671	
12,26	-0,9965	152,11	150,12	-0,00676	
12,28	-0,9965	152,11	150,12	-0,00669	
12,30	-0,9965	152,10	150,12	-0,00654	
12,32	-0,9965	152,10	150,12	-0,00642	
12,34	-0,9965	152,08	150,12	-0,00643	
12,36	-0,9965	152,01	150,13	-0,00648	
12,38	-0,9965	152,01	150,13	-0,00656	
12,40	-0,9965	152,07	150,12	-0,00663	
12,42	-0,9965	152,06	150,12	-0,00669	
12,44	-0,9965	152,04	150,13	-0,00663	
12,46	-0,9965	152,08	150,12	-0,00652	
12,48	-0,9965	152,19	150,12	-0,00645	
12,50	-0,9965	152,21	150,12	-0,00641	
12,52	-0,9965	152,22	150,12	-0,00644	
12,54	-0,9965	152,17	150,12	-0,00651	
12,56	-0,9965	152,14	150,12	-0,00666	
12,58	-0,9965	152,13	150,12	-0,00673	
12,60	-0,9965	152,14	150,13	-0,00666	
12,62	-0,9965	152,19	150,13	-0,00657	
12,64	-0,9965	152,22	150,12	-0,00652	
12,66	-0,9965	152,23	150,13	-0,00649	
12,68	-0,9965	152,23	150,13	-0,00643	
12,70	-0,9965	152,15	150,12	-0,00647	
12,72	-0,9965	152,15	150,12	-0,00658	
12,74	-0,9965	152,16	150,12	-0,00668	
12,76	-0,9965	152,11	150,12	-0,00670	
12,78	-0,9965	152,14	150,12	-0,00667	
12,80	-0,9965	152,17	150,12	-0,00657	
12,82	-0,9965	152,25	150,13	-0,00642	
12,84	-0,9965	152,26	150,13	-0,00640	
12,86	-0,9965	152,22	150,12	-0,00649	
12,88	-0,9965	152,23	150,13	-0,00659	
12,90	-0,9965	152,26	150,13	-0,00663	
12,92	-0,9965	152,23	150,12	-0,00663	
12,94	-0,9965	152,16	150,13	-0,00654	
12,96	-0,9965	152,12	150,13	-0,00649	
12,98	-0,9965	152,16	150,13	-0,00645	
13,00	-0,9965	152,20	150,12	-0,00647	
13,02	-0,9965	152,23	150,13	-0,00654	
13,04	-0,9965	152,26	150,13	-0,00667	
13,06	-0,9965	152,30	150,12	-0,00675	
13,08	-0,9965	152,32	150,12	-0,00678	
13,10	-0,9965	152,27	150,13	-0,00674	
13,12	-0,9965	152,21	150,12	-0,00663	
13,14	-0,9965	152,19	150,12	-0,00654	
13,16	-0,9965	152,19	150,12	-0,00650	
13,18	-0,9965	152,18	150,13	-0,00655	
13,20	-0,9965	152,10	150,12	-0,00664	
13,22	-0,9965	152,06	150,12	-0,00665	
13,24	-0,9965	152,13	150,13	-0,00663	
13,26	-0,9965	152,16	150,12	-0,00656	
13,28	-0,9965	152,19	150,12	-0,00648	
13,30	-0,9965	152,22	150,12	-0,00639	
13,32	-0,9965	152,21	150,13	-0,00641	
13,34	-0,9965	152,26	150,13	-0,00653	
13,36	-0,9965	152,31	150,12	-0,00661	
13,38	-0,9965	152,39	150,13	-0,00665	
13,40	-0,9965	152,38	150,13	-0,00664	
13,42	-0,9965	152,35	150,13	-0,00662	
13,44	-0,9965	152,40	150,12	-0,00651	
13,46	-0,9965	152,33	150,13	-0,00642	
13,48	-0,9965	152,29	150,13	-0,00643	
13,50	-0,9965	152,24	150,12	-0,00658	
13,52	-0,9965	152,15	150,12	-0,00672	
13,54	-0,9965	152,14	150,13	-0,00676	
13,56	-0,9965	152,11	150,13	-0,00665	
13,58	-0,9965	152,13	150,12	-0,00655	
13,60	-0,9965	152,14	150,13	-0,00653	
13,62	-0,9965	152,16	150,13	-0,00649	
13,64	-0,9965	152,15	150,12	-0,00645	
13,66	-0,9965	152,17	150,12	-0,00646	
13,68	-0,9965	152,17	150,13	-0,00658	
13,70	-0,9965	152,13	150,13	-0,00670	
13,72	-0,9965	152,14	150,12	-0,00666	
13,74	-0,9965	152,19	150,12	-0,00657	
13,76	-0,9965	152,20	150,13	-0,00650	
13,78	-0,9965	152,22	150,13	-0,00643	
13,80	-0,9965	152,26	150,12	-0,00643	
13,82	-0,9965	152,29	150,12	-0,00649	
13,84	-0,9965	152,34	150,13	-0,00657	
13,86	-0,9965	152,47	150,12	-0,00671	
13,88	-0,9965	152,47	150,12	-0,00677	
13,90	-0,9965	152,38	150,13	-0,00677	
13,92	-0,9965	152,32	150,13	-0,00670	
13,94	-0,9965	152,26	150,12	-0,00651	
13,96	-0,9965	152,27	150,12	-0,00642	
13,98	-0,9965	152,29	150,13	-0,00643	
14,00	-0,9965	152,26	150,12	-0,00645	
14,02	-0,9965	152,22	150,12	-0,00655	
14,04	-0,9965	152,19	150,12	-0,00661	
14,06	-0,9965	152,11	150,12	-0,00666	
14,08	-0,9965	152,03	150,12	-0,00661	
14,10	-0,9965	152,06	150,12	-0,00653	
14,12	-0,9965	152,15	150,12	-0,00651	
14,14	-0,9965	152,16	150,12	-0,00651	
14,16	-0,9965	152,12	150,12	-0,00654	
14,18	-0,9965	152,14	150,12	-0,00669	
14,20	-0,9965	152,16	150,12	-0,00676	
14,22	-0,9965	152,14	150,13	-0,00672	
14,24	-0,9965	152,14	150,12	-0,00663	
14,26	-0,9965	152,13	150,12	-0,00651	
14,28	-0,9965	152,10	150,12	-0,00638	
14,30	-0,9965	152,12	150,12	-0,00635	
14,32	-0,9965	152,14	150,12	-0,00643	
14,34	-0,9965	152,17	150,12	-0,00658	
14,36	-0,9965	152,27	150,12	-0,00666	
14,38	-0,9965	152,31	150,12	-0,00671	
14,40	-0,9965	152,31	150,12	-0,00666	
14,42	-0,9965	152,24	150,12	-0,00658	
14,44	-0,9965	152,18	150,12	-0,00651	
14,46	-0,9965	152,13	150,13	-0,00644	
14,48	-0,9965	152,10	150,12	-0,00645	
14,50	-0,9965	152,03	150,12	-0,00655	
14,52	-0,9965	151,99	150,13	-0,00668	
14,54	-0,9965	152,06	150,13	-0,00674	
14,56	-0,9965	152,18	150,12	-0,00676	
14,58	-0,9965	152,24	150,12	-0,00669	
14,60	-0,9965	152,22	150,12	-0,00655	
14,62	-0,9965	152,22	150,13	-0,00648	
14,64	-0,9965	152,27	150,12	-0,00643	
14,66	-0,9965	152,26	150,12	-0,00651	
14,68	-0,9965	152,24	150,13	-0,00664	
14,70	-0,9965	152,28	150,12	-0,00672	
14,72	-0,9965	152,36	150,12	-0,00671	
14,74	-0,9965	152,32	150,12	-0,00666	
14,76	-0,9965	152,22	150,13	-0,00661	
14,78	-0,9965	152,22	150,12	-0,00657	
14,80	-0,9965	152,28	150,12	-0,00651	
14,82	-0,9965	152,36	150,12	-0,00651	
14,84	-0,9965	152,37	150,12	-0,00657	
14,86	-0,9965	152,32	150,12	-0,00666	
14,88	-0,9965	152,35	150,12	-0,00666	
14,90	-0,9965	152,36	150,12	-0,00661	
14,92	-0,9965	152,29	150,12	-0,00656	
14,94	-0,9965	152,28	150,12	-0,00652	
14,96	-0,9965	152,30	150,12	-0,00648	
14,98	-0,9965	152,36	150,12	-0,00648	
15,00	-0,9965	152,37	150,13	-0,00660	
15,02	-0,9965	152,35	150,12	-0,00675	
15,04	-0,9965	152,28	150,12	-0,00676	
15,06	-0,9965	152,23	150,12	-0,00669	
15,08	-0,9965	152,23	150,13	-0,00658	
15,10	-0,9965	152,28	150,12	-0,00655	
15,12	-0,9965	152,32	150,12	-0,00652	
15,14	-0,9965	152,30	150,12	-0,00647	
15,16	-0,9965	152,25	150,13	-0,00656	
15,18	-0,9965	152,27	150,12	-0,00665	
15,20	-0,9965	152,32	150,12	-0,00665	
15,22	-0,9965	152,29	150,12	-0,00663	
15,24	-0,9965	152,29	150,13	-0,00663	
15,26	-0,9965	152,36	150,12	-0,00652	
15,28	-0,9965	152,41	150,12	-0,00644	
15,30	-0,9965	152,37	150,13	-0,00647	
15,32	-0,9965	152,28	150,13	-0,00649	
15,34	-0,9965	152,25	150,12	-0,00658	
15,36	-0,9965	152,29	150,12	-0,00665	
15,38	-0,9965	152,37	150,13	-0,00669	
15,40	-0,9965	152,42	150,13	-0,00663	
15,42	-0,9965	152,38	150,12	-0,00654	
15,44	-0,9965	152,21	150,12	-0,00647	
15,46	-0,9965	152,15	150,13	-0,00645	
15,48	-0,9965	152,19	150,13	-0,00645	
15,50	-0,9965	152,21	150,13	-0,00654	
15,52	-0,9965	152,22	150,13	-0,00669	
15,54	-0,9965	152,21	150,12	-0,00672	
15,56	-0,9965	152,22	150,12	-0,00672	
15,58	-0,9965	152,20	150,12	-0,00667	
15,60	-0,9965	152,20	150,12	-0,00659	
15,62	-0,9965	152,23	150,12	-0,00649	
15,64	-0,9965	152,21	150,12	-0,00643	
15,66	-0,9965	152,18	150,12	-0,00653	
15,68	-0,9965	152,16	150,13	-0,00673	
15,70	-0,9965	152,17	150,13	-0,00681	
15,72	-0,9965	152,27	150,12	-0,00673	
15,74	-0,9965	152,32	150,12	-0,00663	
15,76	-0,9965	152,31	150,13	-0,00654	
15,78	-0,9965	152,26	150,13	-0,00646	
15,80	-0,9965	152,19	150,12	-0,00647	
15,82	-0,9965	152,17	150,12	-0,00650	
15,84	-0,9965	152,25	150,13	-0,00665	
15,86	-0,9965	152,26	150,12	-0,00675	
15,88	-0,9965	152,22	150,12	-0,00676	
15,90	-0,9965	152,26	150,13	-0,00669	
15,92	-0,9965	152,29	150,13	-0,00665	
15,94	-0,9965	152,27	150,13	-0,00660	
15,96	-0,9965	152,27	150,13	-0,00652	
15,98	-0,9965	152,24	150,13	-0,00650	
16,00	-0,9965	152,16	150,12	-0,00660	
16,02	-0,9965	152,11	150,12	-0,00670	
16,04	-0,9965	152,16	150,12	-0,00674	
16,06	-0,9965	152,24	150,13	-0,00668	
16,08	-0,9965	152,25	150,12	-0,00663	
16,10	-0,9965	152,25	150,12	-0,00657	
16,12	-0,9965	152,20	150,12	-0,00651	
16,14	-0,9965	152,14	150,13	-0,00646	
16,16	-0,9965	152,10	150,12	-0,00646	
16,18	-0,9965	152,15	150,12	-0,00664	
16,20	-0,9965	152,19	150,12	-0,00678	
16,22	-0,9965	152,24	150,13	-0,00675	
16,24	-0,9965	152,22	150,12	-0,00667	
16,26	-0,9965	152,28	150,12	-0,00660	
16,28	-0,9965	152,32	150,13	-0,00650	
16,30	-0,9965	152,31	150,13	-0,00642	
16,32	-0,9965	152,31	150,12	-0,00646	
16,34	-0,9965	152,29	150,12	-0,00658	
16,36	-0,9965	152,30	150,13	-0,00672	
16,38	-0,9965	152,27	150,12	-0,00676	
16,40	-0,9965	152,25	150,12	-0,00669	
16,42	-0,9965	152,25	150,12	-0,00655	
16,44	-0,9965	152,25	150,13	-0,00647	
16,46	-0,9965	152,23	150,12	-0,00642	
16,48	-0,9965	152,20	150,12	-0,00637	
16,50	-0,9965	152,26	150,13	-0,00645	
16,52	-0,9965	152,29	150,12	-0,00659	
16,54	-0,9965	152,30	150,12	-0,00670	
16,56	-0,9965	152,34	150,12	-0,00681	
16,58	-0,9965	152,36	150,12	-0,00682	
16,60	-0,9965	152,35	150,13	-0,00671	
16,62	-0,9965	152,28	150,12	-0,00650	
16,64	-0,9965	152,25	150,12	-0,00642	
16,66	-0,9965	152,23	150,12	-0,00649	
16,68	-0,9965	152,26	150,13	-0,00663	
16,70	-0,9965	152,29	150,12	-0,00673	
16,72	-0,9965	152,24	150,13	-0,00676	
16,74	-0,9965	152,18	150,13	-0,00675	
16,76	-0,9965	152,12	150,12	-0,00669	
16,78	-0,9965	152,18	150,12	-0,00659	
16,80	-0,9965	152,26	150,12	-0,00650	
16,82	-0,9965	152,24	150,13	-0,00653	
16,84	-0,9965	152,17	150,12	-0,00668	
16,86	-0,9965	152,18	150,12	-0,00679	
16,88	-0,9965	152,22	150,12	-0,00672	
16,90	-0,9965	152,24	150,13	-0,00663	
16,92	-0,9965	152,20	150,12	-0,00653	
16,94	-0,9965	152,18	150,12	-0,00645	
16,96	-0,9965	152,25	150,13	-0,00643	
16,98	-0,9965	152,28	150,13	-0,00643	
17,00	-0,9965	152,31	150,12	-0,00655	
17,02	-0,9965	152,30	150,12	-0,00667	
17,04	-0,9965	152,28	150,12	-0,00671	
17,06	-0,9965	152,20	150,12	-0,00669	
17,08	-0,9965	152,17	150,12	-0,00660	
17,10	-0,9965	152,19	150,12	-0,00653	
17,12	-0,9965	152,22	150,12	-0,00648	
17,14	-0,9965	152,27	150,12	-0,00652	
17,16	-0,9965	152,26	150,12	-0,00660	
17,18	-0,9965	152,22	150,12	-0,00673	
17,20	-0,9965	152,20	150,12	-0,00681	
17,22	-0,9965	152,15	150,12	-0,00678	
17,24	-0,9965	152,15	150,12	-0,00664	
17,26	-0,9965	152,14	150,12	-0,00653	
17,28	-0,9965	152,17	150,12	-0,00648	
17,30	-0,9965	152,20	150,12	-0,00651	
17,32	-0,9965	152,26	150,12	-0,00662	
17,34	-0,9965	152,31	150,12	-0,00679	
17,36	-0,9965	152,27	150,12	-0,00686	
17,38	-0,9965	152,30	150,13	-0,00684	
17,40	-0,9965	152,33	150,12	-0,00674	
17,42	-0,9965	152,32	150,13	-0,00662	
17,44	-0,9965	152,32	150,13	-0,00654	
17,46	-0,9965	152,32	150,12	-0,00650	
17,48	-0,9965	152,35	150,12	-0,00655	
17,50	-0,9965	152,34	150,12	-0,00668	
17,52	-0,9965	152,29	150,12	-0,00674	
17,54	-0,9965	152,25	150,12	-0,00675	
17,56	-0,9965	152,21	150,12	-0,00672	
17,58	-0,9965	152,26	150,12	-0,00664	
17,60	-0,9965	152,29	150,12	-0,00656	
17,62	-0,9965	152,29	150,12	-0,00651	
17,64	-0,9965	152,24	150,12	-0,00649	
17,66	-0,9965	152,16	150,12	-0,00655	
17,68	-0,9965	152,11	150,12	-0,00667	
17,70	-0,9965	152,10	150,12	-0,00671	
17,72	-0,9965	152,11	150,12	-0,00664	
17,74	-0,9965	152,10	150,12	-0,00658	
17,76	-0,9965	152,10	150,12	-0,00663	
17,78	-0,9965	152,03	150,13	-0,00663	
17,80	-0,9965	151,99	150,12	-0,00657	
17,82	-0,9965	152,03	150,12	-0,00654	
17,84	-0,9965	152,06	150,12	-0,00663	
17,86	-0,9965	152,07	150,12	-0,00671	
17,88	-0,9965	152,13	150,12	-0,00668	
17,90	-0,9965	152,20	150,12	-0,00665	
17,92	-0,9965	152,27	150,12	-0,00659	
17,94	-0,9965	152,33	150,13	-0,00652	
17,96	-0,9965	152,25	150,12	-0,00649	
17,98	-0,9965	152,15	150,12	-0,00652	
18,00	-0,9965	152,12	150,12	-0,00660	
18,02	-0,9965	152,18	150,12	-0,00666	
18,04	-0,9965	152,26	150,12	-0,00674	
18,06	-0,9965	152,32	150,12	-0,00668	
18,08	-0,9965	152,34	150,12	-0,00654	
18,10	-0,9965	152,36	150,12	-0,00645	
18,12	-0,9965	152,35	150,12	-0,00645	
18,14	-0,9965	152,29	150,12	-0,00652	
18,16	-0,9965	152,27	150,12	-0,00666	
18,18	-0,9965	152,28	150,12	-0,00676	
18,20	-0,9965	152,30	150,12	-0,00677	
18,22	-0,9965	152,21	150,12	-0,00668	
18,24	-0,9965	152,10	150,11	-0,00660	
18,26	-0,9965	152,08	150,12	-0,00654	
18,28	-0,9965	152,14	150,13	-0,00652	
18,30	-0,9965	152,22	150,12	-0,00654	
18,32	-0,9965	152,23	150,12	-0,00667	
18,34	-0,9965	152,25	150,12	-0,00678	
18,36	-0,9965	152,28	150,12	-0,00677	
18,38	-0,9965	152,33	150,12	-0,00676	
18,40	-0,9965	152,31	150,12	-0,00671	
18,42	-0,9965	152,24	150,12	-0,00658	
18,44	-0,9965	152,22	150,13	-0,00647	
18,46	-0,9965	152,23	150,12	-0,00647	
18,48	-0,9965	152,22	150,12	-0,00622	
18,50	-0,9965	152,27	150,13	-0,00558	
18,52	-0,9965	152,34	150,13	-0,00515	
18,54	-0,9965	152,34	150,12	-0,00502	
18,56	-0,9965	152,39	150,12	-0,00498	
18,58	-0,9965	152,41	150,13	-0,00488	
18,60	-0,9965	152,31	150,12	-0,00485	
18,62	-0,9965	152,23	150,12	-0,00488	
18,64	-0,9965	152,26	150,12	-0,00495	
18,66	-0,9965	152,29	150,13	-0,00501	
18,68	-0,9965	152,24	150,12	-0,00508	
18,70	-0,9965	152,25	150,12	-0,00519	
18,72	-0,9965	152,25	150,12	-0,00577	
18,74	-0,9965	152,24	150,12	-0,00636	
18,76	-0,9965	152,28	150,12	-0,00652	
18,78	-0,9965	152,30	150,12	-0,00649	
18,80	-0,9965	152,22	150,12	-0,00650	
18,82	-0,9965	152,17	150,13	-0,00656	
18,84	-0,9965	152,14	150,12	-0,00665	
18,86	-0,9965	152,12	150,12	-0,00665	
18,88	-0,9965	152,18	150,12	-0,00659	
18,90	-0,9965	152,22	150,12	-0,00652	
18,92	-0,9965	152,18	150,12	-0,00649	
18,94	-0,9965	152,17	150,12	-0,00645	
18,96	-0,9965	152,17	150,12	-0,00647	
18,98	-0,9965	152,10	150,13	-0,00652	
19,00	-0,9965	152,10	150,12	-0,00663	
19,02	-0,9965	152,10	150,12	-0,00669	
19,04	-0,9965	152,10	150,12	-0,00671	
19,06	-0,9965	152,14	150,12	-0,00667	
19,08	-0,9965	152,19	150,12	-0,00654	
19,10	-0,9965	152,26	150,12	-0,00647	
19,12	-0,9965	152,27	150,12	-0,00645	
19,14	-0,9965	152,26	150,12	-0,00657	
19,16	-0,9965	152,23	150,12	-0,00670	
19,18	-0,9965	152,22	150,12	-0,00673	
19,20	-0,9965	152,24	150,12	-0,00669	
19,22	-0,9965	152,25	150,12	-0,00657	
19,24	-0,9965	152,26	150,12	-0,00645	
19,26	-0,9965	152,30	150,12	-0,00643	
19,28	-0,9965	152,35	150,12	-0,00648	
19,30	-0,9965	152,38	150,12	-0,00655	
19,32	-0,9965	152,38	150,12	-0,00660	
19,34	-0,9965	152,39	150,12	-0,00663	
19,36	-0,9965	152,42	150,12	-0,00663	
19,38	-0,9965	152,36	150,12	-0,00659	
19,40	-0,9965	152,29	150,12	-0,00653	
19,42	-0,9965	152,29	150,12	-0,00652	
19,44	-0,9965	152,33	150,12	-0,00645	
19,46	-0,9965	152,29	150,12	-0,00648	
19,48	-0,9965	152,29	150,12	-0,00664	
19,50	-0,9965	152,34	150,11	-0,00674	
19,52	-0,9965	152,30	150,12	-0,00672	
19,54	-0,9965	152,23	150,12	-0,00663	
19,56	-0,9965	152,21	150,12	-0,00656	
19,58	-0,9965	152,21	150,12	-0,00650	
19,60	-0,9965	152,20	150,12	-0,00642	
19,62	-0,9965	152,17	150,12	-0,00639	
19,64	-0,9965	152,16	150,12	-0,00652	
19,66	-0,9965	152,17	150,12	-0,00672	
19,68	-0,9965	152,19	150,12	-0,00682	
19,70	-0,9965	152,17	150,12	-0,00676	
19,72	-0,9965	152,18	150,12	-0,00663	
19,74	-0,9965	152,22	150,12	-0,00647	
19,76	-0,9965	152,25	150,12	-0,00645	
19,78	-0,9965	152,27	150,12	-0,00659	
19,80	-0,9965	152,25	150,12	-0,00670	
19,82	-0,9965	152,27	150,12	-0,00676	
19,84	-0,9965	152,27	150,12	-0,00679	
19,86	-0,9965	152,25	150,12	-0,00676	
19,88	-0,9965	152,22	150,12	-0,00670	
19,90	-0,9965	152,17	150,12	-0,00656	
19,92	-0,9965	152,15	150,12	-0,00641	
19,94	-0,9965	152,19	150,12	-0,00635	
19,96	-0,9965	152,17	150,13	-0,00647	
19,98	-0,9965	152,12	150,13	-0,00663	
20,00	-0,9965	152,15	150,12	-0,00667	
20,02	-0,9965	152,23	150,12	-0,00658	
20,04	-0,9965	152,21	150,12	-0,00649	
20,06	-0,9971	155,47	150,22	-0,00663	
20,08	-0,9966	142,73	150,15	-0,00790	
20,10	-0,9961	98,65	150,06	-0,00846	
20,12	-0,9963	52,37	150,09	-0,00819	
20,14	-0,9963	18,34	150,11	-0,00796	
20,16	-0,9940	0,3877	150,12	-0,00784	
20,18	-0,9875	6,059	150,13	-0,00778	
20,20	-0,9794	50,56	150,13	-0,00775	
20,22	-0,9733	104,09	150,12	-0,00764	
20,24	-0,9701	145,88	150,12	-0,00750	
20,26	-0,9692	169,22	150,13	-0,00744	
20,28	-0,9696	177,27	150,12	-0,00748	
20,30	-0,9707	176,07	150,12	-0,00758	
20,32	-0,9719	170,62	150,12	-0,00773	
20,34	-0,9729	164,08	150,12	-0,00772	
20,36	-0,9735	158,26	150,13	-0,00770	
20,38	-0,9738	154,20	150,12	-0,00760	
20,40	-0,9742	151,54	150,12	-0,00741	
20,42	-0,9743	149,72	150,13	-0,00732	
20,44	-0,9743	148,95	150,13	-0,00735	
20,46	-0,9741	148,80	150,12	-0,00758	
20,48	-0,9738	148,89	150,12	-0,00758	
20,50	-0,9737	149,50	150,13	-0,00758	
20,52	-0,9737	149,58	150,12	-0,00751	
20,54	-0,9737	150,04	150,12	-0,00741	
20,56	-0,9737	151,31	150,12	-0,00730	
20,58	-0,9737	152,07	150,13	-0,00721	
20,60	-0,9737	152,25	150,12	-0,00727	
20,62	-0,9737	152,28	150,12	-0,00739	
20,64	-0,9737	152,28	150,12	-0,00751	
20,66	-0,9737	152,27	150,12	-0,00754	
20,68	-0,9737	152,27	150,13	-0,00745	
20,70	-0,9737	152,27	150,12	-0,00737	
20,72	-0,9737	152,29	150,12	-0,00729	
20,74	-0,9737	152,65	150,13	-0,00722	
20,76	-0,9737	153,12	150,12	-0,00727	
20,78	-0,9738	152,78	150,12	-0,00742	
20,80	-0,9741	153,28	150,12	-0,00755	
20,82	-0,9743	153,76	150,12	-0,00753	
20,84	-0,9743	153,10	150,12	-0,00745	
20,86	-0,9743	152,59	150,12	-0,00734	
20,88	-0,9743	152,48	150,13	-0,00725	
20,90	-0,9743	152,47	150,13	-0,00717	
20,92	-0,9743	152,43	150,12	-0,00720	
20,94	-0,9743	152,24	150,12	-0,00737	
20,96	-0,9743	152,11	150,13	-0,00748	
20,98	-0,9743	152,13	150,13	-0,00752	
21,00	-0,9743	152,18	150,12	-0,00746	
21,02	-0,9743	152,17	150,12	-0,00735	
21,04	-0,9743	152,21	150,12	-0,00719	
21,06	-0,9745	152,24	150,13	-0,00711	
21,08	-0,9748	152,20	150,12	-0,00714	
21,10	-0,9750	152,23	150,13	-0,00727	
21,12	-0,9750	152,21	150,13	-0,00742	
21,14	-0,9750	152,20	150,12	-0,00742	
21,16	-0,9750	152,22	150,12	-0,00736	
21,18	-0,9750	152,25	150,12	-0,00733	
21,20	-0,9750	152,22	150,13	-0,00726	
21,22	-0,9750	152,27	150,12	-0,00716	
21,24	-0,9750	152,29	150,12	-0,00713	
21,26	-0,9750	152,31	150,13	-0,00730	
21,28	-0,9750	152,39	150,13	-0,00747	
21,30	-0,9750	152,35	150,12	-0,00750	
21,32	-0,9750	152,24	150,12	-0,00744	
21,34	-0,9750	152,24	150,13	-0,00738	
21,36	-0,9750	152,26	150,12	-0,00734	
21,38	-0,9750	152,29	150,12	-0,00725	
21,40	-0,9750	152,34	150,12	-0,00727	
21,42	-0,9750	152,29	150,12	-0,00733	
21,44	-0,9750	152,22	150,12	-0,00741	
21,46	-0,9750	152,20	150,12	-0,00748	
21,48	-0,9750	152,17	150,12	-0,00751	
21,50	-0,9750	152,18	150,12	-0,00742	
21,52	-0,9750	152,33	150,12	-0,00727	
21,54	-0,9750	152,39	150,12	-0,00715	
21,56	-0,9750	152,33	150,12	-0,00712	
21,58	-0,9750	152,35	150,12	-0,00722	
21,60	-0,9750	152,35	150,12	-0,00738	
21,62	-0,9750	152,28	150,12	-0,00752	
21,64	-0,9750	152,29	150,12	-0,00751	
21,66	-0,9750	152,31	150,12	-0,00734	
21,68	-0,9750	152,22	150,12	-0,00730	
21,70	-0,9750	152,21	150,12	-0,00725	
21,72	-0,9750	152,22	150,12	-0,00720	
21,74	-0,9750	152,23	150,12	-0,00727	
21,76	-0,9750	152,27	150,12	-0,00737	
21,78	-0,9750	152,23	150,12	-0,00738	
21,80	-0,9750	152,21	150,12	-0,00739	
21,82	-0,9750	152,23	150,13	-0,00743	
21,84	-0,9752	152,24	150,12	-0,00745	
21,86	-0,9755	152,25	150,12	-0,00736	
21,88	-0,9757	152,30	150,13	-0,00720	
21,90	-0,9757	152,28	150,13	-0,00718	
21,92	-0,9757	152,25	150,12	-0,00731	
21,94	-0,9757	152,28	150,12	-0,00739	
21,96	-0,9757	152,26	150,12	-0,00747	
21,98	-0,9757	152,20	150,12	-0,00741	
22,00	-0,9757	152,17	150,12	-0,00734	
22,02	-0,9757	152,16	150,12	-0,00726	
22,04	-0,9757	152,23	150,12	-0,00719	
22,06	-0,9757	152,35	150,12	-0,00718	
22,08	-0,9757	152,35	150,12	-0,00727	
22,10	-0,9757	152,29	150,12	-0,00742	
22,12	-0,9757	152,32	150,13	-0,00748	
22,14	-0,9757	152,34	150,12	-0,00743	
22,16	-0,9757	152,30	150,12	-0,00730	
22,18	-0,9757	152,29	150,12	-0,00721	
22,20	-0,9757	152,26	150,12	-0,00715	
22,22	-0,9757	152,28	150,12	-0,00721	
22,24	-0,9757	152,28	150,12	-0,00724	
22,26	-0,9757	152,20	150,12	-0,00726	
22,28	-0,9757	152,18	150,12	-0,00731	
22,30	-0,9757	152,28	150,12	-0,00737	
22,32	-0,9757	152,33	150,12	-0,00735	
22,34	-0,9757	152,32	150,12	-0,00729	
22,36	-0,9757	152,34	150,12	-0,00720	
22,38	-0,9757	152,32	150,12	-0,00716	
22,40	-0,9757	152,25	150,12	-0,00716	
22,42	-0,9757	152,22	150,12	-0,00727	
22,44	-0,9757	152,22	150,13	-0,00741	
22,46	-0,9757	152,27	150,12	-0,00745	
22,48	-0,9757	152,33	150,12	-0,00746	
22,50	-0,9757	152,31	150,12	-0,00740	
22,52	-0,9757	152,30	150,12	-0,00723	
22,54	-0,9757	152,32	150,12	-0,00710	
22,56	-0,9757	152,24	150,12	-0,00707	
22,58	-0,9757	152,19	150,12	-0,00712	
22,60	-0,9757	152,26	150,12	-0,00726	
22,62	-0,9759	152,28	150,13	-0,00739	
22,64	-0,9762	152,33	150,12	-0,00741	
22,66	-0,9763	152,47	150,12	-0,00734	
22,68	-0,9764	152,51	150,13	-0,00721	
22,70	-0,9764	152,38	150,13	-0,00711	
22,72	-0,9764	152,29	150,12	-0,00707	
22,74	-0,9764	152,25	150,12	-0,00707	
22,76	-0,9764	152,17	150,13	-0,00720	
22,78	-0,9764	152,20	150,12	-0,00734	
22,80	-0,9764	152,28	150,12	-0,00734	
22,82	-0,9764	152,33	150,12	-0,00730	
22,84	-0,9764	152,34	150,12	-0,00722	
22,86	-0,9764	152,35	150,12	-0,00712	
22,88	-0,9764	152,35	150,12	-0,00709	
22,90	-0,9764	152,37	150,12	-0,00716	
22,92	-0,9764	152,33	150,13	-0,00721	
22,94	-0,9764	152,29	150,12	-0,00726	
22,96	-0,9764	152,32	150,12	-0,00729	
22,98	-0,9764	152,33	150,12	-0,00731	
23,00	-0,9764	152,35	150,12	-0,00734	
23,02	-0,9764	152,39	150,12	-0,00727	
23,04	-0,9764	152,36	150,12	-0,00711	
23,06	-0,9764	152,34	150,12	-0,00701	
23,08	-0,9764	152,39	150,12	-0,00704	
23,10	-0,9764	152,41	150,12	-0,00719	
23,12	-0,9764	152,44	150,12	-0,00733	
23,14	-0,9764	152,45	150,12	-0,00729	
23,16	-0,9764	152,29	150,13	-0,00723	
23,18	-0,9764	152,22	150,12	-0,00719	
23,20	-0,9764	152,28	150,12	-0,00709	
23,22	-0,9763	152,26	150,13	-0,00701	
23,24	-0,9763	152,19	150,13	-0,00701	
23,26	-0,9763	152,28	150,12	-0,00716	
23,28	-0,9763	152,35	150,13	-0,00727	
23,30	-0,9763	152,33	150,13	-0,00732	
23,32	-0,9763	152,36	150,12	-0,00730	
23,34	-0,9763	152,38	150,12	-0,00720	
23,36	-0,9764	152,34	150,13	-0,00707	
23,38	-0,9764	152,31	150,13	-0,00699	
23,40	-0,9763	152,28	150,12	-0,00705	
23,42	-0,9763	152,27	150,12	-0,00720	
23,44	-0,9764	152,36	150,13	-0,00729	
23,46	-0,9764	152,41	150,13	-0,00739	
23,48	-0,9764	152,41	150,12	-0,00737	
23,50	-0,9764	152,43	150,13	-0,00731	
23,52	-0,9765	152,40	150,13	-0,00720	
23,54	-0,9768	152,38	150,12	-0,00710	
23,56	-0,9770	152,39	150,12	-0,00715	
23,58	-0,9770	152,30	150,13	-0,00724	
23,60	-0,9770	152,26	150,13	-0,00730	
23,62	-0,9770	152,37	150,12	-0,00736	
23,64	-0,9770	152,32	150,13	-0,00738	
23,66	-0,9770	152,29	150,13	-0,00730	
23,68	-0,9770	152,35	150,13	-0,00717	
23,70	-0,9770	152,30	150,12	-0,00711	
23,72	-0,9770	152,25	150,13	-0,00707	
23,74	-0,9770	152,28	150,13	-0,00712	
23,76	-0,9770	152,36	150,12	-0,00721	
23,78	-0,9770	152,34	150,12	-0,00736	
23,80	-0,9770	152,34	150,12	-0,00735	
23,82	-0,9770	152,28	150,13	-0,00731	
23,84	-0,9770	152,26	150,12	-0,00727	
23,86	-0,9770	152,36	150,12	-0,00714	
23,88	-0,9770	152,34	150,13	-0,00706	
23,90	-0,9770	152,30	150,13	-0,00716	
23,92	-0,9770	152,35	150,12	-0,00729	
23,94	-0,9770	152,32	150,13	-0,00737	
23,96	-0,9770	152,27	150,13	-0,00742	
23,98	-0,9770	152,25	150,12	-0,00743	
24,00	-0,9770	152,21	150,12	-0,00732	
24,02	-0,9770	152,18	150,12	-0,00716	
24,04	-0,9770	152,22	150,12	-0,00704	
24,06	-0,9770	152,24	150,12	-0,00705	
24,08	-0,9770	152,23	150,12	-0,00717	
24,10	-0,9770	152,27	150,12	-0,00730	
24,12	-0,9770	152,30	150,13	-0,00735	
24,14	-0,9770	152,31	150,12	-0,00733	
24,16	-0,9770	152,34	150,12	-0,00723	
24,18	-0,9770	152,29	150,13	-0,00710	
24,20	-0,9770	152,27	150,12	-0,00702	
24,22	-0,9770	152,32	150,12	-0,00694	
24,24	-0,9770	152,30	150,12	-0,00703	
24,26	-0,9770	152,28	150,13	-0,00723	
24,28	-0,9770	152,29	150,12	-0,00731	
24,30	-0,9770	152,31	150,12	-0,00728	
24,32	-0,9770	152,32	150,12	-0,00724	
24,34	-0,9770	152,39	150,13	-0,00724	
24,36	-0,9770	152,35	150,13	-0,00711	
24,38	-0,9770	152,33	150,12	-0,00704	
24,40	-0,9770	152,37	150,12	-0,00713	
24,42	-0,9770	152,32	150,13	-0,00727	
24,44	-0,9770	152,29	150,12	-0,00732	
24,46	-0,9770	152,33	150,12	-0,00726	
24,48	-0,9770	152,33	150,13	-0,00719	
24,50	-0,9770	152,27	150,13	-0,00714	
24,52	-0,9770	152,32	150,12	-0,00714	
24,54	-0,9770	152,33	150,12	-0,00714	
24,56	-0,9770	152,29	150,13	-0,00714	
24,58	-0,9770	152,32	150,13	-0,00725	
24,60	-0,9770	152,30	150,12	-0,00734	
24,62	-0,9770	152,32	150,12	-0,00739	
24,64	-0,9770	152,40	150,12	-0,00734	
24,66	-0,9770	152,39	150,12	-0,00719	
24,68	-0,9770	152,32	150,12	-0,00712	
24,70	-0,9770	152,34	150,13	-0,00709	
24,72	-0,9772	152,36	150,13	-0,00713	
24,74	-0,9775	152,25	150,12	-0,00724	
24,76	-0,9777	152,26	150,12	-0,00735	
24,78	-0,9777	152,24	150,12	-0,00739	
24,80	-0,9777	152,17	150,13	-0,00736	
24,82	-0,9777	152,20	150,12	-0,00727	
24,84	-0,9777	152,32	150,12	-0,00719	
24,86	-0,9777	152,39	150,13	-0,00718	
24,88	-0,9777	152,37	150,13	-0,00716	
24,90	-0,9777	152,30	150,12	-0,00715	
24,92	-0,9777	152,24	150,12	-0,00724	
24,94	-0,9777	152,27	150,13	-0,00730	
24,96	-0,9777	152,22	150,12	-0,00727	
24,98	-0,9777	152,21	150,12	-0,00717	
25,00	-0,9777	152,28	150,12	-0,00706	
25,02	-0,9777	152,34	150,13	-0,00704	
25,04	-0,9777	152,31	150,12	-0,00709	
25,06	-0,9777	152,31	150,12	-0,00712	
25,08	-0,9777	152,29	150,12	-0,00725	
25,10	-0,9777	152,24	150,12	-0,00737	
25,12	-0,9777	152,30	150,12	-0,00736	
25,14	-0,9777	152,32	150,12	-0,00723	
25,16	-0,9777	152,30	150,13	-0,00714	
25,18	-0,9777	152,32	150,12	-0,00707	
25,20	-0,9777	152,26	150,12	-0,00706	
25,22	-0,9777	152,27	150,12	-0,00712	
25,24	-0,9777	152,29	150,13	-0,00719	
25,26	-0,9777	152,25	150,12	-0,00731	
25,28	-0,9777	152,23	150,12	-0,00739	
25,30	-0,9777	152,28	150,12	-0,00734	
25,32	-0,9777	152,30	150,13	-0,00719	
25,34	-0,9777	152,31	150,13	-0,00711	
25,36	-0,9777	152,37	150,12	-0,00707	
25,38	-0,9777	152,35	150,12	-0,00709	
25,40	-0,9777	152,34	150,13	-0,00713	
25,42	-0,9777	152,34	150,12	-0,00723	
25,44	-0,9777	152,26	150,12	-0,00734	
25,46	-0,9777	152,20	150,12	-0,00732	
25,48	-0,9777	152,23	150,13	-0,00723	
25,50	-0,9777	152,26	150,12	-0,00718	
25,52	-0,9777	152,26	150,12	-0,00716	
25,54	-0,9777	152,35	150,12	-0,00719	
25,56	-0,9777	152,33	150,13	-0,00723	
25,58	-0,9777	152,26	150,12	-0,00728	
25,60	-0,9777	152,28	150,12	-0,00732	
25,62	-0,9777	152,20	150,12	-0,00727	
25,64	-0,9777	152,13	150,12	-0,00719	
25,66	-0,9777	152,23	150,12	-0,00710	
25,68	-0,9777	152,27	150,12	-0,00701	
25,70	-0,9777	152,26	150,12	-0,00699	
25,72	-0,9777	152,29	150,13	-0,00715	
25,74	-0,9777	152,34	150,12	-0,00734	
25,76	-0,9777	152,40	150,12	-0,00744	
25,78	-0,9777	152,45	150,13	-0,00733	
25,80	-0,9777	152,43	150,13	-0,00718	
25,82	-0,9777	152,39	150,12	-0,00712	
25,84	-0,9777	152,35	150,12	-0,00712	
25,86	-0,9777	152,35	150,13	-0,00709	
25,88	-0,9777	152,33	150,13	-0,00714	
25,90	-0,9777	152,39	150,12	-0,00719	
25,92	-0,9777	152,42	150,12	-0,00725	
25,94	-0,9777	152,31	150,13	-0,00732	
25,96	-0,9777	152,24	150,13	-0,00735	
25,98	-0,9777	152,21	150,12	-0,00726	
26,00	-0,9777	152,26	150,12	-0,00708	
26,02	-0,9777	152,34	150,12	-0,00705	
26,04	-0,9777	152,33	150,12	-0,00708	
26,06	-0,9777	152,24	150,12	-0,00713	
26,08	-0,9777	152,22	150,12	-0,00728	
26,10	-0,9779	152,25	150,13	-0,00736	
26,12	-0,9781	152,25	150,13	-0,00738	
26,14	-0,9783	152,30	150,12	-0,00725	
26,16	-0,9784	152,26	150,12	-0,00707	
26,18	-0,9784	152,22	150,13	-0,00707	
26,20	-0,9784	152,25	150,12	-0,00713	
26,22	-0,9784	152,26	150,12	-0,00721	
26,24	-0,9784	152,24	150,12	-0,00730	
26,26	-0,9784	152,26	150,13	-0,00741	
26,28	-0,9784	152,32	150,12	-0,00744	
26,30	-0,9784	152,32	150,12	-0,00733	
26,32	-0,9784	152,28	150,12	-0,00721	
26,34	-0,9784	152,18	150,12	-0,00720	
26,36	-0,9784	152,21	150,12	-0,00717	
26,38	-0,9784	152,29	150,12	-0,00715	
26,40	-0,9784	152,19	150,12	-0,00726	
26,42	-0,9784	152,13	150,12	-0,00737	
26,44	-0,9784	152,15	150,12	-0,00735	
26,46	-0,9784	152,18	150,12	-0,00724	
26,48	-0,9784	152,18	150,12	-0,00716	
26,50	-0,9784	152,17	150,13	-0,00712	
26,52	-0,9784	152,12	150,12	-0,00711	
26,54	-0,9784	152,16	150,12	-0,00712	
26,56	-0,9784	152,27	150,13	-0,00726	
26,58	-0,9784	152,25	150,12	-0,00737	
26,60	-0,9784	152,18	150,12	-0,00734	
26,62	-0,9784	152,23	150,12	-0,00721	
26,64	-0,9784	152,34	150,13	-0,00712	
26,66	-0,9784	152,36	150,12	-0,00709	
26,68	-0,9784	152,42	150,12	-0,00710	
26,70	-0,9784	152,40	150,13	-0,00716	
26,72	-0,9784	152,33	150,13	-0,00719	
26,74	-0,9784	152,33	150,12	-0,00726	
26,76	-0,9784	152,25	150,12	-0,00730	
26,78	-0,9783	152,18	150,12	-0,00727	
26,80	-0,9784	152,22	150,13	-0,00718	
26,82	-0,9784	152,25	150,12	-0,00709	
26,84	-0,9784	152,35	150,12	-0,00699	
26,86	-0,9784	152,41	150,13	-0,00696	
26,88	-0,9784	152,31	150,12	-0,00709	
26,90	-0,9783	152,24	150,12	-0,00731	
26,92	-0,9783	152,28	150,12	-0,00744	
26,94	-0,9784	152,36	150,13	-0,00737	
26,96	-0,9784	152,39	150,13	-0,00731	
26,98	-0,9784	152,38	150,13	-0,00726	
27,00	-0,9784	152,42	150,13	-0,00718	
27,02	-0,9784	152,37	150,13	-0,00707	
27,04	-0,9784	152,37	150,12	-0,00703	
27,06	-0,9784	152,45	150,12	-0,00714	
27,08	-0,9784	152,39	150,12	-0,00732	
27,10	-0,9784	152,33	150,12	-0,00738	
27,12	-0,9784	152,28	150,12	-0,00734	
27,14	-0,9784	152,22	150,12	-0,00723	
27,16	-0,9784	152,29	150,12	-0,00714	
27,18	-0,9784	152,33	150,13	-0,00707	
27,20	-0,9784	152,40	150,12	-0,00709	
27,22	-0,9784	152,49	150,13	-0,00721	
27,24	-0,9784	152,53	150,13	-0,00731	
27,26	-0,9784	152,50	150,13	-0,00729	
27,28	-0,9784	152,52	150,13	-0,00718	
27,30	-0,9784	152,51	150,13	-0,00715	
27,32	-0,9784	152,46	150,13	-0,00712	
27,34	-0,9784	152,42	150,12	-0,00700	
27,36	-0,9784	152,39	150,12	-0,00694	
27,38	-0,9784	152,43	150,12	-0,00705	
27,40	-0,9784	152,41	150,12	-0,00731	
27,42	-0,9787	152,34	150,12	-0,00740	
27,44	-0,9789	152,34	150,12	-0,00735	
27,46	-0,9790	152,45	150,13	-0,00725	
27,48	-0,9790	152,47	150,12	-0,00713	
27,50	-0,9790	152,44	150,12	-0,00703	
27,52	-0,9790	152,48	150,12	-0,00700	
27,54	-0,9790	152,43	150,13	-0,00711	
27,56	-0,9790	152,33	150,12	-0,00725	
27,58	-0,9791	152,39	150,12	-0,00733	
27,60	-0,9791	152,45	150,12	-0,00731	
27,62	-0,9791	152,41	150,13	-0,00721	
27,64	-0,9791	152,46	150,12	-0,00710	
27,66	-0,9790	152,43	150,12	-0,00706	
27,68	-0,9790	152,41	150,12	-0,00704	
27,70	-0,9790	152,45	150,13	-0,00713	
27,72	-0,9791	152,38	150,12	-0,00726	
27,74	-0,9791	152,37	150,12	-0,00735	
27,76	-0,9791	152,38	150,12	-0,00742	
27,78	-0,9791	152,28	150,12	-0,00736	
27,80	-0,9790	152,25	150,12	-0,00727	
27,82	-0,9791	152,31	150,12	-0,00720	
27,84	-0,9791	152,35	150,13	-0,00715	
27,86	-0,9791	152,31	150,12	-0,00716	
27,88	-0,9791	152,33	150,12	-0,00725	
27,90	-0,9791	152,30	150,12	-0,00734	
27,92	-0,9791	152,17	150,13	-0,00731	
27,94	-0,9791	152,15	150,12	-0,00724	
27,96	-0,9790	152,19	150,12	-0,00715	
27,98	-0,9790	152,25	150,12	-0,00705	
28,00	-0,9790	152,30	150,12	-0,00695	
28,02	-0,9790	152,29	150,12	-0,00700	
28,04	-0,9790	152,27	150,12	-0,00717	
28,06	-0,9790	152,32	150,13	-0,00731	
28,08	-0,9790	152,24	150,13	-0,00734	
28,10	-0,9790	152,15	150,12	-0,00732	
28,12	-0,9790	152,25	150,12	-0,00723	
28,14	-0,9790	152,27	150,12	-0,00712	
28,16	-0,9790	152,18	150,12	-0,00708	
28,18	-0,9790	152,15	150,12	-0,00716	
28,20	-0,9790	152,12	150,12	-0,00728	
28,22	-0,9790	152,19	150,12	-0,00732	
28,24	-0,9790	152,25	150,13	-0,00729	
28,26	-0,9790	152,19	150,12	-0,00723	
28,28	-0,9790	152,17	150,12	-0,00713	
28,30	-0,9790	152,25	150,12	-0,00705	
28,32	-0,9791	152,33	150,13	-0,00707	
28,34	-0,9791	152,30	150,12	-0,00716	
28,36	-0,9791	152,30	150,12	-0,00731	
28,38	-0,9790	152,32	150,12	-0,00737	
28,40	-0,9790	152,31	150,13	-0,00739	
28,42	-0,9790	152,25	150,12	-0,00730	
28,44	-0,9790	152,20	150,12	-0,00716	
28,46	-0,9790	152,18	150,12	-0,00707	
28,48	-0,9790	152,22	150,12	-0,00703	
28,50	-0,9790	152,20	150,12	-0,00709	
28,52	-0,9790	152,19	150,12	-0,00719	
28,54	-0,9790	152,24	150,12	-0,00729	
28,56	-0,9790	152,22	150,13	-0,00735	
28,58	-0,9790	152,22	150,12	-0,00735	
28,60	-0,9790	152,22	150,12	-0,00722	
28,62	-0,9790	152,18	150,12	-0,00702	
28,64	-0,9790	152,19	150,12	-0,00698	
28,66	-0,9791	152,25	150,12	-0,00707	
28,68	-0,9790	152,24	150,12	-0,00724	
28,70	-0,9790	152,23	150,12	-0,00732	
28,72	-0,9791	152,25	150,12	-0,00732	
28,74	-0,9792	152,27	150,12	-0,00727	
28,76	-0,9795	152,27	150,12	-0,00719	
28,78	-0,9797	152,33	150,13	-0,00711	
28,80	-0,9797	152,37	150,13	-0,00696	
28,82	-0,9797	152,34	150,12	-0,00690	
28,84	-0,9797	152,31	150,12	-0,00702	
28,86	-0,9797	152,26	150,12	-0,00715	
28,88	-0,9797	152,19	150,12	-0,00718	
28,90	-0,9797	152,24	150,12	-0,00715	
28,92	-0,9797	152,24	150,12	-0,00706	
28,94	-0,9797	152,21	150,13	-0,00697	
28,96	-0,9797	152,23	150,13	-0,00699	
28,98	-0,9797	152,23	150,12	-0,00710	
29,00	-0,9797	152,29	150,12	-0,00721	
29,02	-0,9797	152,32	150,12	-0,00733	
29,04	-0,9797	152,28	150,12	-0,00738	
29,06	-0,9797	152,30	150,12	-0,00727	
29,08	-0,9797	152,38	150,12	-0,00714	
29,10	-0,9797	152,39	150,12	-0,00707	
29,12	-0,9797	152,35	150,12	-0,00704	
29,14	-0,9797	152,32	150,12	-0,00709	
29,16	-0,9797	152,30	150,12	-0,00721	
29,18	-0,9797	152,28	150,13	-0,00731	
29,20	-0,9797	152,26	150,12	-0,00733	
29,22	-0,9797	152,22	150,12	-0,00721	
29,24	-0,9797	152,21	150,12	-0,00707	
29,26	-0,9797	152,27	150,13	-0,00704	
29,28	-0,9797	152,28	150,12	-0,00700	
29,30	-0,9797	152,26	150,12	-0,00709	
29,32	-0,9797	152,33	150,13	-0,00722	
29,34	-0,9797	152,39	150,13	-0,00730	
29,36	-0,9797	152,41	150,12	-0,00730	
29,38	-0,9797	152,43	150,12	-0,00723	
29,40	-0,9797	152,37	150,12	-0,00711	
29,42	-0,9797	152,30	150,12	-0,00700	
29,44	-0,9797	152,33	150,12	-0,00703	
29,46	-0,9797	152,36	150,12	-0,00715	
29,48	-0,9797	152,28	150,13	-0,00727	
29,50	-0,9797	152,20	150,12	-0,00729	
29,52	-0,9797	152,19	150,12	-0,00729	
29,54	-0,9797	152,19	150,12	-0,00729	
29,56	-0,9797	152,28	150,13	-0,00720	
29,58	-0,9797	152,32	150,12	-0,00709	
29,60	-0,9797	152,29	150,12	-0,00705	
29,62	-0,9797	152,34	150,13	-0,00703	
29,64	-0,9797	152,31	150,13	-0,00709	
29,66	-0,9797	152,32	150,12	-0,00726	
29,68	-0,9797	152,37	150,12	-0,00730	
29,70	-0,9797	152,38	150,12	-0,00724	
29,72	-0,9797	152,42	150,13	-0,00720	
29,74	-0,9797	152,47	150,12	-0,00712	
29,76	-0,9797	152,40	150,12	-0,00702	
29,78	-0,9797	152,29	150,12	-0,00703	
29,80	-0,9797	152,27	150,12	-0,00713	
29,82	-0,9798	152,28	150,12	-0,00725	
29,84	-0,9798	152,20	150,12	-0,00726	
29,86	-0,9798	152,22	150,12	-0,00728	
29,88	-0,9797	152,27	150,12	-0,00725	
29,90	-0,9797	152,27	150,12	-0,00714	
29,92	-0,9797	152,25	150,12	-0,00705	
29,94	-0,9797	152,25	150,13	-0,00702	
29,96	-0,9797	152,33	150,12	-0,00713	
29,98	-0,9797	152,34	150,12	-0,00730	
30,00	-0,9797	152,27	150,12	-0,00736	
30,02	-0,9797	152,25	150,12	-0,00735	
30,04	-0,9797	152,28	150,13	-0,00725	
30,06	-0,9797	152,21	150,12	-0,00709	
30,08	-0,9797	152,19	150,12	-0,00699	
30,10	-0,9797	152,30	150,12	-0,00699	
30,12	-0,9797	152,38	150,12	-0,00704	
30,14	-0,9797	152,35	150,12	-0,00717	
30,16	-0,9797	152,35	150,12	-0,00729	
30,18	-0,9797	152,31	150,12	-0,00724	
30,20	-0,9797	152,33	150,12	-0,00714	
30,22	-0,9797	152,40	150,12	-0,00706	
30,24	-0,9797	152,33	150,12	-0,00706	
30,26	-0,9800	152,30	150,12	-0,00704	
30,28	-0,9803	152,38	150,12	-0,00702	
30,30	-0,9804	152,38	150,12	-0,00710	
30,32	-0,9804	152,34	150,12	-0,00726	
30,34	-0,9804	152,35	150,12	-0,00731	
30,36	-0,9804	152,41	150,13	-0,00727	
30,38	-0,9804	152,50	150,12	-0,00713	
30,40	-0,9804	152,47	150,12	-0,00707	
30,42	-0,9804	152,38	150,13	-0,00707	
30,44	-0,9804	152,33	150,12	-0,00708	
30,46	-0,9804	152,38	150,12	-0,00718	
30,48	-0,9804	152,40	150,12	-0,00733	
30,50	-0,9804	152,30	150,13	-0,00741	
30,52	-0,9804	152,33	150,13	-0,00735	
30,54	-0,9804	152,42	150,12	-0,00721	
30,56	-0,9804	152,46	150,12	-0,00714	
30,58	-0,9804	152,47	150,13	-0,00710	
30,60	-0,9804	152,39	150,12	-0,00708	
30,62	-0,9804	152,35	150,12	-0,00714	
30,64	-0,9804	152,37	150,12	-0,00726	
30,66	-0,9804	152,36	150,13	-0,00727	
30,68	-0,9804	152,39	150,12	-0,00720	
30,70	-0,9804	152,38	150,12	-0,00711	
30,72	-0,9804	152,28	150,12	-0,00706	
30,74	-0,9804	152,26	150,12	-0,00704	
30,76	-0,9804	152,33	150,12	-0,00706	
30,78	-0,9804	152,37	150,12	-0,00715	
30,80	-0,9804	152,36	150,12	-0,00727	
30,82	-0,9804	152,35	150,13	-0,00730	
30,84	-0,9804	152,30	150,12	-0,00726	
30,86	-0,9804	152,32	150,12	-0,00714	
30,88	-0,9804	152,40	150,13	-0,00706	
30,90	-0,9804	152,43	150,12	-0,00707	
30,92	-0,9804	152,46	150,12	-0,00706	
30,94	-0,9804	152,47	150,13	-0,00712	
30,96	-0,9804	152,42	150,13	-0,00721	
30,98	-0,9804	152,43	150,12	-0,00726	
31,00	-0,9804	152,48	150,12	-0,00730	
31,02	-0,9804	152,42	150,12	-0,00725	
31,04	-0,9804	152,36	150,12	-0,00711	
31,06	-0,9804	152,38	150,12	-0,00702	
31,08	-0,9804	152,40	150,12	-0,00702	
31,10	-0,9804	152,35	150,12	-0,00705	
31,12	-0,9804	152,36	150,12	-0,00713	
31,14	-0,9804	152,30	150,12	-0,00726	
31,16	-0,9804	152,28	150,12	-0,00736	
31,18	-0,9804	152,37	150,12	-0,00735	
31,20	-0,9804	152,41	150,12	-0,00726	
31,22	-0,9804	152,41	150,12	-0,00714	
31,24	-0,9804	152,42	150,12	-0,00709	
31,26	-0,9804	152,36	150,12	-0,00707	
31,28	-0,9804	152,24	150,12	-0,00709	
31,30	-0,9804	152,24	150,12	-0,00718	
31,32	-0,9804	152,23	150,12	-0,00730	
31,34	-0,9804	152,22	150,12	-0,00734	
31,36	-0,9804	152,24	150,12	-0,00730	
31,38	-0,9804	152,23	150,13	-0,00720	
31,40	-0,9804	152,19	150,12	-0,00701	
31,42	-0,9804	152,19	150,12	-0,00690	
31,44	-0,9804	152,19	150,12	-0,00697	
31,46	-0,9804	152,23	150,12	-0,00716	
31,48	-0,9804	152,32	150,12	-0,00733	
31,50	-0,9804	152,38	150,12	-0,00735	
31,52	-0,9804	152,40	150,12	-0,00727	
31,54	-0,9804	152,36	150,12	-0,00718	
31,56	-0,9804	152,29	150,12	-0,00710	
31,58	-0,9804	152,32	150,12	-0,00705	
31,60	-0,9804	152,42	150,12	-0,00713	
31,62	-0,9804	152,37	150,12	-0,00722	
31,64	-0,9804	152,29	150,12	-0,00727	
31,66	-0,9804	152,30	150,12	-0,00728	
31,68	-0,9804	152,31	150,12	-0,00721	
31,70	-0,9804	152,34	150,12	-0,00714	
31,72	-0,9804	152,35	150,12	-0,00710	
31,74	-0,9804	152,32	150,12	-0,00704	
31,76	-0,9804	152,31	150,12	-0,00703	
31,78	-0,9804	152,32	150,12	-0,00711	
31,80	-0,9804	152,27	150,12	-0,00718	
31,82	-0,9807	152,21	150,12	-0,00721	
31,84	-0,9809	152,25	150,12	-0,00718	
31,86	-0,9810	152,28	150,12	-0,00709	
31,88	-0,9810	152,25	150,12	-0,00697	
31,90	-0,9810	152,30	150,12	-0,00690	
31,92	-0,9811	152,31	150,12	-0,00690	
31,94	-0,9811	152,27	150,13	-0,00705	
31,96	-0,9811	152,26	150,12	-0,00724	
31,98	-0,9810	152,25	150,12	-0,00729	
32,00	-0,9810	152,26	150,12	-0,00722	
32,02	-0,9811	152,27	150,12	-0,00712	
32,04	-0,9812	152,90	150,14	-0,00706	
32,06	-0,9813	152,14	150,15	-0,00720	
32,08	-0,9812	143,75	150,14	-0,00736	
32,10	-0,9811	130,61	150,12	-0,00747	
32,12	-0,9810	117,84	150,12	-0,00757	
32,14	-0,9806	106,28	150,12	-0,00773	
32,16	-0,9794	96,44	150,12	-0,00785	
32,18	-0,9777	92,49	150,12	-0,00786	
32,20	-0,9760	93,47	150,12	-0,00781	
32,22	-0,9743	94,73	150,12	-0,00771	
32,24	-0,9726	95,03	150,12	-0,00766	
32,26	-0,9709	95,16	150,12	-0,00757	
32,28	-0,9692	96,65	150,12	-0,00754	
32,30	-0,9676	99,54	150,13	-0,00767	
32,32	-0,9659	102,92	150,12	-0,00781	
32,34	-0,9642	106,13	150,12	-0,00783	
32,36	-0,9628	108,81	150,12	-0,00778	
32,38	-0,9614	110,90	150,13	-0,00769	
32,40	-0,9602	111,16	150,12	-0,00760	
32,42	-0,9592	109,87	150,12	-0,00756	
32,44	-0,9581	108,89	150,12	-0,00759	
32,46	-0,9568	108,60	150,12	-0,00766	
32,48	-0,9554	107,85	150,12	-0,00770	
32,50	-0,9541	106,31	150,12	-0,00774	
32,52	-0,9527	105,35	150,12	-0,00770	
32,54	-0,9514	105,13	150,13	-0,00764	
32,56	-0,9500	105,17	150,12	-0,00760	
32,58	-0,9487	105,45	150,12	-0,00755	
32,60	-0,9473	106,59	150,13	-0,00748	
32,62	-0,9460	106,66	150,12	-0,00753	
32,64	-0,9447	105,86	150,12	-0,00773	
32,66	-0,9433	105,36	150,12	-0,00789	
32,68	-0,9420	105,27	150,12	-0,00787	
32,70	-0,9406	105,33	150,12	-0,00778	
32,72	-0,9393	105,38	150,12	-0,00766	
32,74	-0,9380	105,37	150,12	-0,00754	
32,76	-0,9366	105,34	150,13	-0,00753	
32,78	-0,9353	105,31	150,13	-0,00760	
32,80	-0,9339	105,32	150,12	-0,00775	
32,82	-0,9326	105,32	150,12	-0,00786	
32,84	-0,9312	105,29	150,13	-0,00782	
32,86	-0,9299	105,28	150,12	-0,00778	
32,88	-0,9286	105,24	150,12	-0,00775	
32,90	-0,9272	105,24	150,13	-0,00763	
32,92	-0,9256	105,26	150,13	-0,00759	
32,94	-0,9240	105,23	150,12	-0,00753	
32,96	-0,9225	105,21	150,12	-0,00758	
32,98	-0,9211	105,27	150,12	-0,00770	
33,00	-0,9198	105,32	150,12	-0,00775	
33,02	-0,9185	105,31	150,12	-0,00773	
33,04	-0,9171	105,26	150,12	-0,00762	
33,06	-0,9158	105,22	150,13	-0,00756	
33,08	-0,9144	105,18	150,13	-0,00748	
33,10	-0,9131	105,10	150,12	-0,00744	
33,12	-0,9117	105,13	150,13	-0,00754	
33,14	-0,9104	104,98	150,13	-0,00767	
33,16	-0,9090	103,68	150,12	-0,00767	
33,18	-0,9076	102,39	150,12	-0,00758	
33,20	-0,9059	101,91	150,12	-0,00754	
33,22	-0,9044	101,86	150,13	-0,00753	
33,24	-0,9030	101,92	150,12	-0,00757	
33,26	-0,9017	101,96	150,12	-0,00757	
33,28	-0,9003	101,98	150,12	-0,00759	
33,30	-0,8988	102,01	150,13	-0,00772	
33,32	-0,8972	102,01	150,12	-0,00781	
33,34	-0,8957	102,08	150,12	-0,00777	
33,36	-0,8943	102,09	150,13	-0,00766	
33,38	-0,8929	102,03	150,13	-0,00753	
33,40	-0,8915	101,98	150,12	-0,00744	
33,42	-0,8898	101,95	150,12	-0,00746	
33,44	-0,8883	101,96	150,13	-0,00753	
33,46	-0,8869	102,02	150,13	-0,00766	
33,48	-0,8856	102,07	150,12	-0,00780	
33,50	-0,8842	102,09	150,12	-0,00777	
33,52	-0,8826	102,04	150,13	-0,00768	
33,54	-0,8810	102,03	150,12	-0,00763	
33,56	-0,8795	102,03	150,12	-0,00755	
33,58	-0,8782	102,07	150,12	-0,00750	
33,60	-0,8767	102,12	150,12	-0,00757	
33,62	-0,8750	102,16	150,12	-0,00770	
33,64	-0,8735	102,16	150,12	-0,00779	
33,66	-0,8721	102,09	150,12	-0,00778	
33,68	-0,8705	102,04	150,12	-0,00772	
33,70	-0,8689	101,99	150,12	-0,00769	
33,72	-0,8675	101,92	150,12	-0,00766	
33,74	-0,8660	101,94	150,12	-0,00755	
33,76	-0,8643	101,98	150,12	-0,00750	
33,78	-0,8628	101,95	150,12	-0,00754	
33,80	-0,8614	101,94	150,12	-0,00762	
33,82	-0,8598	101,97	150,12	-0,00772	
33,84	-0,8582	102,00	150,12	-0,00779	
33,86	-0,8568	101,76	150,12	-0,00769	
33,88	-0,8553	100,39	150,12	-0,00757	
33,90	-0,8536	99,55	150,12	-0,00753	
33,92	-0,8521	99,32	150,12	-0,00756	
33,94	-0,8505	98,83	150,12	-0,00755	
33,96	-0,8489	98,44	150,12	-0,00759	
33,98	-0,8474	98,36	150,12	-0,00769	
34,00	-0,8460	98,37	150,12	-0,00782	
34,02	-0,8444	98,38	150,13	-0,00785	
34,04	-0,8428	98,41	150,12	-0,00771	
34,06	-0,8413	98,42	150,12	-0,00755	
34,08	-0,8397	98,41	150,12	-0,00748	
34,10	-0,8380	98,48	150,15	-0,00748	
34,12	-0,8364	98,50	150,23	-0,00757	
34,14	-0,8348	98,49	150,64	-0,00773	
34,16	-0,8332	98,53	151,24	-0,00785	
34,18	-0,8316	98,50	151,87	-0,00783	
34,20	-0,8299	98,44	152,65	-0,00772	
34,22	-0,8282	98,43	154,01	-0,00762	
34,24	-0,8266	98,49	155,76	-0,00754	
34,26	-0,8250	98,56	157,48	-0,00752	
34,28	-0,8233	98,40	159,36	-0,00753	
34,30	-0,8218	97,03	161,27	-0,00760	
34,32	-0,8202	95,56	162,86	-0,00772	
34,34	-0,8185	95,02	163,95	-0,00777	
34,36	-0,8170	95,01	165,08	-0,00778	
34,38	-0,8153	95,08	166,45	-0,00773	
34,40	-0,8136	95,05	168,31	-0,00758	
34,42	-0,8119	95,07	170,41	-0,00750	
34,44	-0,8103	95,14	172,19	-0,00755	
34,46	-0,8086	95,19	173,62	-0,00766	
34,48	-0,8069	95,17	175,10	-0,00777	
34,50	-0,8052	95,11	176,61	-0,00783	
34,52	-0,8036	95,11	178,11	-0,00780	
34,54	-0,8019	95,16	179,62	-0,00773	
34,56	-0,8002	95,14	181,12	-0,00770	
34,58	-0,7985	95,10	182,34	-0,00762	
34,60	-0,7968	95,07	183,49	-0,00757	
34,62	-0,7951	94,99	184,88	-0,00758	
34,64	-0,7933	94,97	186,20	-0,00770	
34,66	-0,7915	95,02	187,33	-0,00785	
34,68	-0,7898	94,98	188,62	-0,00787	
34,70	-0,7881	94,90	189,96	-0,00777	
34,72	-0,7864	94,87	191,34	-0,00762	
34,74	-0,7848	94,90	192,79	-0,00751	
34,76	-0,7831	94,30	194,27	-0,00750	
34,78	-0,7814	92,75	195,71	-0,00756	
34,80	-0,7797	91,75	197,09	-0,00768	
34,82	-0,7779	91,59	198,41	-0,00776	
34,84	-0,7762	91,73	199,76	-0,00773	
34,86	-0,7744	91,79	201,22	-0,00772	
34,88	-0,7725	91,69	202,61	-0,00771	
34,90	-0,7707	91,58	204,02	-0,00766	
34,92	-0,7690	91,59	205,42	-0,00759	
34,94	-0,7673	91,68	206,83	-0,00757	
34,96	-0,7656	91,69	208,25	-0,00764	
34,98	-0,7638	91,68	209,55	-0,00775	
35,00	-0,7618	91,73	210,87	-0,00779	
35,02	-0,7600	91,72	212,36	-0,00782	
35,04	-0,7582	91,67	213,82	-0,00780	
35,06	-0,7564	91,66	215,17	-0,00770	
35,08	-0,7546	91,68	216,55	-0,00757	
35,10	-0,7528	91,68	218,00	-0,00749	
35,12	-0,7510	91,68	219,46	-0,00753	
35,14	-0,7492	91,71	220,87	-0,00768	
35,16	-0,7475	91,22	222,23	-0,00775	
35,18	-0,7456	90,28	223,61	-0,00777	
35,20	-0,7437	89,83	225,04	-0,00772	
35,22	-0,7418	90,02	226,50	-0,00758	
35,24	-0,7400	89,25	227,97	-0,00742	
35,26	-0,7381	88,50	229,40	-0,00739	
35,28	-0,7362	88,33	230,79	-0,00751	
35,30	-0,7345	88,33	232,21	-0,00767	
35,32	-0,7326	88,31	233,68	-0,00775	
35,34	-0,7307	88,96	235,12	-0,00771	
35,36	-0,7289	90,49	236,51	-0,00768	
35,38	-0,7270	91,46	237,89	-0,00762	
35,40	-0,7251	91,68	239,25	-0,00752	
35,42	-0,7232	91,75	240,63	-0,00740	
35,44	-0,7213	92,44	242,00	-0,00739	
35,46	-0,7195	93,90	243,33	-0,00750	
35,48	-0,7177	94,14	244,71	-0,00763	
35,50	-0,7159	92,89	246,11	-0,00770	
35,52	-0,7143	91,97	247,50	-0,00767	
35,54	-0,7126	91,73	248,85	-0,00764	
35,56	-0,7108	91,67	250,17	-0,00759	
35,58	-0,7090	91,64	251,52	-0,00752	
35,60	-0,7072	91,66	252,89	-0,00749	
35,62	-0,7054	91,72	254,22	-0,00756	
35,64	-0,7036	91,74	255,59	-0,00770	
35,66	-0,7018	91,72	257,55	-0,00776	
35,68	-0,7000	91,02	260,48	-0,00773	
35,70	-0,6982	89,50	263,98	-0,00769	
35,72	-0,6964	89,22	267,18	-0,00760	
35,74	-0,6945	90,43	269,39	-0,00749	
35,76	-0,6927	91,38	270,96	-0,00746	
35,78	-0,6909	91,73	272,32	-0,00756	
35,80	-0,6890	91,80	273,66	-0,00770	
35,82	-0,6871	91,72	275,07	-0,00777	
35,84	-0,6852	91,66	276,52	-0,00779	
35,86	-0,6834	91,69	277,96	-0,00772	
35,88	-0,6817	91,72	279,31	-0,00753	
35,90	-0,6799	91,76	280,61	-0,00743	
35,92	-0,6781	91,75	281,91	-0,00742	
35,94	-0,6762	91,68	283,28	-0,00743	
35,96	-0,6743	91,68	284,64	-0,00760	
35,98	-0,6725	91,73	286,06	-0,00777	
36,00	-0,6707	91,73	287,55	-0,00777	
36,02	-0,6689	91,60	289,02	-0,00763	
36,04	-0,6670	90,34	290,50	-0,00752	
36,06	-0,6651	88,95	292,04	-0,00744	
36,08	-0,6633	88,46	293,56	-0,00746	
36,10	-0,6614	88,44	295,10	-0,00755	
36,12	-0,6595	88,44	296,62	-0,00764	
36,14	-0,6577	88,41	298,12	-0,00772	
36,16	-0,6557	88,39	299,67	-0,00775	
36,18	-0,6537	88,40	301,20	-0,00776	
36,20	-0,6517	87,78	302,78	-0,00769	
36,22	-0,6498	86,28	304,30	-0,00757	
36,24	-0,6479	85,34	305,84	-0,00748	
36,26	-0,6460	85,09	307,45	-0,00751	
36,28	-0,6440	84,91	309,09	-0,00763	
36,30	-0,6419	83,63	310,72	-0,00777	
36,32	-0,6399	82,23	312,32	-0,00784	
36,34	-0,6379	81,67	313,92	-0,00779	
36,36	-0,6359	81,63	315,62	-0,00764	
36,38	-0,6339	81,69	317,33	-0,00751	
36,40	-0,6318	81,63	319,00	-0,00746	
36,42	-0,6297	81,59	320,65	-0,00744	
36,44	-0,6275	81,60	322,31	-0,00757	
36,46	-0,6255	81,61	324,03	-0,00777	
36,48	-0,6233	81,63	325,72	-0,00786	
36,50	-0,6212	81,67	327,40	-0,00783	
36,52	-0,6191	81,49	329,08	-0,00780	
36,54	-0,6169	80,32	330,82	-0,00770	
36,56	-0,6147	79,49	332,60	-0,00760	
36,58	-0,6126	79,44	334,35	-0,00753	
36,60	-0,6104	80,35	336,08	-0,00756	
36,62	-0,6083	79,94	337,86	-0,00764	
36,64	-0,6061	78,87	339,66	-0,00774	
36,66	-0,6040	78,39	341,45	-0,00780	
36,68	-0,6019	78,36	343,26	-0,00774	
36,70	-0,5997	78,37	345,11	-0,00766	
36,72	-0,5974	78,35	346,95	-0,00757	
36,74	-0,5952	78,33	348,82	-0,00748	
36,76	-0,5930	78,28	350,73	-0,00747	
36,78	-0,5907	78,28	352,62	-0,00756	
36,80	-0,5885	78,32	354,51	-0,00765	
36,82	-0,5862	78,32	356,45	-0,00767	
36,84	-0,5840	78,33	358,38	-0,00764	
36,86	-0,5819	78,36	360,36	-0,00757	
36,88	-0,5797	78,20	362,38	-0,00748	
36,90	-0,5775	76,89	364,42	-0,00739	
36,92	-0,5753	75,55	366,48	-0,00739	
36,94	-0,5730	74,72	368,54	-0,00749	
36,96	-0,5706	74,15	370,32	-0,00763	
36,98	-0,5683	78,95	371,41	-0,00762	
37,00	-0,5661	91,08	371,89	-0,00755	
37,02	-0,5638	106,61	372,13	-0,00739	
37,04	-0,5617	120,77	372,40	-0,00728	
37,06	-0,5601	131,85	372,81	-0,00730	
37,08	-0,5594	137,28	373,42	-0,00742	
37,10	-0,5593	136,58	374,15	-0,00755	
37,12	-0,5591	132,38	375,04	-0,00762	
37,14	-0,5586	127,59	376,01	-0,00755	
37,16	-0,5580	127,06	376,86	-0,00742	
37,18	-0,5574	129,44	377,67	-0,00737	
37,20	-0,5565	131,53	378,53	-0,00737	
37,22	-0,5558	132,29	379,42	-0,00738	
37,24	-0,5552	132,44	380,35	-0,00746	
37,26	-0,5547	130,90	381,27	-0,00755	
37,28	-0,5544	128,28	382,13	-0,00758	
37,30	-0,5539	125,36	383,03	-0,00756	
37,32	-0,5533	123,50	383,98	-0,00749	
37,34	-0,5527	123,66	384,88	-0,00741	
37,36	-0,5520	124,54	385,76	-0,00734	
37,38	-0,5514	125,24	386,61	-0,00734	
37,40	-0,5509	125,65	387,46	-0,00745	
37,42	-0,5503	125,31	388,41	-0,00761	
37,44	-0,5496	124,66	389,32	-0,00766	
37,46	-0,5491	125,15	390,15	-0,00768	
37,48	-0,5487	124,60	391,03	-0,00763	
37,50	-0,5482	122,51	391,98	-0,00749	
37,52	-0,5476	123,14	392,85	-0,00733	
37,54	-0,5472	124,78	393,67	-0,00730	
37,56	-0,5466	124,37	394,58	-0,00735	
37,58	-0,5459	123,10	395,54	-0,00743	
37,60	-0,5454	123,12	396,43	-0,00746	
37,62	-0,5449	122,63	397,30	-0,00752	
37,64	-0,5443	121,11	398,20	-0,00753	
37,66	-0,5438	120,72	399,07	-0,00751	
37,68	-0,5433	120,68	399,95	-0,00737	
37,70	-0,5428	120,23	400,86	-0,00724	
37,72	-0,5423	120,02	401,75	-0,00725	
37,74	-0,5418	120,01	402,59	-0,00740	
37,76	-0,5413	119,45	403,51	-0,00750	
37,78	-0,5409	119,07	404,40	-0,00760	
37,80	-0,5404	118,82	405,25	-0,00760	
37,82	-0,5398	117,33	406,20	-0,00751	
37,84	-0,5393	115,71	407,15	-0,00731	
37,86	-0,5389	116,21	407,92	-0,00720	
37,88	-0,5383	117,64	408,75	-0,00720	
37,90	-0,5377	116,63	409,73	-0,00731	
37,92	-0,5373	115,58	410,69	-0,00745	
37,94	-0,5368	115,82	411,54	-0,00753	
37,96	-0,5364	114,52	412,39	-0,00760	
37,98	-0,5358	111,57	413,32	-0,00760	
38,00	-0,5353	110,66	414,22	-0,00753	
38,02	-0,5348	110,95	415,09	-0,00735	
38,04	-0,5343	110,43	415,98	-0,00722	
38,06	-0,5339	110,11	416,82	-0,00720	
38,08	-0,5335	110,58	417,69	-0,00735	
38,10	-0,5330	109,60	418,65	-0,00750	
38,12	-0,5325	108,24	419,59	-0,00755	
38,14	-0,5319	108,26	420,45	-0,00755	
38,16	-0,5315	108,21	421,30	-0,00748	
38,18	-0,5310	106,56	422,22	-0,00735	
38,20	-0,5304	106,03	423,11	-0,00726	
38,22	-0,5300	107,05	423,92	-0,00729	
38,24	-0,5294	106,07	424,84	-0,00739	
38,26	-0,5288	103,47	425,77	-0,00748	
38,28	-0,5283	102,65	426,69	-0,00751	
38,30	-0,5279	101,92	427,63	-0,00747	
38,32	-0,5274	100,10	428,47	-0,00740	
38,34	-0,5268	99,60	429,31	-0,00733	
38,36	-0,5263	99,93	430,25	-0,00735	
38,38	-0,5257	99,75	431,15	-0,00733	
38,40	-0,5252	99,62	431,99	-0,00740	
38,42	-0,5247	98,94	432,88	-0,00752	
38,44	-0,5241	98,17	433,76	-0,00759	
38,46	-0,5234	98,28	434,66	-0,00758	
38,48	-0,5228	97,96	435,60	-0,00746	
38,50	-0,5223	97,84	436,47	-0,00727	
38,52	-0,5217	98,03	437,34	-0,00716	
38,54	-0,5211	97,14	438,24	-0,00719	
38,56	-0,5205	97,23	439,08	-0,00731	
38,58	-0,5200	97,86	439,99	-0,00745	
38,60	-0,5194	96,90	440,95	-0,00757	
38,62	-0,5188	96,91	441,80	-0,00760	
38,64	-0,5183	98,20	442,65	-0,00750	
38,66	-0,5177	97,56	443,58	-0,00738	
38,68	-0,5171	96,23	444,48	-0,00724	
38,70	-0,5165	96,42	445,37	-0,00725	
38,72	-0,5160	96,49	446,24	-0,00735	
38,74	-0,5154	95,78	447,10	-0,00745	
38,76	-0,5148	95,52	448,00	-0,00751	
38,78	-0,5141	95,82	448,91	-0,00751	
38,80	-0,5136	96,19	449,78	-0,00747	
38,82	-0,5131	94,81	450,72	-0,00741	
38,84	-0,5125	93,43	451,64	-0,00734	
38,86	-0,5120	94,22	452,48	-0,00731	
38,88	-0,5114	94,68	453,34	-0,00733	
38,90	-0,5107	94,21	454,22	-0,00740	
38,92	-0,5101	94,57	455,10	-0,00745	
38,94	-0,5096	94,69	456,04	-0,00747	
38,96	-0,5090	93,80	456,97	-0,00745	
38,98	-0,5084	93,92	457,81	-0,00735	
39,00	-0,5078	94,58	458,68	-0,00732	
39,02	-0,5073	94,42	459,60	-0,00734	
39,04	-0,5066	94,15	460,48	-0,00734	
39,06	-0,5061	94,70	461,30	-0,00742	
39,08	-0,5055	94,83	462,20	-0,00751	
39,10	-0,5049	94,26	463,13	-0,00752	
39,12	-0,5043	94,42	464,02	-0,00744	
39,14	-0,5037	93,88	464,98	-0,00737	
39,16	-0,5032	93,11	465,88	-0,00729	
39,18	-0,5027	93,65	466,69	-0,00729	
39,20	-0,5020	93,54	467,62	-0,00731	
39,22	-0,5013	93,18	468,50	-0,00741	
39,24	-0,5007	94,46	469,28	-0,00757	
39,26	-0,5002	94,06	470,25	-0,00763	
39,28	-0,4996	92,16	471,20	-0,00760	
39,30	-0,4990	93,00	472,01	-0,00746	
39,32	-0,4984	93,54	472,93	-0,00735	
39,34	-0,4979	91,67	473,86	-0,00733	
39,36	-0,4973	91,66	474,71	-0,00736	
39,38	-0,4968	92,33	475,60	-0,00743	
39,40	-0,4963	90,36	476,52	-0,00750	
39,42	-0,4956	89,93	477,39	-0,00749	
39,44	-0,4950	90,77	478,25	-0,00742	
39,46	-0,4943	89,61	479,18	-0,00738	
39,48	-0,4936	88,66	480,08	-0,00736	
39,50	-0,4932	89,74	480,92	-0,00731	
39,52	-0,4926	89,72	481,82	-0,00728	
39,54	-0,4919	88,99	482,70	-0,00736	
39,56	-0,4913	89,84	483,51	-0,00746	
39,58	-0,4907	90,11	484,45	-0,00749	
39,60	-0,4902	89,38	485,34	-0,00752	
39,62	-0,4896	90,28	486,15	-0,00744	
39,64	-0,4889	90,44	487,11	-0,00736	
39,66	-0,4881	89,97	488,08	-0,00728	
39,68	-0,4876	92,23	488,92	-0,00731	
39,70	-0,4869	93,35	489,85	-0,00743	
39,72	-0,4864	92,41	490,69	-0,00757	
39,74	-0,4859	94,02	491,43	-0,00762	
39,76	-0,4852	94,00	492,45	-0,00754	
39,78	-0,4846	91,56	493,44	-0,00737	
39,80	-0,4841	91,85	494,28	-0,00735	
39,82	-0,4836	92,24	495,24	-0,00736	
39,84	-0,4831	91,25	496,10	-0,00732	
39,86	-0,4825	92,03	496,90	-0,00740	
39,88	-0,4818	92,49	497,82	-0,00756	
39,90	-0,4812	91,35	498,66	-0,00763	
39,92	-0,4807	91,33	499,52	-0,00763	
39,94	-0,4801	90,19	500,51	-0,00753	
39,96	-0,4795	88,71	501,40	-0,00734	
39,98	-0,4789	89,42	502,29	-0,00725	
40,00	-0,4783	89,47	503,23	-0,00724	
40,02	-0,4778	89,67	504,01	-0,00729	
40,04	-0,4772	90,61	504,86	-0,00749	
40,06	-0,4764	89,48	505,85	-0,00764	
40,08	-0,4758	88,72	506,71	-0,00765	
40,10	-0,4753	88,78	507,59	-0,00756	
40,12	-0,4747	86,79	508,53	-0,00737	
40,14	-0,4741	85,70	509,34	-0,00720	
40,16	-0,4734	86,08	510,25	-0,00720	
40,18	-0,4727	84,87	511,21	-0,00732	
40,20	-0,4721	84,51	512,03	-0,00750	
40,22	-0,4714	85,14	512,93	-0,00760	
40,24	-0,4707	84,12	513,86	-0,00756	
40,26	-0,4701	84,18	514,65	-0,00742	
40,28	-0,4694	84,90	515,59	-0,00732	
40,30	-0,4687	84,02	516,55	-0,00727	
40,32	-0,4681	84,22	517,36	-0,00726	
40,34	-0,4675	83,93	518,27	-0,00730	
40,36	-0,4670	81,55	519,20	-0,00739	
40,38	-0,4664	80,81	520,03	-0,00748	
40,40	-0,4657	80,39	520,97	-0,00754	
40,42	-0,4650	78,86	521,88	-0,00754	
40,44	-0,4643	79,72	522,70	-0,00746	
40,46	-0,4635	80,22	523,62	-0,00733	
40,48	-0,4628	78,95	524,50	-0,00722	
40,50	-0,4621	79,12	525,32	-0,00728	
40,52	-0,4614	78,45	526,30	-0,00747	
40,54	-0,4607	76,62	527,20	-0,00755	
40,56	-0,4600	76,84	528,04	-0,00750	
40,58	-0,4593	76,45	528,99	-0,00746	
40,60	-0,4586	74,63	529,84	-0,00735	
40,62	-0,4580	74,63	530,67	-0,00720	
40,64	-0,4573	74,72	531,64	-0,00716	
40,66	-0,4567	74,63	532,51	-0,00725	
40,68	-0,4559	76,18	533,34	-0,00739	
40,70	-0,4550	75,88	534,30	-0,00753	
40,72	-0,4543	74,87	535,17	-0,00754	
40,74	-0,4537	74,89	536,04	-0,00751	
40,76	-0,4529	73,82	536,97	-0,00745	
40,78	-0,4522	72,77	537,80	-0,00732	
40,80	-0,4515	73,67	538,67	-0,00723	
40,82	-0,4507	72,65	539,65	-0,00723	
40,84	-0,4500	71,34	540,49	-0,00735	
40,86	-0,4493	71,45	541,37	-0,00750	
40,88	-0,4485	69,79	542,32	-0,00761	
40,90	-0,4478	68,79	543,17	-0,00754	
40,92	-0,4470	68,82	544,05	-0,00746	
40,94	-0,4462	67,65	544,92	-0,00733	
40,96	-0,4455	66,95	545,69	-0,00723	
40,98	-0,4447	66,80	546,63	-0,00731	
41,00	-0,4438	65,07	547,66	-0,00745	
41,02	-0,4433	64,18	548,50	-0,00754	
41,04	-0,4426	63,50	549,38	-0,00760	
41,06	-0,4417	61,61	550,30	-0,00757	
41,08	-0,4408	61,46	551,11	-0,00748	
41,10	-0,4399	61,45	552,03	-0,00738	
41,12	-0,4391	59,90	552,90	-0,00728	
41,14	-0,4384	59,63	553,65	-0,00720	
41,16	-0,4376	59,09	554,63	-0,00725	
41,18	-0,4367	55,57	555,72	-0,00740	
41,20	-0,4359	53,99	556,59	-0,00746	
41,22	-0,4350	54,14	557,37	-0,00743	
41,24	-0,4341	52,20	558,26	-0,00736	
41,26	-0,4332	50,27	559,15	-0,00731	
41,28	-0,4323	50,70	559,96	-0,00725	
41,30	-0,4314	49,61	560,86	-0,00722	
41,32	-0,4305	47,17	561,81	-0,00726	
41,34	-0,4296	46,59	562,65	-0,00736	
41,36	-0,4287	46,42	563,56	-0,00746	
41,38	-0,4278	44,79	564,49	-0,00751	
41,40	-0,4269	44,77	565,28	-0,00744	
41,42	-0,4259	44,72	566,20	-0,00734	
41,44	-0,4248	42,21	567,21	-0,00728	
41,46	-0,4239	42,10	567,98	-0,00732	
41,48	-0,4230	42,70	568,88	-0,00734	
41,50	-0,4219	39,59	569,96	-0,00738	
41,52	-0,4209	37,68	570,81	-0,00754	
41,54	-0,4199	38,04	571,57	-0,00761	
41,56	-0,4188	35,82	572,45	-0,00757	
41,58	-0,4178	32,78	573,37	-0,00749	
41,60	-0,4168	32,58	574,17	-0,00738	
41,62	-0,4159	32,64	575,03	-0,00733	
41,64	-0,4147	29,87	576,06	-0,00738	
41,66	-0,4136	28,15	576,95	-0,00748	
41,68	-0,4125	27,85	577,76	-0,00757	
41,70	-0,4114	26,08	578,71	-0,00761	
41,72	-0,4102	24,04	579,60	-0,00754	
41,74	-0,4090	23,87	580,42	-0,00745	
41,76	-0,4079	23,15	581,30	-0,00740	
41,78	-0,4067	20,85	582,21	-0,00740	
41,80	-0,4055	19,30	583,05	-0,00739	
41,82	-0,4043	18,51	583,90	-0,00743	
41,84	-0,4032	16,56	584,89	-0,00760	
41,86	-0,4020	14,86	585,82	-0,00765	
41,88	-0,4008	14,50	586,63	-0,00767	
41,90	-0,3994	12,43	587,58	-0,00760	
41,92	-0,3981	9,526	588,50	-0,00744	
41,94	-0,3968	8,795	589,29	-0,00740	
41,96	-0,3954	7,679	590,18	-0,00738	
41,98	-0,3940	5,220	591,13	-0,00738	
42,00	-0,3927	3,692	591,96	-0,00749	
42,02	-0,3914	2,706	592,76	-0,00762	
42,04	-0,3900	0,4855	593,72	-0,00767	
42,06	-0,3886	-1,623	594,73	-0,00757	
42,08	-0,3873	-1,545	595,54	-0,00745	
42,10	-0,3860	-2,967	596,38	-0,00737	
42,12	-0,3846	-6,167	597,32	-0,00737	
42,14	-0,3831	-7,813	598,20	-0,00737	
42,16	-0,3815	-8,090	599,00	-0,00742	
42,18	-0,3800	-9,309	599,90	-0,00751	
42,20	-0,3786	-12,14	600,95	-0,00759	
42,22	-0,3773	-13,94	601,85	-0,00759	
42,24	-0,3758	-14,61	602,62	-0,00751	
42,26	-0,3742	-15,88	603,48	-0,00747	
42,28	-0,3726	-17,94	604,45	-0,00748	
42,30	-0,3712	-18,83	605,35	-0,00745	
42,32	-0,3696	-18,79	606,16	-0,00741	
42,34	-0,3680	-20,58	607,09	-0,00748	
42,36	-0,3664	-21,44	608,04	-0,00755	
42,38	-0,3648	-20,73	608,89	-0,00754	
42,40	-0,3632	-20,16	609,74	-0,00750	
42,42	-0,3617	-20,09	610,65	-0,00742	
42,44	-0,3601	-19,69	611,57	-0,00731	
42,46	-0,3585	-18,35	612,48	-0,00726	
42,48	-0,3570	-16,71	613,34	-0,00731	
42,50	-0,3554	-14,30	614,20	-0,00745	
42,52	-0,3538	-12,36	615,15	-0,00756	
42,54	-0,3524	-10,98	616,07	-0,00761	
42,56	-0,3509	-8,531	616,89	-0,00754	
42,58	-0,3492	-5,208	617,77	-0,00743	
42,60	-0,3477	-2,978	618,76	-0,00741	
42,62	-0,3464	0,2381	619,64	-0,00733	
42,64	-0,3451	4,453	620,48	-0,00732	
42,66	-0,3437	7,095	621,42	-0,00737	
42,68	-0,3424	9,790	622,32	-0,00745	
42,70	-0,3410	14,47	623,19	-0,00752	
42,72	-0,3397	18,36	624,10	-0,00749	
42,74	-0,3383	20,58	624,99	-0,00741	
42,76	-0,3371	23,48	625,90	-0,00742	
42,78	-0,3360	26,99	626,80	-0,00733	
42,80	-0,3349	30,57	627,63	-0,00729	
42,82	-0,3336	33,56	628,55	-0,00738	
42,84	-0,3325	36,43	629,47	-0,00752	
42,86	-0,3315	40,59	630,25	-0,00756	
42,88	-0,3304	43,41	631,17	-0,00759	
42,90	-0,3293	43,92	632,14	-0,00745	
42,92	-0,3283	46,78	632,98	-0,00734	
42,94	-0,3273	49,07	633,89	-0,00732	
42,96	-0,3264	49,56	634,79	-0,00730	
42,98	-0,3255	52,66	635,58	-0,00731	
43,00	-0,3244	55,29	636,55	-0,00742	
43,02	-0,3235	55,60	637,44	-0,00757	
43,04	-0,3227	58,27	638,20	-0,00760	
43,06	-0,3217	59,77	639,18	-0,00741	
43,08	-0,3208	58,68	640,17	-0,00723	
43,10	-0,3199	60,03	641,01	-0,00716	
43,12	-0,3191	61,07	641,90	-0,00717	
43,14	-0,3183	59,91	642,75	-0,00724	
43,16	-0,3175	60,54	643,59	-0,00744	
43,18	-0,3166	61,59	644,55	-0,00760	
43,20	-0,3159	60,87	645,39	-0,00755	
43,22	-0,3151	61,21	646,20	-0,00744	
43,24	-0,3141	60,58	647,24	-0,00737	
43,26	-0,3132	60,32	648,17	-0,00730	
43,28	-0,3124	61,54	648,99	-0,00728	
43,30	-0,3116	60,49	649,90	-0,00734	
43,32	-0,3107	58,56	650,76	-0,00748	
43,34	-0,3100	59,16	651,61	-0,00757	
43,36	-0,3091	58,90	652,53	-0,00754	
43,38	-0,3083	57,41	653,32	-0,00742	
43,40	-0,3074	57,42	654,19	-0,00737	
43,42	-0,3065	55,79	655,27	-0,00736	
43,44	-0,3058	54,29	656,18	-0,00729	
43,46	-0,3050	54,70	657,01	-0,00732	
43,48	-0,3040	53,12	657,92	-0,00740	
43,50	-0,3032	51,92	658,74	-0,00747	
43,52	-0,3023	52,53	659,60	-0,00755	
43,54	-0,3013	51,00	660,55	-0,00754	
43,56	-0,3005	48,73	661,40	-0,00748	
43,58	-0,2996	48,28	662,28	-0,00743	
43,60	-0,2986	47,45	663,23	-0,00731	
43,62	-0,2978	47,11	664,07	-0,00720	
43,64	-0,2967	46,66	664,97	-0,00726	
43,66	-0,2957	44,81	665,88	-0,00743	
43,68	-0,2949	44,71	666,64	-0,00748	
43,70	-0,2939	45,21	667,55	-0,00753	
43,72	-0,2928	43,03	668,63	-0,00752	
43,74	-0,2919	42,20	669,51	-0,00740	
43,76	-0,2909	42,78	670,31	-0,00727	
43,78	-0,2900	41,22	671,20	-0,00730	
43,80	-0,2890	40,01	672,09	-0,00737	
43,82	-0,2880	41,24	672,93	-0,00746	
43,84	-0,2870	41,26	673,83	-0,00756	
43,86	-0,2859	40,14	674,75	-0,00761	
43,88	-0,2849	40,07	675,60	-0,00755	
43,90	-0,2838	39,77	676,50	-0,00744	
43,92	-0,2828	38,88	677,43	-0,00735	
43,94	-0,2818	38,36	678,29	-0,00728	
43,96	-0,2808	37,96	679,19	-0,00730	
43,98	-0,2798	36,76	680,11	-0,00740	
44,00	-0,2788	36,61	680,94	-0,00751	
44,02	-0,2778	36,64	681,82	-0,00753	
44,04	-0,2766	36,06	682,75	-0,00751	
44,06	-0,2756	36,39	683,60	-0,00748	
44,08	-0,2746	36,43	684,49	-0,00741	
44,10	-0,2736	34,81	685,43	-0,00735	
44,12	-0,2725	34,42	686,27	-0,00727	
44,14	-0,2715	34,38	687,17	-0,00727	
44,16	-0,2703	33,28	688,13	-0,00740	
44,18	-0,2692	33,38	688,96	-0,00749	
44,20	-0,2681	33,88	689,82	-0,00753	
44,22	-0,2670	32,58	690,74	-0,00753	
44,24	-0,2659	32,26	691,60	-0,00749	
44,26	-0,2649	32,86	692,51	-0,00743	
44,28	-0,2638	32,28	693,40	-0,00735	
44,30	-0,2628	31,81	694,24	-0,00731	
44,32	-0,2617	30,81	695,17	-0,00733	
44,34	-0,2604	29,53	696,12	-0,00743	
44,36	-0,2594	30,25	696,95	-0,00758	
44,38	-0,2583	30,55	697,79	-0,00761	
44,40	-0,2571	29,63	698,71	-0,00756	
44,42	-0,2558	29,11	699,62	-0,00754	
44,44	-0,2548	29,64	700,48	-0,00747	
44,46	-0,2537	28,89	701,38	-0,00740	
44,48	-0,2524	27,88	702,31	-0,00739	
44,50	-0,2513	27,81	703,18	-0,00751	
44,52	-0,2503	27,70	704,05	-0,00764	
44,54	-0,2490	27,03	704,97	-0,00764	
44,56	-0,2480	27,28	705,84	-0,00756	
44,58	-0,2469	27,61	706,70	-0,00745	
44,60	-0,2457	27,18	707,61	-0,00736	
44,62	-0,2444	26,82	708,53	-0,00736	
44,64	-0,2434	26,77	709,39	-0,00739	
44,66	-0,2423	26,77	710,28	-0,00750	
44,68	-0,2411	26,29	711,20	-0,00761	
44,70	-0,2401	25,94	712,07	-0,00757	
44,72	-0,2389	25,62	712,92	-0,00751	
44,74	-0,2376	25,09	713,82	-0,00746	
44,76	-0,2365	24,85	714,70	-0,00731	
44,78	-0,2355	25,14	715,60	-0,00727	
44,80	-0,2342	24,22	716,52	-0,00726	
44,82	-0,2330	23,43	717,37	-0,00726	
44,84	-0,2320	23,11	718,24	-0,00742	
44,86	-0,2308	22,03	719,17	-0,00754	
44,88	-0,2296	21,94	720,02	-0,00759	
44,90	-0,2285	23,02	720,86	-0,00755	
44,92	-0,2274	22,91	721,76	-0,00740	
44,94	-0,2262	21,95	722,69	-0,00733	
44,96	-0,2249	22,27	723,59	-0,00736	
44,98	-0,2238	21,83	724,48	-0,00737	
45,00	-0,2227	20,76	725,37	-0,00745	
45,02	-0,2215	21,27	726,24	-0,00758	
45,04	-0,2202	22,49	727,14	-0,00759	
45,06	-0,2189	23,30	728,06	-0,00751	
45,08	-0,2179	24,63	728,95	-0,00742	
45,10	-0,2167	26,57	729,87	-0,00738	
45,12	-0,2154	28,23	730,79	-0,00736	
45,14	-0,2142	30,55	731,68	-0,00737	
45,16	-0,2132	32,96	732,57	-0,00742	
45,18	-0,2120	34,73	733,46	-0,00756	
45,20	-0,2110	37,13	734,34	-0,00759	
45,22	-0,2100	39,59	735,25	-0,00755	
45,24	-0,2090	42,26	736,11	-0,00744	
45,26	-0,2080	45,31	736,95	-0,00734	
45,28	-0,2070	47,08	737,91	-0,00733	
45,30	-0,2059	48,37	738,76	-0,00735	
45,32	-0,2050	51,17	739,51	-0,00741	
45,34	-0,2040	52,29	740,57	-0,00747	
45,36	-0,2031	51,85	741,63	-0,00749	
45,38	-0,2023	54,70	742,40	-0,00754	
45,40	-0,2014	56,10	743,28	-0,00765	
45,42	-0,2004	55,47	744,17	-0,00756	
45,44	-0,1996	57,36	744,95	-0,00738	
45,46	-0,1986	58,45	745,95	-0,00730	
45,48	-0,1977	56,75	746,86	-0,00737	
45,50	-0,1970	57,15	747,62	-0,00755	
45,52	-0,1961	57,38	748,70	-0,00762	
45,54	-0,1952	56,75	749,68	-0,00759	
45,56	-0,1943	58,88	750,43	-0,00754	
45,58	-0,1935	59,60	751,29	-0,00748	
45,60	-0,1926	58,88	752,08	-0,00740	
45,62	-0,1918	60,63	752,91	-0,00738	
45,64	-0,1908	60,19	754,05	-0,00739	
45,66	-0,1901	58,67	754,95	-0,00747	
45,68	-0,1893	59,81	755,74	-0,00763	
45,70	-0,1883	59,05	756,69	-0,00768	
45,72	-0,1875	59,04	757,41	-0,00753	
45,74	-0,1867	62,56	758,22	-0,00740	
45,76	-0,1856	62,10	759,50	-0,00734	
45,78	-0,1848	59,94	760,50	-0,00731	
45,80	-0,1841	61,22	761,20	-0,00738	
45,82	-0,1832	60,99	761,96	-0,00748	
45,84	-0,1823	58,99	762,77	-0,00762	
45,86	-0,1814	59,39	763,69	-0,00768	
45,88	-0,1806	59,69	764,59	-0,00763	
45,90	-0,1799	59,78	765,29	-0,00753	
45,92	-0,1790	59,77	766,27	-0,00746	
45,94	-0,1780	58,08	767,45	-0,00733	
45,96	-0,1774	59,16	768,26	-0,00725	
45,98	-0,1767	59,99	769,10	-0,00737	
46,00	-0,1758	57,97	769,97	-0,00749	
46,02	-0,1750	57,52	770,63	-0,00759	
46,04	-0,1741	58,06	771,70	-0,00768	
46,06	-0,1732	55,11	773,07	-0,00758	
46,08	-0,1724	54,84	773,86	-0,00740	
46,10	-0,1717	57,47	774,32	-0,00731	
46,12	-0,1709	56,40	775,13	-0,00737	
46,14	-0,1699	52,91	776,26	-0,00742	
46,16	-0,1691	54,95	777,03	-0,00750	
46,18	-0,1684	56,49	777,88	-0,00765	
46,20	-0,1674	53,02	779,14	-0,00770	
46,22	-0,1667	52,00	780,02	-0,00758	
46,24	-0,1660	53,78	780,70	-0,00753	
46,26	-0,1652	52,50	781,49	-0,00743	
46,28	-0,1644	50,48	782,24	-0,00730	
46,30	-0,1636	50,64	783,23	-0,00735	
46,32	-0,1628	49,35	784,24	-0,00749	
46,34	-0,1622	49,98	784,84	-0,00762	
46,36	-0,1614	51,04	785,82	-0,00770	
46,38	-0,1604	48,32	787,30	-0,00772	
46,40	-0,1597	47,57	788,18	-0,00756	
46,42	-0,1590	50,31	788,47	-0,00742	
46,44	-0,1582	49,88	789,17	-0,00741	
46,46	-0,1572	45,88	790,67	-0,00744	
46,48	-0,1564	46,34	791,86	-0,00748	
46,50	-0,1559	48,61	792,38	-0,00757	
46,52	-0,1552	47,82	792,97	-0,00768	
46,54	-0,1545	44,79	793,99	-0,00768	
46,56	-0,1538	44,86	794,73	-0,00754	
46,58	-0,1532	48,97	795,16	-0,00741	
46,60	-0,1525	47,99	796,33	-0,00737	
46,62	-0,1517	42,20	798,03	-0,00736	
46,64	-0,1510	41,28	798,85	-0,00732	
46,66	-0,1506	46,66	798,82	-0,00743	
46,68	-0,1499	47,35	799,46	-0,00757	
46,70	-0,1489	43,39	801,21	-0,00769	
46,72	-0,1480	41,54	802,78	-0,00764	
46,74	-0,1476	45,09	803,17	-0,00744	
46,76	-0,1471	46,05	803,48	-0,00737	
46,78	-0,1462	41,49	804,81	-0,00742	
46,80	-0,1454	40,32	806,15	-0,00747	
46,82	-0,1449	45,24	806,59	-0,00745	
46,84	-0,1445	46,24	807,04	-0,00747	
46,86	-0,1437	40,80	808,29	-0,00753	
46,88	-0,1431	39,23	809,45	-0,00756	
46,90	-0,1427	44,32	810,04	-0,00748	
46,92	-0,1421	44,63	811,05	-0,00744	
46,94	-0,1413	41,75	812,15	-0,00735	
46,96	-0,1409	44,58	812,81	-0,00730	
46,98	-0,1404	46,53	813,69	-0,00737	
47,00	-0,1399	44,70	814,54	-0,00748	
47,02	-0,1395	46,49	815,19	-0,00757	
47,04	-0,1388	48,05	816,40	-0,00760	
47,06	-0,1383	46,05	817,55	-0,00753	
47,08	-0,1378	46,86	818,22	-0,00741	
47,10	-0,1373	48,49	818,92	-0,00735	
47,12	-0,1367	48,29	819,61	-0,00735	
47,14	-0,1362	50,10	820,45	-0,00732	
47,16	-0,1356	50,76	821,71	-0,00738	
47,18	-0,1352	51,18	822,58	-0,00750	
47,20	-0,1347	54,10	823,33	-0,00756	
47,22	-0,1341	53,48	824,52	-0,00752	
47,24	-0,1337	53,82	825,31	-0,00740	
47,26	-0,1333	57,13	826,03	-0,00738	
47,28	-0,1327	56,33	827,18	-0,00735	
47,30	-0,1324	55,30	827,96	-0,00736	
47,32	-0,1319	57,89	828,74	-0,00748	
47,34	-0,1314	58,05	829,81	-0,00755	
47,36	-0,1310	58,50	830,44	-0,00755	
47,38	-0,1305	61,15	831,34	-0,00755	
47,40	-0,1299	59,64	832,72	-0,00756	
47,42	-0,1296	59,23	833,56	-0,00747	
47,44	-0,1291	61,49	834,18	-0,00741	
47,46	-0,1287	61,40	834,86	-0,00735	
47,48	-0,1282	60,92	835,60	-0,00734	
47,50	-0,1276	62,29	836,64	-0,00750	
47,52	-0,1271	62,45	837,47	-0,00767	
47,54	-0,1268	64,02	837,86	-0,00768	
47,56	-0,1264	64,32	838,98	-0,00765	
47,58	-0,1257	60,42	840,88	-0,00757	
47,60	-0,1252	59,07	841,93	-0,00738	
47,62	-0,1251	63,76	841,86	-0,00730	
47,64	-0,1248	65,03	842,31	-0,00741	
47,66	-0,1242	60,78	844,07	-0,00755	
47,68	-0,1235	58,58	845,66	-0,00760	
47,70	-0,1233	61,94	845,90	-0,00754	
47,72	-0,1231	63,76	846,00	-0,00746	
47,74	-0,1225	58,71	847,41	-0,00744	
47,76	-0,1219	53,80	849,16	-0,00735	
47,78	-0,1216	56,13	849,66	-0,00723	
47,80	-0,1214	58,91	849,42	-0,00721	
47,82	-0,1209	55,01	849,89	-0,00736	
47,84	-0,1204	53,41	850,49	-0,00746	
47,86	-0,1201	60,16	850,30	-0,00748	
47,88	-0,1200	68,37	849,79	-0,00749	
47,90	-0,1196	68,93	849,80	-0,00747	
47,92	-0,1191	69,86	849,82	-0,00731	
47,94	-0,1189	77,03	849,60	-0,00716	
47,96	-0,1185	78,25	849,85	-0,00717	
47,98	-0,1181	76,02	850,03	-0,00728	
48,00	-0,1181	80,32	849,74	-0,00739	
48,02	-0,1178	84,93	849,78	-0,00745	
48,04	-0,1173	83,41	849,99	-0,00746	
48,06	-0,1173	85,88	849,77	-0,00742	
48,08	-0,1170	90,38	849,71	-0,00735	
48,10	-0,1166	88,95	849,98	-0,00730	
48,12	-0,1165	88,94	849,85	-0,00728	
48,14	-0,1163	93,40	849,66	-0,00731	
48,16	-0,1160	92,32	849,92	-0,00732	
48,18	-0,1158	90,68	849,90	-0,00739	
48,20	-0,1157	95,10	849,66	-0,00749	
48,22	-0,1153	94,96	849,88	-0,00746	
48,24	-0,1152	92,00	849,98	-0,00728	
48,26	-0,1151	95,84	849,68	-0,00716	
48,28	-0,1148	98,33	849,73	-0,00714	
48,30	-0,1146	95,76	849,86	-0,00716	
48,32	-0,1146	98,77	849,62	-0,00730	
48,34	-0,1143	101,29	849,76	-0,00744	
48,36	-0,1139	97,74	850,08	-0,00750	
48,38	-0,1140	98,81	849,88	-0,00749	
48,40	-0,1138	102,99	849,72	-0,00739	
48,42	-0,1134	100,55	849,90	-0,00727	
48,44	-0,1133	100,26	849,78	-0,00719	
48,46	-0,1133	103,83	849,65	-0,00719	
48,48	-0,1130	102,32	849,89	-0,00726	
48,50	-0,1127	101,30	849,82	-0,00732	
48,52	-0,1127	105,07	849,62	-0,00740	
48,54	-0,1125	103,72	849,92	-0,00745	
48,56	-0,1122	101,36	849,98	-0,00731	
48,58	-0,1121	104,94	849,70	-0,00714	
48,60	-0,1119	105,05	849,83	-0,00713	
48,62	-0,1116	102,25	849,97	-0,00723	
48,64	-0,1115	105,96	849,71	-0,00731	
48,66	-0,1113	107,79	849,78	-0,00738	
48,68	-0,1112	104,06	849,96	-0,00746	
48,70	-0,1111	105,39	849,72	-0,00748	
48,72	-0,1108	108,69	849,74	-0,00747	
48,74	-0,1105	106,56	849,94	-0,00734	
48,76	-0,1107	106,98	849,73	-0,00715	
48,78	-0,1107	109,38	849,70	-0,00710	
48,80	-0,1103	106,52	850,02	-0,00724	
48,82	-0,1101	105,59	849,89	-0,00738	
48,84	-0,1101	109,20	849,67	-0,00741	
48,86	-0,1099	107,08	849,94	-0,00744	
48,88	-0,1097	104,17	849,95	-0,00739	
48,90	-0,1095	107,79	849,70	-0,00727	
48,92	-0,1092	107,00	849,90	-0,00721	
48,94	-0,1091	103,05	849,96	-0,00721	
48,96	-0,1092	106,10	849,69	-0,00727	
48,98	-0,1088	107,21	849,88	-0,00739	
49,00	-0,1086	103,70	850,05	-0,00754	
49,02	-0,1087	106,47	849,75	-0,00750	
49,04	-0,1086	108,61	849,77	-0,00743	
49,06	-0,1083	104,73	850,00	-0,00734	
49,08	-0,1081	106,13	849,78	-0,00720	
49,10	-0,1080	109,56	849,69	-0,00708	
49,12	-0,1079	106,80	849,92	-0,00705	
49,14	-0,1077	105,70	849,78	-0,00720	
49,16	-0,1075	109,10	849,65	-0,00733	
49,18	-0,1072	107,39	849,97	-0,00740	
49,20	-0,1072	105,82	849,97	-0,00734	
49,22	-0,1073	110,14	849,67	-0,00720	
49,24	-0,1070	109,92	849,81	-0,00715	
49,26	-0,1066	106,63	849,91	-0,00715	
49,28	-0,1067	110,21	849,64	-0,00718	
49,30	-0,1065	111,16	849,79	-0,00730	
49,32	-0,1064	106,75	850,02	-0,00739	
49,34	-0,1062	107,94	849,76	-0,00739	
49,36	-0,1060	110,89	849,73	-0,00736	
49,38	-0,1058	107,64	850,01	-0,00731	
49,40	-0,1059	107,62	849,85	-0,00722	
49,42	-0,1059	111,25	849,64	-0,00711	
49,44	-0,1055	108,97	849,91	-0,00713	
49,46	-0,1052	106,67	849,92	-0,00723	
49,48	-0,1053	109,92	849,67	-0,00735	
49,50	-0,1052	109,10	849,82	-0,00744	
49,52	-0,1049	105,90	849,90	-0,00737	
49,54	-0,1048	109,06	849,65	-0,00730	
49,56	-0,1046	109,99	849,80	-0,00733	
49,58	-0,1045	106,27	850,01	-0,00730	
49,60	-0,1046	108,26	849,75	-0,00715	
49,62	-0,1044	112,18	849,70	-0,00718	
49,64	-0,1040	109,40	849,94	-0,00738	
49,66	-0,1039	109,53	849,78	-0,00748	
49,68	-0,1040	113,69	849,63	-0,00749	
49,70	-0,1037	111,45	849,94	-0,00741	
49,72	-0,1034	109,33	849,95	-0,00730	
49,74	-0,1034	113,60	849,65	-0,00721	
49,76	-0,1032	113,39	849,87	-0,00718	
49,78	-0,1031	109,72	850,05	-0,00720	
49,80	-0,1032	112,43	849,78	-0,00728	
49,82	-0,1030	113,43	849,74	-0,00748	
49,84	-0,1026	109,79	849,76	-0,00748	
49,86	-0,1026	111,64	849,56	-0,00738	
49,88	-0,1025	113,43	849,81	-0,00737	
49,90	-0,1024	110,45	850,13	-0,00735	
49,92	-0,1023	111,56	849,88	-0,00726	
49,94	-0,1021	115,02	849,69	-0,00723	
49,96	-0,1018	111,95	849,94	-0,00732	
49,98	-0,1018	110,75	849,86	-0,00746	
50,00	-0,1020	114,16	849,65	-0,00748	
50,02	-0,1017	111,60	849,89	-0,00744	
50,04	-0,1014	108,35	849,93	-0,00740	
50,06	-0,1013	112,12	849,65	-0,00734	
50,08	-0,1012	112,74	849,81	-0,00727	
50,10	-0,1011	109,49	849,95	-0,00719	
50,12	-0,1011	111,86	849,68	-0,00717	
50,14	-0,1007	113,00	849,78	-0,00736	
50,16	-0,1004	109,14	850,05	-0,00758	
50,18	-0,1005	110,27	849,83	-0,00756	
50,20	-0,1006	114,06	849,70	-0,00740	
50,22	-0,1004	111,12	849,96	-0,00730	
50,24	-0,1001	110,34	849,86	-0,00721	
50,26	-0,09999	114,09	849,65	-0,00713	
50,28	-0,09978	112,26	849,89	-0,00724	
50,30	-0,09977	109,34	849,90	-0,00739	
50,32	-0,09984	113,10	849,61	-0,00747	
50,34	-0,09943	113,14	849,85	-0,00752	
50,36	-0,09913	109,56	850,10	-0,00751	
50,38	-0,09923	112,46	849,83	-0,00738	
50,40	-0,09922	114,76	849,74	-0,00722	
50,42	-0,09901	110,90	849,86	-0,00723	
50,44	-0,09885	111,49	849,65	-0,00737	
50,46	-0,09860	114,17	849,71	-0,00781	
50,48	-0,09839	110,88	850,07	-0,00854	
50,50	-0,09847	110,27	849,95	-0,00937	
50,52	-0,09857	114,07	849,69	-0,01015	
50,54	-0,09824	112,38	849,85	-0,01073	
50,56	-0,09796	110,63	849,80	-0,01150	
50,58	-0,09795	115,18	849,61	-0,01325	
50,60	-0,09779	114,85	849,89	-0,01456	
50,62	-0,09767	112,01	849,97	-0,01506	
50,64	-0,09753	114,91	849,69	-0,01523	
50,66	-0,09721	115,42	849,78	-0,01529	
50,68	-0,09706	111,58	849,91	-0,01527	
50,70	-0,09723	113,72	849,65	-0,01518	
50,72	-0,09718	115,64	849,77	-0,01510	
50,74	-0,09697	111,35	850,06	-0,01506	
50,76	-0,09678	111,10	849,85	-0,01504	
50,78	-0,09663	114,70	849,67	-0,01514	
50,80	-0,09642	111,98	849,95	-0,01536	
50,82	-0,09644	110,63	849,93	-0,01543	
50,84	-0,09657	114,59	849,66	-0,01536	
50,86	-0,09622	113,26	849,82	-0,01531	
50,88	-0,09587	109,88	849,87	-0,01519	
50,90	-0,09588	113,17	849,63	-0,01509	
50,92	-0,09576	113,79	849,83	-0,01506	
50,94	-0,09561	109,87	849,97	-0,01512	
50,96	-0,09548	111,18	849,72	-0,01527	
50,98	-0,09517	112,35	849,82	-0,01539	
51,00	-0,09503	109,43	849,99	-0,01541	
51,02	-0,09518	111,19	849,73	-0,01536	
51,04	-0,09514	113,60	849,73	-0,01527	
51,06	-0,09480	110,41	849,98	-0,01524	
51,08	-0,09464	110,23	849,79	-0,01526	
51,10	-0,09456	113,50	849,68	-0,01527	
51,12	-0,09439	109,85	850,00	-0,01531	
51,14	-0,09443	107,76	849,94	-0,01541	
51,16	-0,09446	111,88	849,70	-0,01553	
51,18	-0,09402	110,45	849,91	-0,01548	
51,20	-0,09379	106,82	849,92	-0,01528	
51,22	-0,09387	110,51	849,64	-0,01520	
51,24	-0,09375	111,09	849,84	-0,01519	
51,26	-0,09347	107,11	850,05	-0,01529	
51,28	-0,09334	109,68	849,76	-0,01542	
51,30	-0,09318	112,34	849,71	-0,01551	
51,32	-0,09302	108,44	849,99	-0,01546	
51,34	-0,09310	108,37	849,85	-0,01536	
51,36	-0,09300	111,78	849,65	-0,01528	
51,38	-0,09256	108,69	849,93	-0,01526	
51,40	-0,09243	106,18	849,94	-0,01528	
51,42	-0,09254	109,83	849,68	-0,01530	
51,44	-0,09241	109,28	849,84	-0,01544	
51,46	-0,09217	105,94	849,91	-0,01558	
51,48	-0,09206	109,04	849,64	-0,01563	
51,50	-0,09184	110,20	849,82	-0,01561	
51,52	-0,09169	106,49	850,06	-0,01549	
51,54	-0,09164	107,88	849,80	-0,01532	
51,56	-0,09134	110,26	849,75	-0,01527	
51,58	-0,09107	107,20	849,92	-0,01532	
51,60	-0,09117	107,62	849,71	-0,01544	
51,62	-0,09116	109,96	849,72	-0,01560	
51,64	-0,09080	106,96	850,02	-0,01572	
51,66	-0,09059	106,45	849,88	-0,01525	
51,68	-0,09051	109,74	849,71	-0,02083	
51,70	-0,09033	107,80	849,88	-0,03609	
51,72	-0,09020	106,19	849,77	-0,01924	
51,74	-0,09002	109,30	849,62	0,02010	
51,76	-0,08976	108,25	849,93	0,04238	
51,78	-0,08974	106,68	849,94	0,04773	
51,80	-0,08985	109,97	849,68	0,04817	
51,82	-0,08951	109,13	849,88	0,04903	
51,84	-0,08920	106,31	849,94	0,05023	
51,86	-0,08921	109,82	849,69	0,05061	
51,88	-0,08907	110,56	849,83	0,04993	
51,90	-0,08894	107,11	849,93	0,04942	
51,92	-0,08883	109,79	849,65	0,04922	
51,94	-0,08851	111,35	849,80	0,04855	
51,96	-0,08833	107,63	850,02	0,04799	
51,98	-0,08847	108,65	849,77	0,04774	
52,00	-0,08838	111,21	849,71	0,04738	
52,02	-0,08794	108,05	849,92	0,04680	
52,04	-0,08782	108,85	849,75	0,04678	
52,06	-0,08781	112,49	849,67	0,04695	
52,08	-0,08767	110,15	849,97	0,04753	
52,10	-0,08754	108,95	849,89	0,04866	
52,12	-0,08736	112,48	849,65	0,04983	
52,14	-0,08707	111,66	849,84	0,05039	
52,16	-0,08705	110,06	849,83	0,05066	
52,18	-0,08717	113,22	849,63	0,05061	
52,20	-0,08696	112,44	849,89	0,05044	
52,22	-0,08664	109,24	849,99	0,05071	
52,24	-0,08659	112,27	849,69	0,05067	
52,26	-0,08645	113,47	849,79	0,05003	
52,28	-0,08634	110,01	850,00	0,04915	
52,30	-0,08648	111,75	849,76	0,04854	
52,32	-0,08626	114,08	849,71	0,04793	
52,34	-0,08582	110,65	849,95	0,04811	
52,36	-0,08578	110,87	849,78	0,04899	
52,38	-0,08582	115,25	849,66	0,05007	
52,40	-0,08566	112,66	849,97	0,05113	
52,42	-0,08550	110,90	849,92	0,05193	
52,44	-0,08534	115,20	849,67	0,05198	
52,46	-0,08506	113,92	849,88	0,05102	
52,48	-0,08501	110,16	849,94	0,05018	
52,50	-0,08518	114,25	849,66	0,04963	
52,52	-0,08500	115,43	849,85	0,04909	
52,54	-0,08462	111,01	850,04	0,04839	
52,56	-0,08454	112,99	849,78	0,04793	
52,58	-0,08442	115,44	849,75	0,04741	
52,60	-0,08431	112,47	849,87	0,04652	
52,62	-0,08439	113,62	849,64	0,04620	
52,64	-0,08406	115,40	849,72	0,04670	
52,66	-0,08369	112,19	850,03	0,04765	
52,68	-0,08374	112,42	849,85	0,04910	
52,70	-0,08379	115,81	849,71	0,05008	
52,72	-0,08357	113,73	849,91	0,05058	
52,74	-0,08335	113,41	849,78	0,05078	
52,76	-0,08321	117,11	849,65	0,05058	
52,78	-0,08299	114,89	849,95	0,05056	
52,80	-0,08302	112,81	849,92	0,05020	
52,82	-0,08315	116,02	849,67	0,04967	
52,84	-0,08293	115,07	849,85	0,04900	
52,86	-0,08261	112,17	849,91	0,04895	
52,88	-0,08254	115,05	849,65	0,04897	
52,90	-0,08237	115,27	849,80	0,04886	
52,92	-0,08230	112,43	849,93	0,04880	
52,94	-0,08239	114,92	849,67	0,04911	
52,96	-0,08204	116,23	849,74	0,04977	
52,98	-0,08169	112,49	849,94	0,05099	
53,00	-0,08176	113,52	849,71	0,05236	
53,02	-0,08175	116,44	849,73	0,05303	
53,04	-0,08155	113,74	849,99	0,05355	
53,06	-0,08138	113,42	849,81	0,05389	
53,08	-0,08119	116,05	849,66	0,05369	
53,10	-0,08097	113,05	849,92	0,05312	
53,12	-0,08100	111,26	849,87	0,05229	
53,14	-0,08111	115,26	849,64	0,05152	
53,16	-0,08090	113,97	849,84	0,05119	
53,18	-0,08063	110,85	849,86	0,05157	
53,20	-0,08054	114,30	849,63	0,05148	
53,22	-0,08034	114,98	849,81	0,05171	
53,24	-0,08027	112,38	849,92	0,05270	
53,26	-0,08044	115,51	849,66	0,05386	
53,28	-0,08018	116,80	849,78	0,05483	
53,30	-0,07978	113,02	850,01	0,05564	
53,32	-0,07978	114,23	849,77	0,05654	
53,34	-0,07974	116,86	849,71	0,05711	
53,36	-0,07960	113,79	849,91	0,05756	
53,38	-0,07964	114,06	849,74	0,05805	
53,40	-0,07939	117,75	849,65	0,05777	
53,42	-0,07902	115,35	849,94	0,05652	
53,44	-0,07901	114,12	849,84	0,05583	
53,46	-0,07911	117,44	849,66	0,05564	
53,48	-0,07896	115,70	849,94	0,05571	
53,50	-0,07877	113,41	849,95	0,05583	
53,52	-0,07861	116,53	849,68	0,05620	
53,54	-0,07832	115,89	849,83	0,05612	
53,56	-0,07824	112,50	849,91	0,05612	
53,58	-0,07842	115,47	849,64	0,05641	
53,60	-0,07833	116,80	849,79	0,05639	
53,62	-0,07803	113,14	850,00	0,05621	
53,64	-0,07790	114,44	849,73	0,05603	
53,66	-0,07774	117,02	849,71	0,05604	
53,68	-0,07756	113,20	850,01	0,05586	
53,70	-0,07764	112,53	849,88	0,05605	
53,72	-0,07765	115,78	849,68	0,05621	
53,74	-0,07722	113,09	849,88	0,05622	
53,76	-0,07704	111,26	849,82	0,05620	
53,78	-0,07708	115,12	849,63	0,05627	
53,80	-0,07693	113,83	849,90	0,05607	
53,82	-0,07684	110,75	849,94	0,05587	
53,84	-0,07672	114,35	849,66	0,05592	
53,86	-0,07639	114,78	849,85	0,05586	
53,88	-0,07623	110,57	850,04	0,05594	
53,90	-0,07638	112,41	849,76	0,05611	
53,92	-0,07634	113,62	849,73	0,05618	
53,94	-0,07603	109,83	849,92	0,05608	
53,96	-0,07587	110,95	849,71	0,05601	
53,98	-0,07575	113,73	849,69	0,05583	
54,00	-0,07558	110,64	850,02	0,05576	
54,02	-0,07559	109,99	849,89	0,05589	
54,04	-0,07538	113,80	849,69	0,05589	
54,06	-0,07500	111,73	849,93	0,05589	
54,08	-0,07496	109,46	849,90	0,05605	
54,10	-0,07510	112,97	849,65	0,05613	
54,12	-0,07489	112,20	849,88	0,05604	
54,14	-0,07455	108,52	849,96	0,05596	
54,16	-0,07448	111,36	849,69	0,05585	
54,18	-0,07431	111,93	849,78	0,05573	
54,20	-0,07422	108,67	849,91	0,05577	
54,22	-0,07429	110,64	849,67	0,05584	
54,24	-0,07395	112,44	849,75	0,05575	
54,26	-0,07361	109,15	849,98	0,05577	
54,28	-0,07367	110,13	849,76	0,05600	
54,30	-0,07366	113,07	849,71	0,05592	
54,32	-0,07332	110,36	849,95	0,05569	
54,34	-0,07313	110,03	849,78	0,05569	
54,36	-0,07307	113,83	849,67	0,05564	
54,38	-0,07290	111,69	849,98	0,05556	
54,40	-0,07286	109,46	849,93	0,05586	
54,42	-0,07268	112,49	849,68	0,05603	
54,44	-0,07232	111,67	849,88	0,05584	
54,46	-0,07223	109,17	849,92	0,05586	
54,48	-0,07237	112,73	849,66	0,05589	
54,50	-0,07226	113,10	849,83	0,05564	
54,52	-0,07201	109,56	849,95	0,05556	
54,54	-0,07188	112,46	849,68	0,05579	
54,56	-0,07165	114,49	849,79	0,05585	
54,58	-0,07150	110,93	850,00	0,05583	
54,60	-0,07144	112,37	849,74	0,05597	
54,62	-0,07115	115,15	849,72	0,05591	
54,64	-0,07087	111,59	850,02	0,05565	
54,66	-0,07093	111,52	849,87	0,05566	
54,68	-0,07102	115,50	849,68	0,05567	
54,70	-0,07081	112,77	849,95	0,05549	
54,72	-0,07057	110,74	849,92	0,05561	
54,74	-0,07045	114,84	849,69	0,05578	
54,76	-0,07023	113,78	849,85	0,05570	
54,78	-0,07015	110,74	849,83	0,05573	
54,80	-0,07002	113,83	849,61	0,05584	
54,82	-0,06965	113,16	849,88	0,05558	
54,84	-0,06951	109,39	850,04	0,05542	
54,86	-0,06969	112,09	849,74	0,05552	
54,88	-0,06957	113,57	849,77	0,05546	
54,90	-0,06916	110,21	849,93	0,05549	
54,92	-0,06907	112,66	849,69	0,05571	
54,94	-0,06899	115,47	849,69	0,05573	
54,96	-0,06884	111,30	850,02	0,05556	
54,98	-0,06873	109,98	849,90	0,05548	
55,00	-0,06851	113,72	849,68	0,05537	
55,02	-0,06822	111,78	849,89	0,05522	
55,04	-0,06823	110,42	849,84	0,05525	
55,06	-0,06837	114,94	849,63	0,05535	
55,08	-0,06804	113,93	849,90	0,05533	
55,10	-0,06770	109,69	850,00	0,05536	
55,12	-0,06769	112,14	849,71	0,05539	
55,14	-0,06755	112,85	849,81	0,05522	
55,16	-0,06727	109,18	849,99	0,05512	
55,18	-0,06715	110,74	849,73	0,05520	
55,20	-0,06698	112,56	849,73	0,05516	
55,22	-0,06682	108,50	849,99	0,05515	
55,24	-0,06686	108,65	849,80	0,05531	
55,26	-0,06663	112,45	849,66	0,05539	
55,28	-0,06624	109,41	849,98	0,05528	
55,30	-0,06620	107,39	849,94	0,05523	
55,32	-0,06633	111,73	849,67	0,05514	
55,34	-0,06600	110,77	849,88	0,05494	
55,36	-0,06566	107,33	849,97	0,05497	
55,38	-0,06570	111,17	849,69	0,05512	
55,40	-0,06559	112,59	849,84	0,05506	
55,42	-0,06543	108,50	850,04	0,05512	
55,44	-0,06528	109,99	849,76	0,05521	
55,46	-0,06501	112,17	849,76	0,05515	
55,48	-0,06481	108,35	849,99	0,05496	
55,50	-0,06493	108,56	849,79	0,05494	
55,52	-0,06478	112,19	849,69	0,05488	
55,54	-0,06434	109,55	849,96	0,05485	
55,56	-0,06424	108,80	849,86	0,05500	
55,58	-0,06430	112,35	849,68	0,05505	
55,60	-0,06410	110,42	849,91	0,05495	
55,62	-0,06383	108,72	849,88	0,05504	
55,64	-0,06372	112,31	849,65	0,05502	
55,66	-0,06352	111,75	849,88	0,05474	
55,68	-0,06340	108,83	849,95	0,05475	
55,70	-0,06327	111,98	849,66	0,05483	
55,72	-0,06295	112,81	849,83	0,05470	
55,74	-0,06279	109,53	850,02	0,05475	
55,76	-0,06295	111,56	849,75	0,05496	
55,78	-0,06285	113,14	849,74	0,05492	
55,80	-0,06242	109,36	849,97	0,05476	
55,82	-0,06230	110,01	849,77	0,05472	
55,84	-0,06225	113,26	849,67	0,05459	
55,86	-0,06205	110,50	849,95	0,05440	
55,88	-0,06184	109,78	849,86	0,05456	
55,90	-0,06170	113,71	849,67	0,05477	
55,92	-0,06149	111,80	849,88	0,05480	
55,94	-0,06144	109,47	849,84	0,05480	
55,96	-0,06127	113,44	849,62	0,05474	
55,98	-0,06089	113,17	849,90	0,05451	
56,00	-0,06077	109,74	850,03	0,05442	
56,02	-0,06095	112,78	849,72	0,05452	
56,04	-0,06080	113,97	849,77	0,05446	
56,06	-0,06041	110,34	849,94	0,05447	
56,08	-0,06032	112,36	849,72	0,05468	
56,10	-0,06023	114,66	849,69	0,05469	
56,12	-0,06004	111,19	849,92	0,05452	
56,14	-0,05988	111,35	849,74	0,05450	
56,16	-0,05967	114,66	849,68	0,05447	
56,18	-0,05945	112,00	850,03	0,05433	
56,20	-0,05951	110,41	849,96	0,05436	
56,22	-0,05956	114,57	849,70	0,05441	
56,24	-0,05914	113,20	849,89	0,05437	
56,26	-0,05889	110,28	849,90	0,05447	
56,28	-0,05896	113,71	849,64	0,05461	
56,30	-0,05883	113,31	849,87	0,05447	
56,32	-0,05859	109,41	850,01	0,05429	
56,34	-0,05846	111,95	849,73	0,05423	
56,36	-0,05822	113,45	849,80	0,05409	
56,38	-0,05809	109,82	849,94	0,05411	
56,40	-0,05807	110,81	849,69	0,05432	
56,42	-0,05774	112,38	849,77	0,05435	
56,44	-0,05746	108,96	850,04	0,05434	
56,46	-0,05756	109,19	849,82	0,05445	
56,48	-0,05759	112,43	849,71	0,05437	
56,50	-0,05727	109,61	849,95	0,05418	
56,52	-0,05706	109,12	849,82	0,05414	
56,54	-0,05698	112,98	849,67	0,05406	
56,56	-0,05680	110,52	849,98	0,05395	
56,58	-0,05663	107,38	849,96	0,05416	
56,60	-0,05647	111,07	849,69	0,05430	
56,62	-0,05617	110,41	849,91	0,05416	
56,64	-0,05610	107,24	850,00	0,05404	
56,66	-0,05625	110,75	849,71	0,05398	
56,68	-0,05597	111,56	849,82	0,05377	
56,70	-0,05561	107,44	849,96	0,05369	
56,72	-0,05561	109,43	849,70	0,05393	
56,74	-0,05551	111,38	849,77	0,05393	
56,76	-0,05522	107,68	850,00	0,05391	
56,78	-0,05506	108,23	849,78	0,05410	
56,80	-0,05491	111,12	849,70	0,05413	
56,82	-0,05473	108,08	849,95	0,05398	
56,84	-0,05465	107,99	849,81	0,05390	
56,86	-0,05444	111,43	849,64	0,05374	
56,88	-0,05412	108,76	849,93	0,05361	
56,90	-0,05410	106,95	849,92	0,05382	
56,92	-0,05419	111,52	849,67	0,05395	
56,94	-0,05377	110,73	849,89	0,05386	
56,96	-0,05350	107,41	849,98	0,05390	
56,98	-0,05357	110,77	849,69	0,05392	
57,00	-0,05341	111,50	849,79	0,05370	
57,02	-0,05304	107,24	849,95	0,05355	
57,04	-0,05298	109,25	849,69	0,05360	
57,06	-0,05285	111,43	849,72	0,05358	
57,08	-0,05265	107,80	849,95	0,05368	
57,10	-0,05250	108,35	849,74	0,05392	
57,12	-0,05229	111,59	849,69	0,05388	
57,14	-0,05206	108,69	850,02	0,05367	
57,16	-0,05210	107,66	849,93	0,05359	
57,18	-0,05206	111,36	849,66	0,05352	
57,20	-0,05164	109,55	849,89	0,05341	
57,22	-0,05145	106,60	849,96	0,05349	
57,24	-0,05157	110,53	849,69	0,05368	
57,26	-0,05141	110,90	849,82	0,05363	
57,28	-0,05105	106,73	849,93	0,05365	
57,30	-0,05095	109,11	849,66	0,05376	
57,32	-0,05078	110,93	849,80	0,05357	
57,34	-0,05062	107,00	850,03	0,05338	
57,36	-0,05050	108,51	849,78	0,05341	
57,38	-0,05023	111,61	849,76	0,05331	
57,40	-0,05002	108,38	850,01	0,05331	
57,42	-0,05008	108,55	849,82	0,05354	
57,44	-0,04984	111,95	849,70	0,05358	
57,46	-0,04946	108,60	849,94	0,05350	
57,48	-0,04948	106,92	849,80	0,05349	
57,50	-0,04952	110,17	849,70	0,05335	
57,52	-0,04918	108,31	849,95	0,05317	
57,54	-0,04896	106,47	849,85	0,05324	
57,56	-0,04890	110,34	849,68	0,05331	
57,58	-0,04871	109,83	849,96	0,05329	
57,60	-0,04854	108,12	849,94	0,05347	
57,62	-0,04838	111,54	849,68	0,05358	
57,64	-0,04810	110,79	849,85	0,05346	
57,66	-0,04805	108,07	849,86	0,05342	
57,68	-0,04820	111,09	849,64	0,05330	
57,70	-0,04790	111,77	849,85	0,05304	
57,72	-0,04755	109,04	849,96	0,05310	
57,74	-0,04755	111,84	849,69	0,05332	
57,76	-0,04743	113,35	849,77	0,05332	
57,78	-0,04716	109,98	849,93	0,05340	
57,80	-0,04703	112,29	849,67	0,05353	
57,82	-0,04684	115,22	849,71	0,05340	
57,84	-0,04669	111,67	849,98	0,05321	
57,86	-0,04682	111,66	849,80	0,05315	
57,88	-0,04664	114,39	849,70	0,05306	
57,90	-0,04618	111,14	849,90	0,05303	
57,92	-0,04612	110,60	849,75	0,05325	
57,94	-0,04615	114,26	849,65	0,05335	
57,96	-0,04595	112,04	850,00	0,05330	
57,98	-0,04569	109,38	849,99	0,05339	
58,00	-0,04559	112,70	849,71	0,05333	
58,02	-0,04540	112,61	849,87	0,05304	
58,04	-0,04539	110,25	849,92	0,05298	
58,06	-0,04535	113,02	849,67	0,05305	
58,08	-0,04492	112,71	849,81	0,05298	
58,10	-0,04470	109,31	849,93	0,05306	
58,12	-0,04484	111,96	849,68	0,05326	
58,14	-0,04476	113,57	849,79	0,05318	
58,16	-0,04448	110,27	849,97	0,05296	
58,18	-0,04435	111,93	849,70	0,05289	
58,20	-0,04416	114,19	849,74	0,05271	
58,22	-0,04400	110,68	850,05	0,05265	
58,24	-0,04394	110,46	849,87	0,05286	
58,26	-0,04370	113,36	849,72	0,05291	
58,28	-0,04339	110,73	849,92	0,05280	
58,30	-0,04342	109,58	849,80	0,05287	
58,32	-0,04350	112,57	849,65	0,05285	
58,34	-0,04317	110,31	849,96	0,05260	
58,36	-0,04289	107,98	849,96	0,05261	
58,38	-0,04289	111,84	849,67	0,05267	
58,40	-0,04274	110,86	849,88	0,05256	
58,42	-0,04260	106,62	850,03	0,05266	
58,44	-0,04249	109,61	849,73	0,05284	
58,46	-0,04220	111,42	849,80	0,05281	
58,48	-0,04200	107,39	850,01	0,05271	
58,50	-0,04214	109,17	849,77	0,05263	
58,52	-0,04206	112,11	849,75	0,05242	
58,54	-0,04166	108,32	849,98	0,05232	
58,56	-0,04154	107,40	849,78	0,05245	
58,58	-0,04150	110,56	849,69	0,05246	
58,60	-0,04127	107,93	850,00	0,05243	
58,62	-0,04106	106,60	849,91	0,05259	
58,64	-0,04092	110,32	849,68	0,05267	
58,66	-0,04070	109,18	849,88	0,05247	
58,68	-0,04071	107,03	849,87	0,05240	
58,70	-0,04079	111,03	849,66	0,05241	
58,72	-0,04038	110,60	849,92	0,05230	
58,74	-0,04011	107,49	849,97	0,05239	
58,76	-0,04019	110,86	849,69	0,05256	
58,78	-0,04007	111,65	849,85	0,05246	
58,80	-0,03982	108,09	849,95	0,05237	
58,82	-0,03968	109,69	849,69	0,05231	
58,84	-0,03944	110,51	849,81	0,05213	
58,86	-0,03932	106,55	850,02	0,05209	
58,88	-0,03948	107,58	849,76	0,05224	
58,90	-0,03943	110,92	849,70	0,05227	
58,92	-0,03900	108,16	849,98	0,05224	
58,94	-0,03885	108,03	849,84	0,05237	
58,96	-0,03884	111,46	849,68	0,05240	
58,98	-0,03863	108,93	849,93	0,05222	
59,00	-0,03840	107,06	849,86	0,05215	
59,02	-0,03828	111,10	849,65	0,05207	
59,04	-0,03805	109,97	849,91	0,05184	
59,06	-0,03803	106,88	849,97	0,05191	
59,08	-0,03813	109,61	849,68	0,05215	
59,10	-0,03774	109,35	849,84	0,05210	
59,12	-0,03740	105,75	850,01	0,05213	
59,14	-0,03748	108,41	849,72	0,05229	
59,16	-0,03743	110,31	849,74	0,05218	
59,18	-0,03713	106,54	849,97	0,05192	
59,20	-0,03696	107,21	849,77	0,05194	
59,22	-0,03680	110,05	849,72	0,05187	
59,24	-0,03664	107,30	849,97	0,05190	
59,26	-0,03657	106,47	849,81	0,05216	
59,28	-0,03636	109,88	849,67	0,05226	
59,30	-0,03606	107,66	849,97	0,05217	
59,32	-0,03604	105,41	849,93	0,05219	
59,34	-0,03617	108,80	849,67	0,05209	
59,36	-0,03587	107,49	849,93	0,05182	
59,38	-0,03555	103,83	850,02	0,05176	
59,40	-0,03554	107,14	849,72	0,05190	
59,42	-0,03540	108,10	849,82	0,05189	
59,44	-0,03525	103,86	849,95	0,05195	
59,46	-0,03514	105,33	849,69	0,05212	
59,48	-0,03483	106,75	849,80	0,05201	
59,50	-0,03428	103,07	850,04	0,05179	
59,52	-0,02448	103,79	849,79	0,05173	
59,54	-0,00803	106,70	849,72	0,05167	
59,56	0,00091	103,93	849,96	0,05165	
59,58	0,00278	103,64	849,81	0,05184	
59,60	0,00284	107,21	849,68	0,05188	
59,62	0,00297	104,62	849,96	0,05182	
59,64	0,00290	103,13	849,88	0,05197	
59,66	0,00279	107,50	849,66	0,05198	
59,68	0,00308	106,50	849,93	0,05172	
59,70	0,00337	103,44	849,96	0,05158	
59,72	0,00344	106,75	849,69	0,05155	
59,74	0,00362	106,66	849,88	0,05148	
59,76	0,00383	103,66	850,00	0,05156	
59,78	0,00398	107,74	849,71	0,05166	
59,80	0,00439	112,34	849,76	0,05137	
59,82	0,00512	114,84	849,93	0,05088	
59,84	0,00630	127,57	849,69	0,05029	
59,86	0,00843	146,41	849,74	0,04939	
59,88	0,01144	165,60	850,03	0,04837	
59,90	0,01496	194,49	849,84	0,04734	
59,92	0,01935	232,03	849,73	0,04607	
59,94	0,02474	268,38	849,99	0,04443	
59,96	0,03079	310,18	849,86	0,04257	
59,98	0,03755	359,75	849,68	0,04030	
60,00	0,04532	404,96	849,94	0,03751	
60,02	0,05377	450,34	849,91	0,03422	
60,04	0,06287	501,65	849,69	0,03044	
60,06	0,07292	547,80	849,90	0,02623	
60,08	0,08365	588,78	849,92	0,02158	
60,10	0,09509	632,30	849,65	0,01636	
60,12	0,1077	669,51	849,86	0,01046	
60,14	0,1212	699,11	850,02	0,00401	
60,16	0,1350	730,28	849,74	-0,00313	
60,18	0,1497	755,76	849,80	-0,01113	
60,20	0,1654	772,88	849,97	-0,01965	
60,22	0,1818	792,35	849,72	-0,02859	
60,24	0,1991	809,19	849,75	-0,03804	
60,26	0,2172	818,45	849,96	-0,04787	
60,28	0,2358	830,63	849,75	-0,05824	
60,30	0,2554	843,49	849,71	-0,06918	
60,32	0,2762	848,98	850,02	-0,08049	
60,34	0,2974	856,74	849,88	-0,09231	
60,36	0,3193	868,41	849,70	-0,1046	
60,38	0,3422	872,94	849,97	-0,1170	
60,40	0,3659	877,34	849,92	-0,1297	
60,42	0,3901	887,36	849,68	-0,1427	
60,44	0,4154	892,31	849,91	-0,1559	
60,46	0,4414	895,59	849,96	-0,1694	
60,48	0,4681	905,57	849,69	-0,1833	
60,50	0,4958	912,04	849,89	-0,1976	
60,52	0,5244	914,37	850,06	-0,2119	
60,54	0,5536	923,29	849,77	-0,2266	
60,56	0,5837	930,51	849,82	-0,2413	
60,58	0,6145	931,83	849,98	-0,2561	
60,60	0,6460	938,87	849,73	-0,2712	
60,62	0,6785	946,41	849,77	-0,2866	
60,64	0,7119	948,01	850,04	-0,3023	
60,66	0,7458	954,09	849,82	-0,3183	
60,68	0,7806	962,78	849,74	-0,3345	
60,70	0,8163	964,55	850,02	-0,3506	
60,72	0,8526	969,35	849,88	-0,3670	
60,74	0,8898	977,90	849,70	-0,3835	
60,76	0,9281	980,29	849,94	-0,3999	
60,78	0,9668	983,65	849,89	-0,4163	
60,80	1,006	991,82	849,68	-0,4327	
60,82	1,046	993,39	849,95	-0,4489	
60,84	1,086	993,86	849,98	-0,4650	
60,86	1,125	1001,2	849,71	-0,4809	
60,88	1,165	1004,6	849,91	-0,4967	
60,90	1,206	1003,5	850,02	-0,5122	
60,92	1,245	1009,0	849,71	-0,5277	
60,94	1,285	1013,2	849,84	-0,5433	
60,96	1,326	1011,9	850,07	-0,5587	
60,98	1,365	1016,0	849,80	-0,5741	
61,00	1,405	1020,6	849,77	-0,5895	
61,02	1,445	1018,8	850,03	-0,6046	
61,04	1,485	1021,1	849,84	-0,6195	
61,06	1,525	1026,6	849,72	-0,6346	
61,08	1,566	1025,2	850,00	-0,6495	
61,10	1,605	1026,0	849,89	-0,6644	
61,12	1,645	1032,0	849,70	-0,6793	
61,14	1,685	1031,1	849,99	-0,6941	
61,16	1,726	1029,8	849,98	-0,7088	
61,18	1,765	1034,9	849,71	-0,7235	
61,20	1,806	1036,0	849,92	-0,7380	
61,22	1,846	1034,0	849,99	-0,7524	
61,24	1,885	1038,9	849,72	-0,7667	
61,26	1,926	1040,6	849,92	-0,7812	
61,28	1,966	1037,6	850,09	-0,7956	
61,30	2,005	1041,0	849,79	-0,8100	
61,32	2,045	1044,2	849,84	-0,8243	
61,34	2,086	1041,5	850,05	-0,8385	
61,36	2,125	1043,9	849,79	-0,8526	
61,38	2,166	1048,2	849,77	-0,8666	
61,40	2,206	1045,3	850,12	-0,8807	
61,42	2,246	1045,4	849,99	-0,8947	
61,44	2,285	1050,1	849,77	-0,9088	
61,46	2,326	1048,2	850,00	-0,9228	
61,48	2,366	1046,5	849,95	-0,9367	
61,50	2,405	1050,8	849,73	-0,9507	
61,52	2,446	1050,3	850,01	-0,9646	
61,54	2,486	1048,0	850,06	-0,9783	
61,56	2,525	1051,8	849,75	-0,9920	
61,58	2,566	1052,6	849,93	-1,006	
61,60	2,606	1050,3	850,07	-1,019	
61,62	2,645	1054,1	849,77	-1,033	
61,64	2,686	1056,2	849,90	-1,047	
61,66	2,726	1053,1	850,12	-1,060	
61,68	2,765	1055,1	849,84	-1,074	
61,70	2,805	1057,1	849,85	-1,087	
61,72	2,846	1053,6	850,05	-1,100	
61,74	2,886	1055,0	849,82	-1,114	
61,76	2,926	1058,4	849,83	-1,127	
61,78	2,966	1056,0	850,09	-1,140	
61,80	3,006	1056,0	849,89	-1,154	
61,82	3,045	1058,3	849,81	-1,167	
61,84	3,086	1055,8	850,04	-1,180	
61,86	3,126	1055,8	849,86	-1,193	
61,88	3,165	1059,9	849,75	-1,206	
61,90	3,206	1058,1	850,08	-1,219	
61,92	3,246	1056,7	850,02	-1,232	
61,94	3,285	1060,4	849,76	-1,245	
61,96	3,326	1059,0	850,00	-1,258	
61,98	3,366	1056,4	850,02	-1,271	
62,00	3,405	1060,0	849,74	-1,283	
62,02	3,446	1059,4	849,96	-1,296	
62,04	3,486	1055,8	850,08	-1,309	
62,06	3,526	1058,9	849,78	-1,321	
62,08	3,566	1060,2	849,89	-1,334	
62,10	3,606	1056,6	850,06	-1,347	
62,12	3,646	1058,5	849,78	-1,359	
62,14	3,686	1059,8	849,82	-1,372	
62,16	3,726	1056,1	850,02	-1,384	
62,18	3,766	1057,1	849,76	-1,397	
62,20	3,806	1059,3	849,82	-1,409	
62,22	3,846	1056,1	850,19	-1,421	
62,24	3,886	1056,2	850,01	-1,433	
62,26	3,925	1060,5	849,79	-1,446	
62,28	3,966	1057,9	850,08	-1,458	
62,30	4,006	1056,0	850,03	-1,470	
62,32	4,046	1059,8	849,77	-1,482	
62,34	4,086	1057,2	850,01	-1,494	
62,36	4,126	1053,4	850,05	-1,506	
62,38	4,165	1057,2	849,77	-1,518	
62,40	4,205	1057,4	850,00	-1,530	
62,42	4,246	1054,1	850,10	-1,542	
62,44	4,285	1056,6	849,80	-1,554	
62,46	4,325	1057,2	849,95	-1,565	
62,48	4,365	1053,3	850,13	-1,577	
62,50	4,405	1055,2	849,84	-1,588	
62,52	4,445	1056,5	849,90	-1,600	
62,54	4,485	1052,6	850,12	-1,612	
62,56	4,525	1052,9	849,86	-1,623	
62,58	4,565	1054,5	849,88	-1,635	
62,60	4,605	1050,6	850,17	-1,646	
62,62	4,645	1050,6	849,94	-1,657	
62,64	4,685	1053,3	849,83	-1,668	
62,66	4,726	1049,6	850,21	-1,680	
62,68	4,766	1048,2	850,14	-1,691	
62,70	4,805	1053,2	849,81	-1,702	
62,72	4,846	1051,5	850,19	-1,713	
62,74	4,886	1046,9	850,41	-1,724	
62,76	4,925	1049,5	849,98	-1,735	
62,78	4,965	1051,0	849,98	-1,745	
62,80	5,006	1045,7	850,40	-1,756	
62,82	5,046	1045,2	850,24	-1,767	
62,84	5,085	1049,3	849,87	-1,778	
62,86	5,126	1045,7	850,32	-1,788	
62,88	5,166	1041,0	850,60	-1,799	
62,90	5,205	1044,0	850,13	-1,809	
62,92	5,245	1046,2	849,98	-1,820	
62,94	5,286	1040,7	850,59	-1,830	
62,96	5,325	1039,0	850,67	-1,840	
62,98	5,365	1043,0	850,07	-1,850	
63,00	5,405	1043,5	850,05	-1,861	
63,02	5,445	1037,3	850,68	-1,871	
63,04	5,485	1037,4	850,66	-1,881	
63,06	5,525	1041,3	850,02	-1,891	
63,08	5,565	1039,4	850,13	-1,901	
63,10	5,605	1033,2	850,84	-1,911	
63,12	5,645	1033,7	850,81	-1,920	
63,14	5,685	1037,5	850,11	-1,930	
63,16	5,725	1036,5	850,15	-1,939	
63,18	5,766	1030,5	850,95	-1,949	
63,20	5,806	1030,5	851,02	-1,959	
63,22	5,845	1033,1	850,30	-1,968	
63,24	5,885	1032,8	850,01	-1,978	
63,26	5,926	1027,0	850,91	-1,987	
63,28	5,966	1025,3	851,38	-1,996	
63,30	6,005	1026,9	850,87	-2,005	
63,32	6,045	1027,5	850,02	-2,014	
63,34	6,085	1025,2	850,24	-2,023	
63,36	6,125	1022,6	851,14	-2,032	
63,38	6,166	1022,6	851,20	-2,040	
63,40	6,205	1022,6	850,45	-2,049	
63,42	6,245	1022,4	849,95	-2,058	
63,44	6,286	1017,7	850,71	-2,067	
63,46	6,326	1015,8	851,25	-2,075	
63,48	6,366	1017,3	850,81	-2,083	
63,50	6,405	1018,4	850,02	-2,092	
63,52	6,445	1014,7	850,39	-2,100	
63,54	6,486	1011,1	851,26	-2,108	
63,56	6,526	1012,3	851,20	-2,116	
63,58	6,565	1013,2	850,40	-2,124	
63,60	6,605	1012,0	849,96	-2,132	
63,62	6,645	1007,3	850,90	-2,140	
63,64	6,685	1006,0	851,53	-2,148	
63,66	6,725	1006,5	851,10	-2,156	
63,68	6,765	1006,4	850,19	-2,163	
63,70	6,805	1004,7	850,13	-2,171	
63,72	6,845	1000,9	851,22	-2,179	
63,74	6,885	1000,1	851,61	-2,186	
63,76	6,925	999,57	851,00	-2,193	
63,78	6,965	999,19	850,09	-2,201	
63,80	7,005	997,03	850,28	-2,208	
63,82	7,045	994,18	851,42	-2,215	
63,84	7,085	993,11	851,70	-2,222	
63,86	7,125	992,00	851,01	-2,228	
63,88	7,165	990,78	850,09	-2,235	
63,90	7,205	988,54	850,22	-2,241	
63,92	7,245	986,75	851,11	-2,248	
63,94	7,285	985,80	851,20	-2,254	
63,96	7,325	985,11	850,46	-2,261	
63,98	7,365	983,98	849,95	-2,267	
64,00	7,405	978,87	850,81	-2,273	
64,02	7,445	976,76	851,50	-2,279	
64,04	7,485	977,25	851,13	-2,285	
64,06	7,525	977,06	850,24	-2,291	
64,08	7,565	974,55	850,08	-2,296	
64,10	7,605	969,87	850,98	-2,302	
64,12	7,645	968,66	851,27	-2,307	
64,14	7,685	968,27	850,64	-2,313	
64,16	7,725	967,50	849,94	-2,318	
64,18	7,765	962,79	850,63	-2,323	
64,20	7,806	959,63	851,55	-2,328	
64,22	7,845	959,25	851,40	-2,333	
64,24	7,885	957,90	850,55	-2,337	
64,26	7,925	956,30	849,94	-2,342	
64,28	7,965	952,38	850,67	-2,347	
64,30	8,005	949,46	851,29	-2,352	
64,32	8,045	947,93	850,91	-2,356	
64,34	8,085	946,71	850,05	-2,360	
64,36	8,125	942,95	850,31	-2,364	
64,38	8,165	937,24	851,55	-2,368	
64,40	8,205	935,32	851,88	-2,372	
64,42	8,245	933,78	851,22	-2,375	
64,44	8,285	930,73	850,27	-2,379	
64,46	8,325	927,79	850,00	-2,383	
64,48	8,365	924,54	850,94	-2,386	
64,50	8,405	921,18	851,39	-2,389	
64,52	8,445	917,86	850,83	-2,392	
64,54	8,485	915,94	850,01	-2,395	
64,56	8,525	910,90	850,38	-2,398	
64,58	8,565	906,06	851,28	-2,401	
64,60	8,605	903,70	851,25	-2,404	
64,62	8,645	901,08	850,48	-2,406	
64,64	8,685	898,35	849,90	-2,408	
64,66	8,725	892,08	850,77	-2,411	
64,68	8,765	886,75	851,58	-2,413	
64,70	8,805	883,36	851,29	-2,415	
64,72	8,845	879,39	850,39	-2,416	
64,74	8,885	874,75	849,98	-2,418	
64,76	8,925	867,44	850,88	-2,420	
64,78	8,965	862,58	851,45	-2,422	
64,80	9,005	858,19	851,00	-2,423	
64,82	9,045	853,12	850,12	-2,424	
64,84	9,085	846,20	850,15	-2,426	
64,86	9,125	837,35	851,23	-2,427	
64,88	9,165	831,00	851,57	-2,428	
64,90	9,205	825,43	850,96	-2,429	
64,92	9,245	819,80	850,06	-2,429	
64,94	9,285	812,25	850,20	-2,430	
64,96	9,325	803,04	851,31	-2,431	
64,98	9,365	794,08	851,61	-2,430	
65,00	9,405	781,06	851,00	-2,429	
65,02	9,443	762,35	850,10	-2,428	
65,04	9,473	736,85	850,11	-2,427	
65,06	9,490	705,00	851,14	-2,427	
65,08	9,497	670,22	851,47	-2,426	
65,10	9,500	637,14	850,87	-2,426	
65,12	9,502	608,95	850,01	-2,425	
65,14	9,502	583,45	850,28	-2,425	
65,16	9,503	561,15	851,31	-2,424	
65,18	9,503	542,96	851,47	-2,424	
65,20	9,503	526,27	850,77	-2,423	
65,22	9,503	511,26	849,96	-2,423	
65,24	9,503	495,93	850,46	-2,423	
65,26	9,503	482,68	851,51	-2,423	
65,28	9,503	471,88	851,56	-2,423	
65,30	9,503	461,82	850,80	-2,422	
65,32	9,503	452,60	849,97	-2,422	
65,34	9,503	442,33	850,38	-2,422	
65,36	9,503	433,05	851,35	-2,422	
65,38	9,503	425,92	851,38	-2,421	
65,40	9,503	419,32	850,63	-2,421	
65,42	9,503	413,13	849,92	-2,421	
65,44	9,503	404,50	850,60	-2,421	
65,46	9,503	396,06	851,51	-2,421	
65,48	9,503	390,71	851,38	-2,421	
65,50	9,503	385,71	850,55	-2,420	
65,52	9,503	380,40	849,93	-2,420	
65,54	9,503	372,77	850,76	-2,420	
65,56	9,503	366,25	851,59	-2,420	
65,58	9,503	361,61	851,34	-2,420	
65,60	9,503	358,62	850,47	-2,419	
65,62	9,503	358,12	849,91	-2,419	
65,64	9,503	356,93	850,72	-2,419	
65,66	9,503	356,42	851,41	-2,419	
65,68	9,503	356,64	851,07	-2,419	
65,70	9,503	357,36	850,21	-2,419	
65,72	9,503	357,76	850,08	-2,419	
65,74	9,503	356,70	851,17	-2,419	
65,76	9,503	356,43	851,64	-2,419	
65,78	9,503	356,70	851,11	-2,419	
65,80	9,503	357,33	850,19	-2,418	
65,82	9,503	357,54	850,07	-2,418	
65,84	9,503	356,58	851,01	-2,418	
65,86	9,503	356,39	851,33	-2,418	
65,88	9,503	356,75	850,73	-2,418	
65,90	9,503	357,92	849,96	-2,418	
65,92	9,503	357,32	850,57	-2,418	
65,94	9,503	356,44	851,60	-2,418	
65,96	9,503	356,60	851,58	-2,418	
65,98	9,503	356,93	850,78	-2,417	
66,00	9,503	357,89	849,96	-2,417	
66,02	9,503	357,34	850,48	-2,417	
66,04	9,503	356,50	851,52	-2,417	
66,06	9,503	356,15	851,55	-2,417	
66,08	9,503	333,90	850,77	-2,417	
66,10	9,503	290,34	849,78	-2,417	
66,12	9,503	266,72	848,80	-2,416	
66,14	9,503	266,87	847,83	-2,416	
66,16	9,503	273,28	846,87	-2,416	
66,18	9,503	278,73	845,91	-2,415	
66,20	9,503	284,37	844,96	-2,415	
66,22	9,503	290,01	844,02	-2,415	
66,24	9,503	295,19	843,08	-2,415	
66,26	9,503	301,08	842,16	-2,415	
66,28	9,503	307,69	841,23	-2,414	
66,30	9,503	314,25	840,29	-2,414	
66,32	9,503	319,60	839,34	-2,414	
66,34	9,503	324,75	838,40	-2,413	
66,36	9,503	329,65	837,47	-2,413	
66,38	9,503	334,30	836,54	-2,413	
66,40	9,503	338,72	835,61	-2,413	
66,42	9,503	343,08	834,69	-2,412	
66,44	9,503	348,09	833,78	-2,412	
66,46	9,503	352,79	832,87	-2,412	
66,48	9,503	356,88	831,97	-2,411	
66,50	9,503	361,08	831,07	-2,411	
66,52	9,503	365,53	830,17	-2,411	
66,54	9,503	369,76	829,26	-2,411	
66,56	9,503	373,49	828,34	-2,411	
66,58	9,503	377,13	827,43	-2,410	
66,60	9,503	381,20	826,53	-2,410	
66,62	9,503	385,08	825,63	-2,410	
66,64	9,503	388,62	824,73	-2,409	
66,66	9,503	391,99	823,83	-2,409	
66,68	9,503	395,13	822,94	-2,409	
66,70	9,503	397,75	822,05	-2,409	
66,72	9,503	400,62	821,16	-2,408	
66,74	9,503	403,79	820,28	-2,408	
66,76	9,503	407,07	819,38	-2,408	
66,78	9,503	410,41	818,48	-2,408	
66,80	9,503	413,23	817,59	-2,407	
66,82	9,503	415,86	816,70	-2,407	
66,84	9,503	418,86	815,81	-2,407	
66,86	9,503	421,91	814,94	-2,407	
66,88	9,503	424,48	814,06	-2,406	
66,90	9,503	427,28	813,18	-2,406	
66,92	9,503	429,96	812,30	-2,406	
66,94	9,503	432,61	811,44	-2,406	
66,96	9,503	435,45	810,60	-2,405	
66,98	9,503	437,94	809,75	-2,405	
67,00	9,503	440,17	808,89	-2,405	
67,02	9,503	442,45	808,02	-2,405	
67,04	9,503	444,65	807,15	-2,404	
67,06	9,503	446,79	806,29	-2,404	
67,08	9,503	449,02	805,43	-2,404	
67,10	9,503	450,71	804,57	-2,403	
67,12	9,503	452,46	803,72	-2,403	
67,14	9,503	454,53	802,86	-2,403	
67,16	9,503	456,58	801,99	-2,403	
67,18	9,503	458,35	801,14	-2,402	
67,20	9,503	460,08	800,29	-2,402	
67,22	9,503	461,67	799,45	-2,402	
67,24	9,503	463,32	798,61	-2,402	
67,26	9,503	464,39	797,78	-2,401	
67,28	9,503	465,90	796,94	-2,401	
67,30	9,503	467,27	796,11	-2,400	
67,32	9,503	468,53	795,29	-2,400	
67,34	9,503	470,10	794,47	-2,400	
67,36	9,503	470,97	793,66	-2,400	
67,38	9,503	472,00	792,86	-2,400	
67,40	9,503	473,58	792,05	-2,399	
67,42	9,503	474,48	791,25	-2,399	
67,44	9,503	474,71	790,46	-2,399	
67,46	9,503	475,49	789,65	-2,398	
67,48	9,503	476,92	788,85	-2,398	
67,50	9,503	477,77	788,07	-2,398	
67,52	9,503	477,97	787,29	-2,398	
67,54	9,503	477,95	786,51	-2,397	
67,56	9,503	477,98	785,74	-2,397	
67,58	9,503	478,03	784,97	-2,397	
67,60	9,503	478,00	784,20	-2,396	
67,62	9,503	477,94	783,44	-2,396	
67,64	9,503	477,95	782,67	-2,396	
67,66	9,503	477,96	781,91	-2,396	
67,68	9,503	477,97	781,16	-2,396	
67,70	9,503	477,93	780,42	-2,395	
67,72	9,503	477,90	779,67	-2,395	
67,74	9,503	477,87	778,92	-2,395	
67,76	9,503	477,67	778,17	-2,394	
67,78	9,503	476,39	777,43	-2,394	
67,80	9,503	475,06	776,69	-2,394	
67,82	9,503	474,35	775,95	-2,394	
67,84	9,503	473,00	775,22	-2,393	
67,86	9,503	471,72	774,50	-2,393	
67,88	9,503	470,47	773,77	-2,393	
67,90	9,503	468,92	773,04	-2,393	
67,92	9,503	467,85	772,32	-2,392	
67,94	9,503	466,34	771,61	-2,392	
67,96	9,503	464,34	770,91	-2,392	
67,98	9,503	462,11	770,20	-2,392	
68,00	9,503	459,82	769,50	-2,391	
68,02	9,503	457,58	768,80	-2,391	
68,04	9,503	455,39	768,11	-2,391	
68,06	9,503	453,14	767,42	-2,391	
68,08	9,503	450,86	766,72	-2,390	
68,10	9,503	448,61	766,01	-2,390	
68,12	9,503	446,14	765,31	-2,390	
68,14	9,503	443,10	764,62	-2,390	
68,16	9,503	440,01	763,94	-2,390	
68,18	9,503	437,40	763,26	-2,389	
68,20	9,503	434,59	762,58	-2,389	
68,22	9,503	431,93	761,91	-2,389	
68,24	9,503	429,33	761,24	-2,389	
68,26	9,503	426,30	760,58	-2,388	
68,28	9,503	423,02	759,91	-2,388	
68,30	9,503	419,65	759,25	-2,388	
68,32	9,503	416,27	758,58	-2,388	
68,34	9,503	412,90	757,92	-2,388	
68,36	9,503	409,51	757,28	-2,388	
68,38	9,503	406,34	756,64	-2,387	
68,40	9,503	403,78	755,99	-2,387	
68,42	9,503	401,03	755,34	-2,387	
68,44	9,503	397,85	754,70	-2,387	
68,46	9,503	394,26	754,08	-2,387	
68,48	9,503	390,19	753,45	-2,387	
68,50	9,503	386,31	752,82	-2,386	
68,52	9,503	382,77	752,18	-2,386	
68,54	9,503	379,40	751,55	-2,386	
68,56	9,503	376,07	750,92	-2,386	
68,58	9,503	372,71	750,30	-2,386	
68,60	9,503	369,36	749,69	-2,386	
68,62	9,503	366,01	749,09	-2,386	
68,64	9,503	362,64	748,49	-2,386	
68,66	9,503	359,33	747,90	-2,385	
68,68	9,503	355,40	747,33	-2,385	
68,70	9,503	351,23	746,76	-2,385	
68,72	9,503	347,52	746,19	-2,385	
68,74	9,503	343,92	745,63	-2,385	
68,76	9,503	339,88	745,06	-2,385	
68,78	9,503	335,96	744,51	-2,385	
68,80	9,503	332,38	743,95	-2,385	
68,82	9,503	329,03	743,40	-2,385	
68,84	9,503	325,72	742,86	-2,385	
68,86	9,503	321,79	742,33	-2,385	
68,88	9,503	317,43	741,81	-2,385	
68,90	9,503	312,91	741,30	-2,385	
68,92	9,503	308,29	740,79	-2,385	
68,94	9,503	303,81	740,29	-2,385	
68,96	9,503	299,45	739,80	-2,385	
68,98	9,503	295,01	739,31	-2,385	
69,00	9,503	290,54	738,83	-2,385	
69,02	9,503	286,06	738,36	-2,385	
69,04	9,503	282,09	737,88	-2,385	
69,06	9,503	278,06	737,41	-2,385	
69,08	9,503	273,94	736,94	-2,385	
69,10	9,503	270,02	736,48	-2,385	
69,12	9,503	265,84	736,01	-2,386	
69,14	9,503	261,40	735,56	-2,386	
69,16	9,503	256,92	735,13	-2,386	
69,18	9,503	252,37	734,71	-2,386	
69,20	9,503	247,88	734,30	-2,386	
69,22	9,503	243,70	733,89	-2,386	
69,24	9,503	239,84	733,50	-2,387	
69,26	9,503	235,62	733,11	-2,387	
69,28	9,503	230,90	732,74	-2,387	
69,30	9,503	225,86	732,38	-2,388	
69,32	9,503	221,11	732,03	-2,388	
69,34	9,503	216,64	731,69	-2,388	
69,36	9,503	211,62	731,36	-2,388	
69,38	9,503	206,68	731,03	-2,389	
69,40	9,503	202,06	730,74	-2,389	
69,42	9,503	197,58	730,46	-2,389	
69,44	9,503	193,35	730,19	-2,390	
69,46	9,503	189,43	729,92	-2,390	
69,48	9,503	184,74	729,66	-2,391	
69,50	9,503	179,90	729,43	-2,391	
69,52	9,503	175,28	729,21	-2,392	
69,54	9,503	170,76	729,00	-2,392	
69,56	9,503	166,32	728,82	-2,393	
69,58	9,503	161,32	728,64	-2,393	
69,60	9,503	156,42	728,48	-2,394	
69,62	9,503	151,77	728,32	-2,394	
69,64	9,503	147,22	728,18	-2,395	
69,66	9,503	142,71	728,06	-2,395	
69,68	9,503	137,70	727,94	-2,395	
69,70	9,503	132,85	727,83	-2,396	
69,72	9,503	128,26	727,73	-2,397	
69,74	9,503	123,59	727,63	-2,397	
69,76	9,503	118,60	727,53	-2,398	
69,78	9,503	113,79	727,44	-2,398	
69,80	9,503	109,31	727,38	-2,399	
69,82	9,503	104,88	727,33	-2,399	
69,84	9,503	100,27	727,28	-2,400	
69,86	9,503	95,70	727,24	-2,400	
69,88	9,503	91,20	727,20	-2,401	
69,90	9,503	87,23	727,14	-2,402	
69,92	9,503	83,23	727,08	-2,402	
69,94	9,503	78,93	727,05	-2,403	
69,96	9,503	74,49	727,01	-2,403	
69,98	9,503	69,95	726,98	-2,404	
70,00	9,503	65,71	726,95	-2,404	