Zeit  1 - Standardmessrate [s]	ZwickWeg [mm]	ZwickKraft [N]	Pyrometer [°C]	Maytec [mm]
0	-0,4405	158,84	150,02	0,00343	
0,02000	-0,4405	158,63	150,02	0,00337	
0,04000	-0,4405	158,61	150,02	0,00323	
0,06000	-0,4405	159,36	150,02	0,00317	
0,08000	-0,4405	160,84	150,02	0,00316	
0,1000	-0,4405	161,73	150,02	0,00317	
0,1200	-0,4405	161,14	150,02	0,00327	
0,1400	-0,4405	159,61	150,02	0,00337	
0,1600	-0,4405	158,69	150,02	0,00335	
0,1800	-0,4405	158,54	150,02	0,00322	
0,2000	-0,4405	158,66	150,02	0,00311	
0,2200	-0,4405	158,71	150,02	0,00310	
0,2400	-0,4405	158,89	150,02	0,00313	
0,2600	-0,4405	160,22	150,02	0,00321	
0,2800	-0,4405	161,50	150,02	0,00328	
0,3000	-0,4405	161,95	150,02	0,00334	
0,3200	-0,4405	162,02	150,02	0,00330	
0,3400	-0,4405	162,01	150,02	0,00319	
0,3600	-0,4405	162,00	150,02	0,00309	
0,3800	-0,4405	161,94	150,02	0,00311	
0,4000	-0,4405	161,17	150,02	0,00320	
0,4200	-0,4405	159,70	150,02	0,00332	
0,4400	-0,4405	158,82	150,02	0,00338	
0,4600	-0,4405	158,62	150,02	0,00337	
0,4800	-0,4405	158,61	150,02	0,00326	
0,5000	-0,4405	158,56	150,03	0,00310	
0,5200	-0,4405	158,58	150,03	0,00308	
0,5400	-0,4405	158,57	150,02	0,00322	
0,5600	-0,4405	158,53	150,02	0,00337	
0,5800	-0,4405	158,49	150,02	0,00338	
0,6000	-0,4405	158,51	150,02	0,00334	
0,6200	-0,4405	158,56	150,02	0,00327	
0,6400	-0,4405	158,64	150,02	0,00313	
0,6600	-0,4405	158,71	150,02	0,00306	
0,6800	-0,4405	158,74	150,02	0,00312	
0,7000	-0,4405	158,74	150,02	0,00326	
0,7200	-0,4405	159,26	150,02	0,00338	
0,7400	-0,4405	159,37	150,02	0,00340	
0,7600	-0,4405	158,94	150,02	0,00332	
0,7800	-0,4405	158,70	150,02	0,00320	
0,8000	-0,4405	158,63	150,02	0,00313	
0,8200	-0,4405	158,63	150,02	0,00314	
0,8400	-0,4405	159,43	150,02	0,00323	
0,8600	-0,4405	160,69	150,02	0,00331	
0,8800	-0,4405	160,26	150,03	0,00335	
0,9000	-0,4405	159,76	150,03	0,00333	
0,9200	-0,4405	159,45	150,02	0,00325	
0,9400	-0,4405	158,95	150,02	0,00311	
0,9600	-0,4405	158,76	150,03	0,00303	
0,9800	-0,4405	158,73	150,02	0,00314	
1,000	-0,4405	158,75	150,02	0,00328	
1,020	-0,4405	158,78	150,02	0,00336	
1,040	-0,4405	158,80	150,02	0,00335	
1,060	-0,4405	158,85	150,02	0,00318	
1,080	-0,4405	158,87	150,02	0,00305	
1,100	-0,4405	159,08	150,02	0,00309	
1,120	-0,4405	160,31	150,02	0,00316	
1,140	-0,4405	160,82	150,02	0,00323	
1,160	-0,4405	159,85	150,02	0,00331	
1,180	-0,4405	159,04	150,02	0,00331	
1,200	-0,4405	158,80	150,02	0,00325	
1,220	-0,4405	158,79	150,02	0,00315	
1,240	-0,4405	158,77	150,02	0,00310	
1,260	-0,4405	158,74	150,02	0,00321	
1,280	-0,4405	159,22	150,02	0,00333	
1,300	-0,4405	159,47	150,02	0,00336	
1,320	-0,4405	159,07	150,02	0,00332	
1,340	-0,4405	158,75	150,02	0,00320	
1,360	-0,4405	158,72	150,02	0,00308	
1,380	-0,4405	158,78	150,02	0,00319	
1,400	-0,4405	158,81	150,03	0,00333	
1,420	-0,4405	159,53	150,03	0,00342	
1,440	-0,4405	161,03	150,03	0,00351	
1,460	-0,4404	161,13	150,02	0,00350	
1,480	-0,4405	159,84	150,02	0,00333	
1,500	-0,4405	159,01	150,02	0,00313	
1,520	-0,4405	158,78	150,02	0,00306	
1,540	-0,4405	158,77	150,02	0,00312	
1,560	-0,4405	158,79	150,02	0,00322	
1,580	-0,4405	159,52	150,02	0,00335	
1,600	-0,4405	160,98	150,02	0,00341	
1,620	-0,4405	161,83	150,02	0,00334	
1,640	-0,4405	162,09	150,02	0,00320	
1,660	-0,4405	162,16	150,02	0,00313	
1,680	-0,4405	162,17	150,02	0,00321	
1,700	-0,4405	161,90	150,02	0,00334	
1,720	-0,4405	161,28	150,02	0,00335	
1,740	-0,4405	161,47	150,02	0,00333	
1,760	-0,4405	161,84	150,02	0,00327	
1,780	-0,4405	161,98	150,02	0,00314	
1,800	-0,4405	162,06	150,02	0,00313	
1,820	-0,4405	162,13	150,02	0,00323	
1,840	-0,4405	161,43	150,02	0,00329	
1,860	-0,4405	160,48	150,02	0,00334	
1,880	-0,4405	160,27	150,02	0,00336	
1,900	-0,4405	159,75	150,02	0,00328	
1,920	-0,4405	159,00	150,02	0,00318	
1,940	-0,4405	158,73	150,02	0,00313	
1,960	-0,4405	158,71	150,02	0,00318	
1,980	-0,4405	158,78	150,02	0,00329	
2,000	-0,4405	158,78	150,02	0,00333	
2,020	-0,4405	158,75	150,02	0,00334	
2,040	-0,4405	158,78	150,02	0,00327	
2,060	-0,4405	158,84	150,02	0,00312	
2,080	-0,4405	158,78	150,02	0,00304	
2,100	-0,4405	158,73	150,02	0,00312	
2,120	-0,4405	158,70	150,02	0,00327	
2,140	-0,4405	158,69	150,02	0,00339	
2,160	-0,4405	158,67	150,02	0,00346	
2,180	-0,4405	158,70	150,02	0,00337	
2,200	-0,4405	158,96	150,02	0,00322	
2,220	-0,4405	160,29	150,02	0,00308	
2,240	-0,4405	161,50	150,02	0,00307	
2,260	-0,4405	161,87	150,02	0,00322	
2,280	-0,4405	161,92	150,02	0,00335	
2,300	-0,4405	162,01	150,02	0,00338	
2,320	-0,4405	162,06	150,02	0,00337	
2,340	-0,4405	162,03	150,02	0,00327	
2,360	-0,4405	162,04	150,02	0,00318	
2,380	-0,4405	162,06	150,02	0,00318	
2,400	-0,4405	161,31	150,02	0,00324	
2,420	-0,4405	159,76	150,02	0,00338	
2,440	-0,4405	158,82	150,02	0,00350	
2,460	-0,4405	158,54	150,02	0,00342	
2,480	-0,4405	158,53	150,02	0,00322	
2,500	-0,4405	158,56	150,02	0,00313	
2,520	-0,4405	158,60	150,02	0,00314	
2,540	-0,4405	158,68	150,02	0,00323	
2,560	-0,4405	158,72	150,02	0,00336	
2,580	-0,4405	158,69	150,02	0,00342	
2,600	-0,4405	158,70	150,02	0,00341	
2,620	-0,4405	159,48	150,02	0,00336	
2,640	-0,4405	161,01	150,02	0,00325	
2,660	-0,4405	161,88	150,02	0,00319	
2,680	-0,4405	162,02	150,02	0,00317	
2,700	-0,4405	161,74	150,02	0,00322	
2,720	-0,4405	160,38	150,02	0,00333	
2,740	-0,4405	159,08	150,02	0,00335	
2,760	-0,4405	158,70	150,02	0,00327	
2,780	-0,4405	158,70	150,02	0,00320	
2,800	-0,4404	158,73	150,02	0,00319	
2,820	-0,4405	158,81	150,02	0,00322	
2,840	-0,4405	159,56	150,02	0,00327	
2,860	-0,4405	160,28	150,02	0,00326	
2,880	-0,4405	159,61	150,02	0,00331	
2,900	-0,4405	158,84	150,02	0,00331	
2,920	-0,4405	158,62	150,02	0,00315	
2,940	-0,4405	158,66	150,02	0,00303	
2,960	-0,4405	158,67	150,02	0,00309	
2,980	-0,4405	158,65	150,02	0,00322	
3,000	-0,4405	158,67	150,02	0,00336	
3,020	-0,4405	158,71	150,02	0,00343	
3,040	-0,4405	158,69	150,02	0,00340	
3,060	-0,4405	158,68	150,02	0,00328	
3,080	-0,4405	158,70	150,02	0,00317	
3,100	-0,4405	158,71	150,02	0,00316	
3,120	-0,4405	158,65	150,02	0,00324	
3,140	-0,4405	158,62	150,02	0,00332	
3,160	-0,4405	158,84	150,02	0,00337	
3,180	-0,4405	160,16	150,02	0,00335	
3,200	-0,4405	161,50	150,02	0,00322	
3,220	-0,4405	162,02	150,02	0,00311	
3,240	-0,4405	162,07	150,02	0,00312	
3,260	-0,4405	161,29	150,02	0,00314	
3,280	-0,4405	159,75	150,02	0,00317	
3,300	-0,4405	158,84	150,02	0,00324	
3,320	-0,4404	158,60	150,03	0,00333	
3,340	-0,4404	158,59	150,02	0,00333	
3,360	-0,4405	158,57	150,02	0,00320	
3,380	-0,4405	158,56	150,02	0,00309	
3,400	-0,4405	158,57	150,02	0,00315	
3,420	-0,4405	158,60	150,02	0,00320	
3,440	-0,4405	158,60	150,02	0,00327	
3,460	-0,4405	158,65	150,02	0,00335	
3,480	-0,4405	158,68	150,02	0,00336	
3,500	-0,4405	158,71	150,02	0,00324	
3,520	-0,4405	158,72	150,02	0,00309	
3,540	-0,4405	158,69	150,02	0,00309	
3,560	-0,4405	158,64	150,02	0,00319	
3,580	-0,4405	158,65	150,02	0,00329	
3,600	-0,4405	158,82	150,02	0,00335	
3,620	-0,4405	159,93	150,02	0,00336	
3,640	-0,4405	159,99	150,02	0,00329	
3,660	-0,4404	159,91	150,02	0,00313	
3,680	-0,4404	161,01	150,02	0,00304	
3,700	-0,4405	161,92	150,02	0,00315	
3,720	-0,4405	162,17	150,02	0,00326	
3,740	-0,4405	162,13	150,02	0,00336	
3,760	-0,4405	162,11	150,02	0,00336	
3,780	-0,4405	162,15	150,02	0,00326	
3,800	-0,4405	162,20	150,02	0,00321	
3,820	-0,4405	162,23	150,02	0,00316	
3,840	-0,4405	162,24	150,02	0,00314	
3,860	-0,4405	162,21	150,02	0,00323	
3,880	-0,4405	162,21	150,02	0,00336	
3,900	-0,4405	162,22	150,02	0,00340	
3,920	-0,4405	162,19	150,02	0,00330	
3,940	-0,4405	162,12	150,02	0,00314	
3,960	-0,4405	162,13	150,02	0,00302	
3,980	-0,4405	162,14	150,02	0,00306	
4,000	-0,4405	162,08	150,02	0,00313	
4,020	-0,4405	161,99	150,02	0,00325	
4,040	-0,4405	161,97	150,02	0,00336	
4,060	-0,4405	162,01	150,02	0,00340	
4,080	-0,4405	162,09	150,02	0,00335	
4,100	-0,4405	162,11	150,02	0,00320	
4,120	-0,4405	162,09	150,02	0,00308	
4,140	-0,4405	161,39	150,02	0,00307	
4,160	-0,4405	159,89	150,02	0,00320	
4,180	-0,4405	158,97	150,02	0,00334	
4,200	-0,4408	158,77	150,02	0,00341	
4,220	-0,4410	158,77	150,02	0,00333	
4,240	-0,4412	158,79	150,02	0,00318	
4,260	-0,4417	161,98	150,17	0,00279	
4,280	-0,4411	142,81	150,02	0,00171	
4,300	-0,4408	100,70	149,93	0,00160	
4,320	-0,4409	59,67	149,97	0,00210	
4,340	-0,4408	26,98	150,01	0,00241	
4,360	-0,4380	7,407	150,02	0,00253	
4,380	-0,4314	16,53	150,02	0,00248	
4,400	-0,4238	58,60	150,02	0,00237	
4,420	-0,4177	106,17	150,02	0,00234	
4,440	-0,4142	146,24	150,02	0,00245	
4,460	-0,4128	172,07	150,02	0,00255	
4,480	-0,4130	183,46	150,02	0,00266	
4,500	-0,4139	183,75	150,02	0,00264	
4,520	-0,4150	178,47	150,02	0,00249	
4,540	-0,4160	171,90	150,02	0,00240	
4,560	-0,4167	166,52	150,02	0,00247	
4,580	-0,4171	162,51	150,02	0,00253	
4,600	-0,4174	159,87	150,02	0,00261	
4,620	-0,4176	158,87	150,02	0,00268	
4,640	-0,4176	158,71	150,02	0,00263	
4,660	-0,4175	158,74	150,02	0,00246	
4,680	-0,4172	158,74	150,02	0,00232	
4,700	-0,4170	158,74	150,02	0,00235	
4,720	-0,4169	158,77	150,02	0,00247	
4,740	-0,4169	158,67	150,02	0,00262	
4,760	-0,4169	158,63	150,02	0,00269	
4,780	-0,4170	158,68	150,02	0,00259	
4,800	-0,4170	158,69	150,02	0,00244	
4,820	-0,4169	158,68	150,02	0,00242	
4,840	-0,4169	159,42	150,02	0,00246	
4,860	-0,4169	160,92	150,02	0,00253	
4,880	-0,4169	161,79	150,02	0,00260	
4,900	-0,4170	162,03	150,02	0,00265	
4,920	-0,4170	162,02	150,02	0,00261	
4,940	-0,4170	162,03	150,02	0,00254	
4,960	-0,4170	162,11	150,02	0,00245	
4,980	-0,4172	162,09	150,02	0,00243	
5,000	-0,4175	162,05	150,02	0,00252	
5,020	-0,4176	162,09	150,02	0,00262	
5,040	-0,4176	162,12	150,02	0,00270	
5,060	-0,4176	162,03	150,02	0,00272	
5,080	-0,4176	161,98	150,02	0,00255	
5,100	-0,4176	162,02	150,02	0,00237	
5,120	-0,4176	161,81	150,02	0,00237	
5,140	-0,4176	161,21	150,02	0,00246	
5,160	-0,4176	161,48	150,02	0,00252	
5,180	-0,4176	161,26	150,02	0,00262	
5,200	-0,4176	159,92	150,02	0,00273	
5,220	-0,4176	159,02	150,02	0,00268	
5,240	-0,4178	158,82	150,02	0,00253	
5,260	-0,4181	158,79	150,02	0,00244	
5,280	-0,4182	158,72	150,02	0,00247	
5,300	-0,4183	158,70	150,02	0,00259	
5,320	-0,4183	158,64	150,02	0,00279	
5,340	-0,4183	158,62	150,02	0,00281	
5,360	-0,4183	159,34	150,02	0,00268	
5,380	-0,4183	160,25	150,02	0,00257	
5,400	-0,4183	160,35	150,02	0,00248	
5,420	-0,4183	161,10	150,02	0,00247	
5,440	-0,4183	161,79	150,02	0,00254	
5,460	-0,4183	162,04	150,02	0,00262	
5,480	-0,4183	162,08	150,02	0,00271	
5,500	-0,4183	162,04	150,02	0,00274	
5,520	-0,4183	162,02	150,02	0,00266	
5,540	-0,4183	161,48	150,02	0,00252	
5,560	-0,4183	160,57	150,02	0,00248	
5,580	-0,4183	159,48	150,02	0,00253	
5,600	-0,4183	158,78	150,02	0,00260	
5,620	-0,4183	158,64	150,03	0,00268	
5,640	-0,4183	159,34	150,03	0,00272	
5,660	-0,4183	160,16	150,02	0,00265	
5,680	-0,4183	159,78	150,02	0,00257	
5,700	-0,4183	160,38	150,02	0,00251	
5,720	-0,4183	161,54	150,02	0,00258	
5,740	-0,4183	161,86	150,02	0,00268	
5,760	-0,4183	161,28	150,02	0,00276	
5,780	-0,4183	161,44	150,02	0,00274	
5,800	-0,4183	161,23	150,02	0,00266	
5,820	-0,4183	160,07	150,02	0,00257	
5,840	-0,4183	160,22	150,02	0,00247	
5,860	-0,4183	160,05	150,02	0,00249	
5,880	-0,4183	159,44	150,02	0,00257	
5,900	-0,4183	160,07	150,02	0,00265	
5,920	-0,4184	160,55	150,02	0,00264	
5,940	-0,4187	160,72	150,02	0,00262	
5,960	-0,4189	161,18	150,02	0,00257	
5,980	-0,4190	160,43	150,02	0,00248	
6,000	-0,4190	159,28	150,02	0,00248	
6,020	-0,4190	158,71	150,02	0,00256	
6,040	-0,4190	158,57	150,02	0,00265	
6,060	-0,4190	158,59	150,02	0,00272	
6,080	-0,4190	158,59	150,02	0,00272	
6,100	-0,4190	158,82	150,02	0,00267	
6,120	-0,4190	160,22	150,02	0,00255	
6,140	-0,4190	160,98	150,02	0,00250	
6,160	-0,4190	159,98	150,02	0,00257	
6,180	-0,4190	159,11	150,02	0,00267	
6,200	-0,4190	158,83	150,02	0,00277	
6,220	-0,4189	158,72	150,02	0,00279	
6,240	-0,4189	159,35	150,02	0,00271	
6,260	-0,4189	160,24	150,02	0,00262	
6,280	-0,4189	159,84	150,02	0,00256	
6,300	-0,4190	160,37	150,02	0,00260	
6,320	-0,4190	161,31	150,02	0,00266	
6,340	-0,4189	160,62	150,02	0,00277	
6,360	-0,4189	160,01	150,02	0,00279	
6,380	-0,4189	160,79	150,02	0,00271	
6,400	-0,4189	160,44	150,02	0,00261	
6,420	-0,4189	159,33	150,02	0,00255	
6,440	-0,4189	158,79	150,03	0,00252	
6,460	-0,4190	158,72	150,02	0,00258	
6,480	-0,4190	158,72	150,02	0,00270	
6,500	-0,4190	158,67	150,02	0,00280	
6,520	-0,4190	158,62	150,02	0,00276	
6,540	-0,4190	158,66	150,02	0,00262	
6,560	-0,4190	158,79	150,02	0,00250	
6,580	-0,4189	159,37	150,02	0,00251	
6,600	-0,4189	159,21	150,02	0,00262	
6,620	-0,4189	158,79	150,02	0,00274	
6,640	-0,4189	158,70	150,02	0,00273	
6,660	-0,4190	159,25	150,02	0,00270	
6,680	-0,4190	159,52	150,02	0,00265	
6,700	-0,4190	159,77	150,02	0,00256	
6,720	-0,4191	160,94	150,02	0,00256	
6,740	-0,4194	161,09	150,02	0,00259	
6,760	-0,4196	160,46	150,02	0,00265	
6,780	-0,4197	161,04	150,02	0,00273	
6,800	-0,4196	161,09	150,02	0,00272	
6,820	-0,4196	160,04	150,02	0,00268	
6,840	-0,4196	160,23	150,02	0,00258	
6,860	-0,4196	160,15	150,02	0,00255	
6,880	-0,4196	159,31	150,02	0,00262	
6,900	-0,4196	158,76	150,02	0,00278	
6,920	-0,4196	158,67	150,02	0,00288	
6,940	-0,4196	158,74	150,02	0,00288	
6,960	-0,4196	158,74	150,02	0,00276	
6,980	-0,4196	158,71	150,02	0,00262	
7,000	-0,4196	158,70	150,02	0,00252	
7,020	-0,4196	158,70	150,02	0,00252	
7,040	-0,4196	158,75	150,02	0,00258	
7,060	-0,4196	158,74	150,02	0,00267	
7,080	-0,4196	158,63	150,02	0,00277	
7,100	-0,4196	158,80	150,02	0,00276	
7,120	-0,4196	159,38	150,02	0,00267	
7,140	-0,4196	159,79	150,02	0,00248	
7,160	-0,4196	160,95	150,02	0,00242	
7,180	-0,4196	161,85	150,02	0,00252	
7,200	-0,4196	162,12	150,02	0,00268	
7,220	-0,4196	162,12	150,02	0,00281	
7,240	-0,4196	161,96	150,02	0,00277	
7,260	-0,4196	160,70	150,02	0,00265	
7,280	-0,4196	159,35	150,02	0,00255	
7,300	-0,4196	158,74	150,02	0,00252	
7,320	-0,4196	158,62	150,02	0,00259	
7,340	-0,4196	158,70	150,02	0,00272	
7,360	-0,4196	158,71	150,02	0,00278	
7,380	-0,4196	158,74	150,02	0,00279	
7,400	-0,4196	158,76	150,02	0,00280	
7,420	-0,4196	158,78	150,02	0,00275	
7,440	-0,4196	158,74	150,02	0,00267	
7,460	-0,4196	158,72	150,02	0,00261	
7,480	-0,4196	158,71	150,02	0,00267	
7,500	-0,4196	158,86	150,02	0,00277	
7,520	-0,4198	160,10	150,02	0,00283	
7,540	-0,4201	160,78	150,02	0,00279	
7,560	-0,4202	160,38	150,02	0,00271	
7,580	-0,4203	161,04	150,02	0,00266	
7,600	-0,4203	161,70	150,02	0,00262	
7,620	-0,4203	160,71	150,02	0,00260	
7,640	-0,4203	159,32	150,02	0,00268	
7,660	-0,4203	158,69	150,02	0,00280	
7,680	-0,4203	158,60	150,02	0,00286	
7,700	-0,4203	158,67	150,02	0,00284	
7,720	-0,4203	158,69	150,02	0,00269	
7,740	-0,4203	158,63	150,02	0,00259	
7,760	-0,4203	158,66	150,02	0,00266	
7,780	-0,4203	158,74	150,02	0,00284	
7,800	-0,4203	158,71	150,02	0,00293	
7,820	-0,4203	158,65	150,02	0,00292	
7,840	-0,4203	158,71	150,02	0,00284	
7,860	-0,4203	158,77	150,02	0,00271	
7,880	-0,4203	158,73	150,02	0,00260	
7,900	-0,4203	158,82	150,02	0,00257	
7,920	-0,4203	160,07	150,02	0,00267	
7,940	-0,4203	161,47	150,02	0,00279	
7,960	-0,4203	162,01	150,02	0,00282	
7,980	-0,4203	162,03	150,02	0,00276	
8,000	-0,4203	161,34	150,02	0,00262	
8,020	-0,4203	159,88	150,02	0,00256	
8,040	-0,4203	158,94	150,02	0,00260	
8,060	-0,4203	158,79	150,02	0,00267	
8,080	-0,4203	158,78	150,02	0,00278	
8,100	-0,4203	158,72	150,02	0,00290	
8,120	-0,4203	158,75	150,02	0,00288	
8,140	-0,4203	158,80	150,02	0,00274	
8,160	-0,4203	159,44	150,01	0,00265	
8,180	-0,4203	160,88	150,02	0,00266	
8,200	-0,4203	161,79	150,02	0,00270	
8,220	-0,4203	161,40	150,02	0,00280	
8,240	-0,4203	160,59	150,02	0,00282	
8,260	-0,4203	160,52	150,02	0,00269	
8,280	-0,4203	159,73	150,02	0,00260	
8,300	-0,4203	159,14	150,02	0,00254	
8,320	-0,4203	159,97	150,02	0,00252	
8,340	-0,4203	160,01	150,02	0,00263	
8,360	-0,4203	159,15	150,02	0,00279	
8,380	-0,4203	158,67	150,02	0,00289	
8,400	-0,4204	158,66	150,02	0,00290	
8,420	-0,4207	158,70	150,02	0,00273	
8,440	-0,4209	158,73	150,02	0,00256	
8,460	-0,4210	158,71	150,02	0,00253	
8,480	-0,4210	158,67	150,02	0,00261	
8,500	-0,4210	158,73	150,02	0,00278	
8,520	-0,4210	158,78	150,02	0,00292	
8,540	-0,4210	158,73	150,02	0,00294	
8,560	-0,4210	158,75	150,02	0,00283	
8,580	-0,4210	158,71	150,02	0,00271	
8,600	-0,4210	158,65	150,02	0,00257	
8,620	-0,4210	159,30	150,02	0,00258	
8,640	-0,4210	160,21	150,02	0,00270	
8,660	-0,4210	159,68	150,02	0,00278	
8,680	-0,4210	159,01	150,02	0,00280	
8,700	-0,4210	159,03	150,03	0,00272	
8,720	-0,4212	159,22	150,07	0,00258	
8,740	-0,4211	153,04	150,05	0,00250	
8,760	-0,4210	141,59	150,03	0,00255	
8,780	-0,4209	129,55	150,02	0,00261	
8,800	-0,4208	118,16	150,02	0,00274	
8,820	-0,4200	107,62	150,02	0,00282	
8,840	-0,4184	102,28	150,02	0,00280	
8,860	-0,4165	102,00	150,02	0,00273	
8,880	-0,4148	103,81	150,02	0,00269	
8,900	-0,4131	106,28	150,02	0,00264	
8,920	-0,4115	109,29	150,02	0,00258	
8,940	-0,4098	112,57	150,02	0,00267	
8,960	-0,4083	115,92	150,02	0,00279	
8,980	-0,4069	119,12	150,02	0,00280	
9,000	-0,4055	121,12	150,02	0,00272	
9,020	-0,4043	121,22	150,02	0,00264	
9,040	-0,4033	119,86	150,02	0,00257	
9,060	-0,4021	118,21	150,02	0,00260	
9,080	-0,4008	116,37	150,02	0,00270	
9,100	-0,3995	115,36	150,02	0,00279	
9,120	-0,3981	115,69	150,02	0,00287	
9,140	-0,3968	117,20	150,02	0,00286	
9,160	-0,3955	118,22	150,02	0,00273	
9,180	-0,3944	117,89	150,02	0,00261	
9,200	-0,3933	116,35	150,02	0,00263	
9,220	-0,3921	115,34	150,02	0,00278	
9,240	-0,3908	115,67	150,02	0,00285	
9,260	-0,3894	117,18	150,02	0,00292	
9,280	-0,3881	118,03	150,02	0,00301	
9,300	-0,3867	117,04	150,02	0,00301	
9,320	-0,3854	115,65	150,02	0,00281	
9,340	-0,3840	115,05	150,02	0,00266	
9,360	-0,3827	114,94	150,02	0,00265	
9,380	-0,3813	114,96	150,02	0,00270	
9,400	-0,3800	115,02	150,02	0,00281	
9,420	-0,3786	115,02	150,02	0,00297	
9,440	-0,3773	115,01	150,02	0,00294	
9,460	-0,3760	115,01	150,02	0,00276	
9,480	-0,3746	114,97	150,02	0,00270	
9,500	-0,3733	114,99	150,02	0,00272	
9,520	-0,3719	115,02	150,02	0,00279	
9,540	-0,3706	115,02	150,02	0,00287	
9,560	-0,3693	114,99	150,02	0,00290	
9,580	-0,3679	114,96	150,02	0,00293	
9,600	-0,3666	114,96	150,02	0,00284	
9,620	-0,3652	114,96	150,02	0,00270	
9,640	-0,3639	114,97	150,02	0,00270	
9,660	-0,3626	114,99	150,02	0,00280	
9,680	-0,3612	115,05	150,02	0,00288	
9,700	-0,3596	115,07	150,02	0,00294	
9,720	-0,3580	114,44	150,02	0,00301	
9,740	-0,3565	112,95	150,02	0,00299	
9,760	-0,3552	111,96	150,02	0,00285	
9,780	-0,3538	111,70	150,02	0,00273	
9,800	-0,3525	111,71	150,02	0,00272	
9,820	-0,3511	111,72	150,02	0,00278	
9,840	-0,3498	111,67	150,02	0,00289	
9,860	-0,3484	111,67	150,02	0,00294	
9,880	-0,3471	111,73	150,02	0,00294	
9,900	-0,3456	111,75	150,02	0,00281	
9,920	-0,3440	111,73	150,02	0,00267	
9,940	-0,3424	111,78	150,02	0,00263	
9,960	-0,3410	111,78	150,02	0,00274	
9,980	-0,3397	111,74	150,02	0,00292	
10,00	-0,3384	111,75	150,02	0,00302	
10,02	-0,3370	111,74	150,02	0,00300	
10,04	-0,3357	111,74	150,02	0,00288	
10,06	-0,3343	111,79	150,02	0,00271	
10,08	-0,3329	111,79	150,02	0,00264	
10,10	-0,3312	111,75	150,02	0,00270	
10,12	-0,3297	111,75	150,02	0,00276	
10,14	-0,3283	111,71	150,02	0,00287	
10,16	-0,3270	111,68	150,02	0,00297	
10,18	-0,3256	111,69	150,02	0,00288	
10,20	-0,3242	111,65	150,02	0,00273	
10,22	-0,3225	111,62	150,02	0,00269	
10,24	-0,3210	111,64	150,02	0,00272	
10,26	-0,3196	111,66	150,02	0,00282	
10,28	-0,3182	111,63	150,02	0,00292	
10,30	-0,3168	111,66	150,02	0,00291	
10,32	-0,3151	111,68	150,02	0,00287	
10,34	-0,3136	111,65	150,02	0,00277	
10,36	-0,3122	111,59	150,02	0,00270	
10,38	-0,3107	111,54	150,02	0,00276	
10,40	-0,3091	111,58	150,02	0,00288	
10,42	-0,3075	111,63	150,02	0,00296	
10,44	-0,3061	111,58	150,02	0,00298	
10,46	-0,3047	111,46	150,02	0,00291	
10,48	-0,3030	110,42	150,02	0,00280	
10,50	-0,3015	109,66	150,02	0,00275	
10,52	-0,3001	108,96	150,02	0,00273	
10,54	-0,2986	108,43	150,02	0,00273	
10,56	-0,2970	108,20	150,02	0,00283	
10,58	-0,2954	108,14	150,02	0,00294	
10,60	-0,2940	108,20	150,02	0,00294	
10,62	-0,2924	108,28	150,02	0,00285	
10,64	-0,2908	108,32	150,02	0,00278	
10,66	-0,2894	108,31	150,02	0,00276	
10,68	-0,2880	108,29	150,02	0,00284	
10,70	-0,2864	108,29	150,02	0,00295	
10,72	-0,2848	108,27	150,02	0,00298	
10,74	-0,2833	108,23	150,02	0,00293	
10,76	-0,2817	108,19	150,02	0,00284	
10,78	-0,2801	108,23	150,02	0,00276	
10,80	-0,2785	108,26	150,07	0,00275	
10,82	-0,2768	108,31	150,47	0,00280	
10,84	-0,2753	108,36	151,14	0,00288	
10,86	-0,2737	108,31	151,81	0,00296	
10,88	-0,2720	108,24	152,45	0,00300	
10,90	-0,2706	108,31	153,45	0,00287	
10,92	-0,2689	108,37	154,63	0,00272	
10,94	-0,2673	108,35	156,11	0,00271	
10,96	-0,2659	108,36	157,98	0,00283	
10,98	-0,2643	108,22	159,85	0,00302	
11,00	-0,2626	107,06	161,44	0,00309	
11,02	-0,2609	105,73	162,82	0,00301	
11,04	-0,2593	105,09	164,24	0,00292	
11,06	-0,2577	105,00	165,66	0,00280	
11,08	-0,2560	105,06	167,16	0,00276	
11,10	-0,2545	105,08	168,53	0,00281	
11,12	-0,2529	105,09	169,98	0,00287	
11,14	-0,2512	105,07	171,28	0,00296	
11,16	-0,2495	105,03	172,55	0,00299	
11,18	-0,2478	104,98	174,29	0,00292	
11,20	-0,2461	104,92	175,99	0,00279	
11,22	-0,2445	104,89	177,44	0,00275	
11,24	-0,2428	104,96	178,69	0,00278	
11,26	-0,2411	104,97	180,09	0,00286	
11,28	-0,2395	104,93	181,69	0,00290	
11,30	-0,2378	104,95	183,24	0,00292	
11,32	-0,2361	105,01	184,66	0,00290	
11,34	-0,2345	104,98	186,17	0,00284	
11,36	-0,2329	104,94	187,66	0,00275	
11,38	-0,2312	104,97	189,05	0,00275	
11,40	-0,2296	105,00	190,37	0,00286	
11,42	-0,2279	104,43	191,65	0,00301	
11,44	-0,2262	102,85	193,06	0,00306	
11,46	-0,2245	101,81	194,54	0,00307	
11,48	-0,2229	101,51	195,97	0,00298	
11,50	-0,2211	101,59	197,24	0,00285	
11,52	-0,2193	101,61	198,36	0,00284	
11,54	-0,2175	101,54	199,61	0,00293	
11,56	-0,2158	101,59	200,97	0,00294	
11,58	-0,2141	101,65	202,41	0,00303	
11,60	-0,2124	101,57	203,95	0,00306	
11,62	-0,2106	101,52	205,47	0,00290	
11,64	-0,2088	101,51	206,92	0,00277	
11,66	-0,2070	101,51	208,38	0,00272	
11,68	-0,2054	101,48	209,81	0,00279	
11,70	-0,2037	101,49	211,15	0,00287	
11,72	-0,2019	101,55	212,46	0,00295	
11,74	-0,2002	101,58	213,79	0,00300	
11,76	-0,1985	101,58	215,15	0,00290	
11,78	-0,1967	101,53	216,63	0,00283	
11,80	-0,1949	101,53	218,15	0,00285	
11,82	-0,1931	101,49	219,59	0,00288	
11,84	-0,1913	101,42	220,98	0,00296	
11,86	-0,1894	101,35	222,38	0,00302	
11,88	-0,1876	101,39	223,80	0,00307	
11,90	-0,1857	101,44	225,23	0,00301	
11,92	-0,1839	101,44	226,65	0,00287	
11,94	-0,1822	101,47	228,04	0,00281	
11,96	-0,1804	101,46	229,43	0,00282	
11,98	-0,1786	101,44	230,83	0,00293	
12,00	-0,1768	101,45	232,23	0,00306	
12,02	-0,1749	100,87	233,68	0,00314	
12,04	-0,1730	99,27	235,14	0,00304	
12,06	-0,1712	98,24	236,60	0,00287	
12,08	-0,1694	97,99	238,07	0,00281	
12,10	-0,1676	98,03	239,53	0,00281	
12,12	-0,1656	98,07	240,99	0,00292	
12,14	-0,1638	98,09	242,43	0,00307	
12,16	-0,1620	98,06	243,88	0,00308	
12,18	-0,1602	98,07	245,37	0,00298	
12,20	-0,1584	98,12	246,86	0,00285	
12,22	-0,1565	97,99	248,32	0,00281	
12,24	-0,1546	96,80	249,75	0,00277	
12,26	-0,1528	95,38	251,16	0,00282	
12,28	-0,1509	94,77	252,60	0,00294	
12,30	-0,1490	94,72	254,03	0,00300	
12,32	-0,1471	94,72	255,49	0,00294	
12,34	-0,1451	94,70	256,98	0,00278	
12,36	-0,1431	94,74	258,47	0,00271	
12,38	-0,1411	94,93	260,44	0,00276	
12,40	-0,1392	96,12	264,20	0,00285	
12,42	-0,1374	96,91	268,58	0,00298	
12,44	-0,1354	96,00	271,53	0,00302	
12,46	-0,1334	95,06	273,46	0,00295	
12,48	-0,1316	94,75	274,93	0,00278	
12,50	-0,1297	94,65	276,34	0,00268	
12,52	-0,1277	94,63	277,89	0,00266	
12,54	-0,1257	94,69	279,37	0,00279	
12,56	-0,1237	94,75	280,72	0,00294	
12,58	-0,1219	94,71	282,11	0,00304	
12,60	-0,1199	94,57	283,55	0,00303	
12,62	-0,1178	94,17	284,98	0,00293	
12,64	-0,1158	95,97	286,08	0,00282	
12,66	-0,1139	104,48	286,44	0,00274	
12,68	-0,1119	117,04	286,44	0,00273	
12,70	-0,1100	129,36	286,42	0,00283	
12,72	-0,1084	139,58	286,57	0,00285	
12,74	-0,1076	144,03	287,14	0,00273	
12,76	-0,1073	139,46	288,03	0,00263	
12,78	-0,1071	131,58	288,78	0,00263	
12,80	-0,1068	127,27	289,29	0,00273	
12,82	-0,1058	126,44	289,91	0,00286	
12,84	-0,1043	129,01	290,59	0,00291	
12,86	-0,1029	133,24	291,40	0,00293	
12,88	-0,1022	136,14	292,12	0,00293	
12,90	-0,1017	136,19	292,69	0,00284	
12,92	-0,1011	132,81	293,45	0,00273	
12,94	-0,1004	128,25	294,33	0,00267	
12,96	-0,09965	127,32	294,99	0,00276	
12,98	-0,09890	129,19	295,43	0,00290	
13,00	-0,09816	129,97	295,95	0,00298	
13,02	-0,09711	128,21	296,85	0,00295	
13,04	-0,09619	126,38	297,75	0,00280	
13,06	-0,09563	126,14	298,35	0,00267	
13,08	-0,09512	126,02	298,79	0,00270	
13,10	-0,09430	122,58	299,50	0,00279	
13,12	-0,09324	119,66	300,41	0,00286	
13,14	-0,09242	121,03	301,02	0,00289	
13,16	-0,09193	123,16	301,45	0,00284	
13,18	-0,09110	121,61	302,20	0,00272	
13,20	-0,08988	117,56	303,27	0,00264	
13,22	-0,08894	116,81	304,11	0,00269	
13,24	-0,08854	120,54	304,48	0,00282	
13,26	-0,08805	122,20	304,89	0,00297	
13,28	-0,08705	118,66	305,79	0,00304	
13,30	-0,08611	115,87	306,79	0,00292	
13,32	-0,08568	116,19	307,35	0,00272	
13,34	-0,08532	115,83	307,69	0,00261	
13,36	-0,08443	112,21	308,37	0,00263	
13,38	-0,08336	109,45	309,26	0,00275	
13,40	-0,08257	110,71	309,93	0,00288	
13,42	-0,08207	111,98	310,44	0,00293	
13,44	-0,08148	109,69	311,06	0,00288	
13,46	-0,08060	106,12	311,93	0,00279	
13,48	-0,07987	106,35	312,69	0,00271	
13,50	-0,07925	107,22	313,26	0,00271	
13,52	-0,07862	106,56	313,79	0,00280	
13,54	-0,07775	103,76	314,57	0,00290	
13,56	-0,07687	101,67	315,46	0,00297	
13,58	-0,07618	102,09	316,10	0,00291	
13,60	-0,07563	103,71	316,55	0,00279	
13,62	-0,07485	102,24	317,25	0,00271	
13,64	-0,07389	99,06	318,28	0,00270	
13,66	-0,07312	99,52	319,04	0,00276	
13,68	-0,07260	103,62	319,37	0,00286	
13,70	-0,07197	104,28	319,89	0,00298	
13,72	-0,07101	100,55	320,90	0,00295	
13,74	-0,07017	99,67	321,84	0,00273	
13,76	-0,06969	101,49	322,36	0,00256	
13,78	-0,06926	101,33	322,74	0,00258	
13,80	-0,06855	97,61	323,46	0,00272	
13,82	-0,06769	95,59	324,31	0,00282	
13,84	-0,06706	97,35	324,92	0,00286	
13,86	-0,06653	97,91	325,43	0,00281	
13,88	-0,06589	94,01	326,14	0,00272	
13,90	-0,06514	90,21	327,01	0,00266	
13,92	-0,06456	89,66	327,75	0,00265	
13,94	-0,06410	89,58	328,34	0,00274	
13,96	-0,06344	88,30	328,92	0,00283	
13,98	-0,06260	87,31	329,61	0,00289	
14,00	-0,06180	87,87	330,38	0,00293	
14,02	-0,06113	89,42	331,01	0,00286	
14,04	-0,06052	89,88	331,60	0,00268	
14,06	-0,05984	88,33	332,37	0,00259	
14,08	-0,05909	87,41	333,20	0,00265	
14,10	-0,05846	89,04	333,80	0,00281	
14,12	-0,05787	91,10	334,29	0,00289	
14,14	-0,05713	89,92	335,04	0,00294	
14,16	-0,05621	87,58	335,96	0,00289	
14,18	-0,05548	88,39	336,70	0,00271	
14,20	-0,05495	89,68	337,24	0,00264	
14,22	-0,05427	88,64	337,81	0,00272	
14,24	-0,05348	87,82	338,53	0,00279	
14,26	-0,05275	88,29	339,25	0,00284	
14,28	-0,05209	87,31	339,92	0,00292	
14,30	-0,05156	85,04	340,58	0,00292	
14,32	-0,05103	82,72	341,22	0,00283	
14,34	-0,05040	81,52	341,94	0,00276	
14,36	-0,04970	80,68	342,68	0,00273	
14,38	-0,04905	80,33	343,33	0,00280	
14,40	-0,04840	80,22	343,98	0,00291	
14,42	-0,04770	79,59	344,70	0,00294	
14,44	-0,04702	78,55	345,42	0,00294	
14,46	-0,04640	79,76	345,99	0,00281	
14,48	-0,04574	80,44	346,64	0,00268	
14,50	-0,04497	78,16	347,53	0,00268	
14,52	-0,04430	76,74	348,31	0,00280	
14,54	-0,04379	77,86	348,88	0,00295	
14,56	-0,04316	76,97	349,54	0,00301	
14,58	-0,04238	74,83	350,25	0,00291	
14,60	-0,04167	76,10	350,88	0,00278	
14,62	-0,04103	78,86	351,49	0,00276	
14,64	-0,04033	78,41	352,22	0,00279	
14,66	-0,03962	76,62	352,98	0,00279	
14,68	-0,03899	77,59	353,64	0,00290	
14,70	-0,03834	78,20	354,28	0,00300	
14,72	-0,03763	77,45	354,96	0,00300	
14,74	-0,03698	77,62	355,62	0,00288	
14,76	-0,03632	78,48	356,33	0,00277	
14,78	-0,03561	77,79	357,06	0,00275	
14,80	-0,03494	77,13	357,71	0,00277	
14,82	-0,03434	78,17	358,30	0,00284	
14,84	-0,03364	78,23	359,05	0,00292	
14,86	-0,03286	77,07	359,88	0,00293	
14,88	-0,03227	78,45	360,51	0,00281	
14,90	-0,03168	79,85	361,05	0,00267	
14,92	-0,03094	78,32	361,80	0,00265	
14,94	-0,03017	76,22	362,64	0,00277	
14,96	-0,02968	78,78	363,20	0,00291	
14,98	-0,02926	81,42	363,76	0,00296	
15,00	-0,02846	78,23	364,63	0,00297	
15,02	-0,02759	75,77	365,50	0,00285	
15,04	-0,02698	78,45	366,05	0,00274	
15,06	-0,02658	80,80	366,51	0,00270	
15,08	-0,02592	77,79	367,28	0,00276	
15,10	-0,02519	76,00	368,13	0,00293	
15,12	-0,02459	78,06	368,78	0,00302	
15,14	-0,02412	78,78	369,32	0,00296	
15,16	-0,02355	76,52	369,98	0,00285	
15,18	-0,02284	74,62	370,76	0,00273	
15,20	-0,02221	76,55	371,45	0,00267	
15,22	-0,02169	78,23	372,01	0,00270	
15,24	-0,02115	76,77	372,71	0,00282	
15,26	-0,02048	73,87	373,54	0,00296	
15,28	-0,01989	74,35	374,20	0,00301	
15,30	-0,01942	76,77	374,77	0,00297	
15,32	-0,01880	75,46	375,52	0,00283	
15,34	-0,01815	73,86	376,26	0,00276	
15,36	-0,01759	75,29	376,89	0,00278	
15,38	-0,01708	75,50	377,54	0,00282	
15,40	-0,01648	73,58	378,22	0,00286	
15,42	-0,01582	73,97	378,89	0,00291	
15,44	-0,01519	75,76	379,56	0,00293	
15,46	-0,01463	75,30	380,29	0,00280	
15,48	-0,01408	74,48	380,98	0,00269	
15,50	-0,01350	75,43	381,64	0,00267	
15,52	-0,01289	75,13	382,36	0,00271	
15,54	-0,01237	74,50	383,03	0,00284	
15,56	-0,01184	75,63	383,65	0,00295	
15,58	-0,01115	75,80	384,35	0,00295	
15,60	-0,01045	73,96	385,10	0,00283	
15,62	-0,00994	73,89	385,79	0,00278	
15,64	-0,00947	75,78	386,41	0,00280	
15,66	-0,00882	75,71	387,16	0,00288	
15,68	-0,00808	74,96	387,92	0,00298	
15,70	-0,00752	76,50	388,56	0,00304	
15,72	-0,00701	77,09	389,18	0,00301	
15,74	-0,00640	76,36	389,86	0,00292	
15,76	-0,00578	77,07	390,53	0,00282	
15,78	-0,00526	78,77	391,19	0,00276	
15,80	-0,00471	78,65	391,92	0,00278	
15,82	-0,00413	77,91	392,67	0,00286	
15,84	-0,00362	78,80	393,38	0,00288	
15,86	-0,00303	79,84	393,99	0,00289	
15,88	-0,00243	80,33	394,61	0,00285	
15,90	-0,00186	80,00	395,35	0,00281	
15,92	-0,00130	80,47	396,03	0,00275	
15,94	-0,00082	81,87	396,66	0,00278	
15,96	-0,00027	81,08	397,41	0,00288	
15,98	0,00031	79,71	398,15	0,00294	
16,00	0,00080	80,42	398,79	0,00289	
16,02	0,00135	81,29	399,44	0,00276	
16,04	0,00190	80,43	400,14	0,00266	
16,06	0,00244	80,53	400,83	0,00267	
16,08	0,00300	81,64	401,50	0,00269	
16,10	0,00351	81,59	402,19	0,00279	
16,12	0,00406	81,93	402,87	0,00291	
16,14	0,00457	83,07	403,55	0,00292	
16,16	0,00509	83,46	404,26	0,00287	
16,18	0,00568	83,62	404,95	0,00276	
16,20	0,00615	84,93	405,60	0,00271	
16,22	0,00673	84,98	406,34	0,00273	
16,24	0,00730	84,53	407,03	0,00282	
16,26	0,00773	85,84	407,64	0,00291	
16,28	0,00819	86,60	408,34	0,00294	
16,30	0,00876	86,03	409,10	0,00285	
16,32	0,00930	86,24	409,80	0,00271	
16,34	0,00978	87,26	410,44	0,00269	
16,36	0,01035	86,87	411,09	0,00271	
16,38	0,01089	86,63	411,76	0,00274	
16,40	0,01144	87,79	412,45	0,00285	
16,42	0,01198	88,81	413,14	0,00293	
16,44	0,01246	89,13	413,83	0,00287	
16,46	0,01290	89,05	414,53	0,00278	
16,48	0,01341	89,64	415,19	0,00273	
16,50	0,01398	90,72	415,88	0,00273	
16,52	0,01452	90,71	416,62	0,00282	
16,54	0,01492	91,03	417,27	0,00288	
16,56	0,01536	91,71	417,95	0,00301	
16,58	0,01585	91,00	418,68	0,00300	
16,60	0,01634	91,16	419,30	0,00283	
16,62	0,01685	92,38	419,96	0,00270	
16,64	0,01740	91,50	420,71	0,00273	
16,66	0,01783	90,68	421,40	0,00285	
16,68	0,01826	91,91	422,07	0,00297	
16,70	0,01882	91,49	422,78	0,00309	
16,72	0,01934	90,73	423,43	0,00310	
16,74	0,01981	91,98	424,08	0,00294	
16,76	0,02028	92,72	424,79	0,00277	
16,78	0,02072	92,65	425,50	0,00272	
16,80	0,02117	93,74	426,12	0,00276	
16,82	0,02176	94,62	426,82	0,00280	
16,84	0,02233	93,61	427,60	0,00284	
16,86	0,02273	94,47	428,26	0,00287	
16,88	0,02316	95,76	428,89	0,00280	
16,90	0,02365	94,79	429,60	0,00277	
16,92	0,02407	94,51	430,27	0,00273	
16,94	0,02452	96,23	430,93	0,00271	
16,96	0,02503	95,80	431,67	0,00285	
16,98	0,02543	95,05	432,34	0,00298	
17,00	0,02586	96,49	432,98	0,00299	
17,02	0,02633	96,77	433,66	0,00292	
17,04	0,02677	95,58	434,35	0,00280	
17,06	0,02723	95,84	435,03	0,00273	
17,08	0,02769	96,06	435,72	0,00275	
17,10	0,02821	95,27	436,41	0,00287	
17,12	0,02875	95,22	437,07	0,00292	
17,14	0,02926	95,52	437,79	0,00295	
17,16	0,02974	95,45	438,55	0,00296	
17,18	0,03013	96,27	439,19	0,00286	
17,20	0,03056	97,51	439,83	0,00272	
17,22	0,03107	96,30	440,59	0,00270	
17,24	0,03148	95,73	441,26	0,00279	
17,26	0,03190	96,97	441,90	0,00295	
17,28	0,03238	96,20	442,59	0,00303	
17,30	0,03281	95,05	443,25	0,00296	
17,32	0,03329	95,52	443,95	0,00282	
17,34	0,03377	95,16	444,68	0,00270	
17,36	0,03416	94,82	445,33	0,00272	
17,38	0,03460	95,56	445,98	0,00278	
17,40	0,03508	95,30	446,68	0,00285	
17,42	0,03550	95,44	447,35	0,00295	
17,44	0,03595	96,31	448,02	0,00302	
17,46	0,03640	96,36	448,71	0,00291	
17,48	0,03681	96,13	449,41	0,00275	
17,50	0,03728	95,77	450,13	0,00271	
17,52	0,03776	95,60	450,82	0,00275	
17,54	0,03818	95,79	451,46	0,00285	
17,56	0,03865	95,75	452,13	0,00294	
17,58	0,03913	95,79	452,81	0,00294	
17,60	0,03953	96,60	453,47	0,00288	
17,62	0,04002	96,21	454,22	0,00280	
17,64	0,04051	94,78	454,95	0,00270	
17,66	0,04089	95,22	455,59	0,00264	
17,68	0,04132	95,75	456,27	0,00269	
17,70	0,04177	94,80	456,97	0,00280	
17,72	0,04219	95,08	457,63	0,00288	
17,74	0,04264	96,12	458,33	0,00282	
17,76	0,04312	95,62	459,04	0,00275	
17,78	0,04356	95,46	459,70	0,00268	
17,80	0,04396	96,32	460,34	0,00277	
17,82	0,04442	96,12	461,05	0,00291	
17,84	0,04490	95,63	461,79	0,00298	
17,86	0,04519	95,78	462,46	0,00300	
17,88	0,04557	95,61	463,14	0,00291	
17,90	0,04603	94,53	463,81	0,00274	
17,92	0,04644	94,43	464,44	0,00264	
17,94	0,04690	95,06	465,11	0,00272	
17,96	0,04737	94,45	465,82	0,00283	
17,98	0,04783	94,06	466,52	0,00295	
18,00	0,04826	94,20	467,20	0,00301	
18,02	0,04870	93,89	467,90	0,00292	
18,04	0,04916	93,48	468,62	0,00273	
18,06	0,04957	93,98	469,28	0,00254	
18,08	0,05002	95,02	469,96	0,00253	
18,10	0,05050	94,48	470,68	0,00266	
18,12	0,05091	94,36	471,34	0,00283	
18,14	0,05136	95,11	472,00	0,00290	
18,16	0,05184	94,09	472,71	0,00287	
18,18	0,05227	93,43	473,40	0,00279	
18,20	0,05271	93,98	474,06	0,00273	
18,22	0,05318	93,55	474,76	0,00274	
18,24	0,05364	92,85	475,45	0,00283	
18,26	0,05408	93,04	476,09	0,00291	
18,28	0,05451	93,44	476,77	0,00295	
18,30	0,05497	92,85	477,49	0,00295	
18,32	0,05541	93,01	478,15	0,00288	
18,34	0,05586	93,99	478,84	0,00281	
18,36	0,05635	92,90	479,58	0,00278	
18,38	0,05676	92,38	480,23	0,00278	
18,40	0,05718	93,62	480,85	0,00289	
18,42	0,05774	92,93	481,57	0,00298	
18,44	0,05828	91,87	482,25	0,00295	
18,46	0,05876	93,08	482,94	0,00278	
18,48	0,05924	93,32	483,66	0,00263	
18,50	0,05964	92,40	484,34	0,00268	
18,52	0,06010	92,62	485,02	0,00279	
18,54	0,06059	92,79	485,73	0,00287	
18,56	0,06099	92,88	486,38	0,00287	
18,58	0,06145	93,17	487,06	0,00284	
18,60	0,06193	92,95	487,75	0,00282	
18,62	0,06231	92,83	488,40	0,00275	
18,64	0,06277	92,42	489,11	0,00271	
18,66	0,06326	91,92	489,82	0,00275	
18,68	0,06363	93,01	490,45	0,00284	
18,70	0,06413	93,32	491,19	0,00292	
18,72	0,06462	91,72	491,93	0,00291	
18,74	0,06498	92,44	492,53	0,00279	
18,76	0,06546	93,30	493,19	0,00269	
18,78	0,06609	91,43	493,90	0,00267	
18,80	0,06655	90,52	494,55	0,00270	
18,82	0,06702	91,34	495,25	0,00281	
18,84	0,06750	90,16	495,96	0,00292	
18,86	0,06791	89,42	496,61	0,00301	
18,88	0,06836	89,73	497,29	0,00297	
18,90	0,06885	89,13	497,98	0,00284	
18,92	0,06941	88,98	498,67	0,00277	
18,94	0,06993	89,56	499,37	0,00279	
18,96	0,07041	89,42	500,05	0,00287	
18,98	0,07085	89,66	500,72	0,00290	
19,00	0,07129	89,85	501,41	0,00289	
19,02	0,07173	89,93	502,09	0,00282	
19,04	0,07221	90,65	502,78	0,00274	
19,06	0,07280	90,05	503,53	0,00270	
19,08	0,07328	89,94	504,20	0,00269	
19,10	0,07374	90,83	504,85	0,00274	
19,12	0,07422	90,78	505,55	0,00287	
19,14	0,07464	90,45	506,20	0,00298	
19,16	0,07516	90,98	506,85	0,00295	
19,18	0,07574	90,85	507,56	0,00283	
19,20	0,07621	91,03	508,25	0,00270	
19,22	0,07666	91,78	508,95	0,00267	
19,24	0,07716	91,17	509,68	0,00281	
19,26	0,07758	91,04	510,34	0,00291	
19,28	0,07814	91,07	511,02	0,00294	
19,30	0,07868	90,22	511,72	0,00293	
19,32	0,07908	90,91	512,32	0,00279	
19,34	0,07955	91,48	513,01	0,00268	
19,36	0,08007	90,36	513,76	0,00264	
19,38	0,08053	90,71	514,40	0,00276	
19,40	0,08110	90,36	515,15	0,00287	
19,42	0,08167	88,39	515,87	0,00288	
19,44	0,08215	88,47	516,46	0,00282	
19,46	0,08272	89,16	517,19	0,00276	
19,48	0,08323	88,23	517,89	0,00269	
19,50	0,08358	89,13	518,48	0,00271	
19,52	0,08407	88,69	519,23	0,00275	
19,54	0,08463	85,99	519,96	0,00281	
19,56	0,08508	86,63	520,55	0,00288	
19,58	0,08563	86,95	521,28	0,00293	
19,60	0,08625	84,61	521,99	0,00289	
19,62	0,08671	84,61	522,63	0,00278	
19,64	0,08730	85,23	523,36	0,00270	
19,66	0,08784	84,23	523,98	0,00269	
19,68	0,08828	85,40	524,60	0,00285	
19,70	0,08895	85,72	525,43	0,00296	
19,72	0,08945	84,71	526,11	0,00294	
19,74	0,08983	85,70	526,71	0,00291	
19,76	0,09039	84,19	527,52	0,00279	
19,78	0,09093	82,33	528,16	0,00264	
19,80	0,09151	83,81	528,78	0,00262	
19,82	0,09215	82,52	529,54	0,00277	
19,84	0,09265	80,37	530,15	0,00294	
19,86	0,09315	81,98	530,79	0,00301	
19,88	0,09377	81,02	531,60	0,00291	
19,90	0,09429	79,54	532,24	0,00276	
19,92	0,09489	80,62	532,88	0,00264	
19,94	0,09552	79,05	533,66	0,00268	
19,96	0,09598	78,03	534,30	0,00283	
19,98	0,09652	79,85	534,98	0,00296	
20,00	0,09713	78,93	535,72	0,00300	
20,02	0,09762	78,16	536,27	0,00292	
20,04	0,09827	79,30	536,96	0,00280	
20,06	0,09903	78,26	537,78	0,00274	
20,08	0,09946	77,41	538,40	0,00274	
20,10	0,10000	77,29	539,08	0,00281	
20,12	0,1007	75,02	539,79	0,00299	
20,14	0,1012	73,97	540,36	0,00307	
20,16	0,1017	74,00	541,08	0,00298	
20,18	0,1024	72,11	541,83	0,00281	
20,20	0,1029	72,55	542,42	0,00276	
20,22	0,1037	72,93	543,17	0,00277	
20,24	0,1044	70,90	543,90	0,00281	
20,26	0,1048	71,82	544,45	0,00288	
20,28	0,1054	72,38	545,21	0,00294	
20,30	0,1061	68,66	545,99	0,00291	
20,32	0,1066	67,35	546,61	0,00280	
20,34	0,1073	66,90	547,32	0,00267	
20,36	0,1078	64,67	547,92	0,00266	
20,38	0,1083	64,81	548,45	0,00277	
20,40	0,1090	64,73	549,31	0,00291	
20,42	0,1098	61,94	550,15	0,00295	
20,44	0,1104	62,10	550,76	0,00290	
20,46	0,1110	62,61	551,37	0,00282	
20,48	0,1117	61,04	551,97	0,00273	
20,50	0,1124	60,77	552,62	0,00270	
20,52	0,1131	60,32	553,45	0,00276	
20,54	0,1137	58,54	554,13	0,00284	
20,56	0,1143	58,95	554,73	0,00287	
20,58	0,1151	57,46	555,49	0,00293	
20,60	0,1158	55,49	556,14	0,00290	
20,62	0,1165	56,25	556,78	0,00283	
20,64	0,1173	54,43	557,58	0,00280	
20,66	0,1180	52,16	558,24	0,00284	
20,68	0,1187	52,96	558,84	0,00286	
20,70	0,1195	51,87	559,59	0,00283	
20,72	0,1201	49,53	560,21	0,00285	
20,74	0,1207	49,14	560,86	0,00285	
20,76	0,1215	46,76	561,69	0,00275	
20,78	0,1222	44,49	562,37	0,00265	
20,80	0,1230	45,10	563,00	0,00262	
20,82	0,1239	44,09	563,72	0,00272	
20,84	0,1247	41,98	564,32	0,00286	
20,86	0,1255	41,95	564,99	0,00294	
20,88	0,1264	40,99	565,77	0,00293	
20,90	0,1271	40,96	566,36	0,00278	
20,92	0,1279	41,05	567,05	0,00267	
20,94	0,1288	38,27	567,90	0,00269	
20,96	0,1295	36,92	568,53	0,00275	
20,98	0,1303	37,67	569,14	0,00287	
21,00	0,1312	35,74	569,87	0,00299	
21,02	0,1319	34,00	570,49	0,00299	
21,04	0,1328	34,19	571,17	0,00287	
21,06	0,1337	32,77	571,90	0,00273	
21,08	0,1345	31,60	572,50	0,00273	
21,10	0,1354	30,83	573,24	0,00273	
21,12	0,1363	28,00	574,00	0,00279	
21,14	0,1370	27,73	574,58	0,00295	
21,16	0,1379	27,81	575,31	0,00306	
21,18	0,1389	24,89	576,10	0,00295	
21,20	0,1397	24,42	576,70	0,00275	
21,22	0,1406	24,94	577,36	0,00271	
21,24	0,1417	22,46	578,10	0,00271	
21,26	0,1426	20,98	578,72	0,00283	
21,28	0,1435	20,60	579,40	0,00295	
21,30	0,1444	18,83	580,10	0,00301	
21,32	0,1453	18,18	580,72	0,00297	
21,34	0,1463	18,45	581,40	0,00281	
21,36	0,1473	17,04	582,15	0,00272	
21,38	0,1483	16,83	582,76	0,00276	
21,40	0,1493	17,33	583,40	0,00284	
21,42	0,1503	15,36	584,22	0,00289	
21,44	0,1513	13,94	584,85	0,00293	
21,46	0,1521	15,25	585,29	0,00290	
21,48	0,1532	14,41	586,14	0,00277	
21,50	0,1543	10,39	587,30	0,00267	
21,52	0,1553	9,505	587,94	0,00272	
21,54	0,1562	12,20	588,06	0,00281	
21,56	0,1572	11,66	588,51	0,00291	
21,58	0,1584	7,074	589,72	0,00303	
21,60	0,1596	3,889	590,94	0,00298	
21,62	0,1603	4,639	591,39	0,00280	
21,64	0,1612	5,843	591,60	0,00267	
21,66	0,1625	2,800	592,44	0,00264	
21,68	0,1639	-0,7571	593,51	0,00275	
21,70	0,1648	1,176	593,98	0,00284	
21,72	0,1656	2,050	594,13	0,00288	
21,74	0,1666	-3,628	594,81	0,00291	
21,76	0,1679	-9,066	596,10	0,00288	
21,78	0,1690	-9,729	597,09	0,00283	
21,80	0,1697	-7,659	597,34	0,00287	
21,82	0,1706	-7,057	597,65	0,00292	
21,84	0,1719	-10,75	598,64	0,00296	
21,86	0,1732	-14,14	599,68	0,00296	
21,88	0,1740	-12,49	600,03	0,00291	
21,90	0,1748	-11,64	600,15	0,00276	
21,92	0,1759	-15,41	600,90	0,00268	
21,94	0,1773	-19,18	602,27	0,00268	
21,96	0,1784	-19,76	603,31	0,00280	
21,98	0,1792	-17,70	603,66	0,00295	
22,00	0,1802	-19,47	604,14	0,00304	
22,02	0,1815	-22,93	604,89	0,00304	
22,04	0,1826	-20,63	605,43	0,00286	
22,06	0,1835	-17,92	606,07	0,00270	
22,08	0,1846	-22,67	606,95	0,00267	
22,10	0,1855	-25,57	607,60	0,00276	
22,12	0,1865	-23,86	608,15	0,00287	
22,14	0,1876	-24,91	608,90	0,00290	
22,16	0,1887	-26,36	609,59	0,00291	
22,18	0,1896	-22,81	610,03	0,00284	
22,20	0,1906	-20,91	610,69	0,00278	
22,22	0,1918	-24,05	611,78	0,00279	
22,24	0,1928	-24,31	612,64	0,00288	
22,26	0,1936	-20,89	613,02	0,00299	
22,28	0,1946	-19,60	613,47	0,00306	
22,30	0,1957	-22,22	614,39	0,00302	
22,32	0,1968	-22,18	615,26	0,00285	
22,34	0,1977	-18,43	615,81	0,00267	
22,36	0,1986	-18,57	616,38	0,00264	
22,38	0,1996	-19,96	617,02	0,00275	
22,40	0,2007	-17,43	617,65	0,00292	
22,42	0,2018	-14,96	618,40	0,00301	
22,44	0,2027	-15,20	619,11	0,00301	
22,46	0,2035	-13,86	619,76	0,00291	
22,48	0,2045	-12,70	620,50	0,00275	
22,50	0,2055	-11,14	621,15	0,00270	
22,52	0,2064	-7,825	621,79	0,00273	
22,54	0,2074	-6,368	622,54	0,00289	
22,56	0,2083	-5,697	623,15	0,00302	
22,58	0,2093	-3,265	623,82	0,00300	
22,60	0,2102	-3,100	624,67	0,00288	
22,62	0,2110	-2,482	625,35	0,00278	
22,64	0,2119	0,9107	625,93	0,00270	
22,66	0,2128	2,597	626,65	0,00275	
22,68	0,2137	3,178	627,34	0,00288	
22,70	0,2146	6,601	627,93	0,00302	
22,72	0,2155	8,499	628,65	0,00306	
22,74	0,2164	8,245	629,42	0,00296	
22,76	0,2172	11,41	629,98	0,00282	
22,78	0,2180	14,63	630,59	0,00274	
22,80	0,2189	13,31	631,47	0,00277	
22,82	0,2197	13,93	632,20	0,00282	
22,84	0,2205	17,89	632,80	0,00287	
22,86	0,2213	18,75	633,49	0,00285	
22,88	0,2221	18,98	634,13	0,00275	
22,90	0,2230	21,89	634,82	0,00270	
22,92	0,2239	22,57	635,59	0,00271	
22,94	0,2245	22,66	636,19	0,00276	
22,96	0,2252	24,31	636,88	0,00287	
22,98	0,2260	24,43	637,70	0,00299	
23,00	0,2268	26,50	638,29	0,00295	
23,02	0,2275	29,78	638,95	0,00286	
23,04	0,2283	29,24	639,73	0,00278	
23,06	0,2290	30,20	640,33	0,00276	
23,08	0,2299	32,79	641,01	0,00278	
23,10	0,2307	32,47	641,73	0,00281	
23,12	0,2313	33,09	642,29	0,00285	
23,14	0,2321	35,35	643,01	0,00297	
23,16	0,2329	33,71	643,87	0,00303	
23,18	0,2335	33,81	644,51	0,00288	
23,20	0,2342	36,10	645,11	0,00277	
23,22	0,2350	35,35	645,80	0,00275	
23,24	0,2356	35,44	646,45	0,00283	
23,26	0,2363	37,22	647,11	0,00298	
23,28	0,2370	37,54	647,79	0,00306	
23,30	0,2376	38,12	648,46	0,00297	
23,32	0,2383	38,90	649,19	0,00286	
23,34	0,2390	38,89	649,86	0,00273	
23,36	0,2396	40,04	650,47	0,00270	
23,38	0,2404	40,11	651,25	0,00279	
23,40	0,2410	39,74	651,96	0,00287	
23,42	0,2416	41,76	652,54	0,00292	
23,44	0,2424	41,94	653,31	0,00297	
23,46	0,2431	39,60	654,06	0,00290	
23,48	0,2437	39,63	654,68	0,00276	
23,50	0,2444	39,34	655,39	0,00268	
23,52	0,2450	37,17	656,05	0,00272	
23,54	0,2457	37,82	656,69	0,00285	
23,56	0,2464	38,00	657,45	0,00297	
23,58	0,2470	36,72	658,06	0,00299	
23,60	0,2476	37,30	658,66	0,00298	
23,62	0,2484	36,08	659,52	0,00286	
23,64	0,2491	34,12	660,28	0,00280	
23,66	0,2497	35,59	660,87	0,00283	
23,68	0,2504	35,16	661,53	0,00285	
23,70	0,2511	32,79	662,17	0,00290	
23,72	0,2519	33,20	662,84	0,00295	
23,74	0,2528	33,54	663,57	0,00288	
23,76	0,2534	32,41	664,16	0,00281	
23,78	0,2541	32,17	664,85	0,00278	
23,80	0,2549	30,99	665,66	0,00277	
23,82	0,2554	31,15	666,29	0,00285	
23,84	0,2561	31,95	666,96	0,00294	
23,86	0,2569	29,72	667,73	0,00297	
23,88	0,2575	28,52	668,34	0,00290	
23,90	0,2583	29,44	669,03	0,00281	
23,92	0,2590	28,31	669,76	0,00274	
23,94	0,2597	28,74	670,30	0,00274	
23,96	0,2604	29,47	671,01	0,00284	
23,98	0,2613	26,73	671,91	0,00295	
24,00	0,2620	25,68	672,60	0,00301	
24,02	0,2628	27,25	673,11	0,00295	
24,04	0,2635	25,84	673,81	0,00281	
24,06	0,2643	22,46	674,56	0,00272	
24,08	0,2648	24,08	675,05	0,00273	
24,10	0,2655	25,89	675,70	0,00279	
24,12	0,2665	22,67	676,76	0,00287	
24,14	0,2673	21,02	677,61	0,00295	
24,16	0,2679	23,83	678,00	0,00289	
24,18	0,2686	24,58	678,44	0,00277	
24,20	0,2695	20,71	679,35	0,00277	
24,22	0,2703	19,20	680,24	0,00278	
24,24	0,2709	21,06	680,79	0,00278	
24,26	0,2716	19,41	681,33	0,00286	
24,28	0,2725	16,42	682,00	0,00302	
24,30	0,2732	16,72	682,65	0,00309	
24,32	0,2739	18,71	683,30	0,00296	
24,34	0,2748	16,79	684,08	0,00281	
24,36	0,2756	15,13	684,75	0,00274	
24,38	0,2762	15,89	685,30	0,00283	
24,40	0,2770	14,80	686,11	0,00289	
24,42	0,2779	12,13	686,95	0,00291	
24,44	0,2786	13,24	687,54	0,00290	
24,46	0,2793	13,66	688,20	0,00286	
24,48	0,2801	10,97	688,88	0,00275	
24,50	0,2809	10,76	689,48	0,00276	
24,52	0,2817	11,31	690,23	0,00280	
24,54	0,2826	8,920	690,97	0,00286	
24,56	0,2833	7,683	691,59	0,00290	
24,58	0,2841	7,961	692,29	0,00290	
24,60	0,2850	7,286	692,97	0,00284	
24,62	0,2857	8,043	693,57	0,00278	
24,64	0,2866	8,001	694,34	0,00278	
24,66	0,2874	6,345	695,13	0,00285	
24,68	0,2881	7,065	695,70	0,00293	
24,70	0,2889	7,832	696,27	0,00300	
24,72	0,2898	5,312	697,10	0,00309	
24,74	0,2907	2,990	697,83	0,00297	
24,76	0,2914	5,177	698,30	0,00282	
24,78	0,2923	4,906	699,04	0,00279	
24,80	0,2932	1,094	699,96	0,00290	
24,82	0,2940	1,864	700,44	0,00299	
24,84	0,2947	7,757	700,40	0,00297	
24,86	0,2956	12,98	700,16	0,00284	
24,88	0,2966	19,87	699,87	0,00270	
24,90	0,2973	30,12	699,65	0,00266	
24,92	0,2981	36,78	699,55	0,00272	
24,94	0,2987	39,58	699,53	0,00282	
24,96	0,2994	42,56	699,55	0,00291	
24,98	0,3001	46,12	699,55	0,00297	
25,00	0,3008	50,78	699,55	0,00300	
25,02	0,3014	57,37	699,56	0,00291	
25,04	0,3021	64,48	699,60	0,00275	
25,06	0,3026	71,81	699,60	0,00273	
25,08	0,3030	79,25	699,54	0,00283	
25,10	0,3034	84,66	699,51	0,00291	
25,12	0,3039	88,09	699,59	0,00291	
25,14	0,3044	91,53	699,67	0,00288	
25,16	0,3048	96,71	699,60	0,00274	
25,18	0,3050	101,81	699,48	0,00267	
25,20	0,3054	104,23	699,55	0,00271	
25,22	0,3060	104,88	699,76	0,00286	
25,24	0,3063	107,85	699,79	0,00302	
25,26	0,3064	112,56	699,62	0,00300	
25,28	0,3066	114,93	699,53	0,00295	
25,30	0,3070	115,39	699,58	0,00284	
25,32	0,3072	117,66	699,60	0,00274	
25,34	0,3075	120,55	699,55	0,00274	
25,36	0,3077	121,52	699,50	0,00282	
25,38	0,3078	120,33	699,57	0,00289	
25,40	0,3081	121,11	699,67	0,00294	
25,42	0,3083	124,62	699,62	0,00294	
25,44	0,3083	127,75	699,49	0,00284	
25,46	0,3084	128,52	699,53	0,00272	
25,48	0,3087	128,45	699,70	0,00273	
25,50	0,3090	130,94	699,73	0,00278	
25,52	0,3091	134,22	699,58	0,00286	
25,54	0,3091	134,55	699,49	0,00292	
25,56	0,3091	133,72	699,58	0,00298	
25,58	0,3092	135,00	699,67	0,00286	
25,60	0,3093	137,37	699,60	0,00270	
25,62	0,3096	138,47	699,48	0,00263	
25,64	0,3098	137,61	699,55	0,00269	
25,66	0,3099	136,85	699,73	0,00284	
25,68	0,3099	138,64	699,73	0,00296	
25,70	0,3098	141,18	699,59	0,00294	
25,72	0,3100	141,19	699,51	0,00284	
25,74	0,3103	140,44	699,58	0,00277	
25,76	0,3105	140,84	699,64	0,00282	
25,78	0,3105	141,64	699,58	0,00288	
25,80	0,3104	142,30	699,47	0,00293	
25,82	0,3104	141,96	699,55	0,00296	
25,84	0,3106	141,69	699,75	0,00295	
25,86	0,3106	143,66	699,79	0,00286	
25,88	0,3105	146,93	699,63	0,00275	
25,90	0,3106	148,37	699,49	0,00270	
25,92	0,3109	146,88	699,56	0,00279	
25,94	0,3112	146,12	699,66	0,00293	
25,96	0,3112	146,50	699,62	0,00297	
25,98	0,3111	145,83	699,50	0,00293	
26,00	0,3111	144,01	699,53	0,00286	
26,02	0,3112	143,93	699,68	0,00278	
26,04	0,3112	146,55	699,70	0,00272	
26,06	0,3111	149,25	699,57	0,00269	
26,08	0,3111	149,13	699,50	0,00280	
26,10	0,3114	147,09	699,61	0,00297	
26,12	0,3117	147,95	699,68	0,00299	
26,14	0,3118	150,72	699,58	0,00292	
26,16	0,3117	150,91	699,47	0,00284	
26,18	0,3118	147,70	699,59	0,00278	
26,20	0,3119	146,61	699,75	0,00270	
26,22	0,3118	149,27	699,71	0,00271	
26,24	0,3117	151,83	699,54	0,00290	
26,26	0,3118	151,34	699,51	0,00353	
26,28	0,3119	149,54	699,63	0,00427	
26,30	0,3119	149,96	699,68	0,00451	
26,32	0,3118	151,56	699,56	0,00442	
26,34	0,3117	150,86	699,49	0,00437	
26,36	0,3118	148,46	699,61	0,00445	
26,38	0,3119	148,74	699,69	0,00453	
26,40	0,3119	151,60	699,59	0,00459	
26,42	0,3121	151,96	699,49	0,00461	
26,44	0,3124	149,73	699,59	0,00456	
26,46	0,3126	149,60	699,71	0,00446	
26,48	0,3125	152,69	699,64	0,00428	
26,50	0,3124	153,87	699,50	0,00362	
26,52	0,3124	151,26	699,53	0,00301	
26,54	0,3125	149,06	699,70	0,00283	
26,56	0,3125	150,90	699,71	0,00289	
26,58	0,3124	153,29	699,57	0,00284	
26,60	0,3124	152,03	699,51	0,00272	
26,62	0,3125	149,72	699,61	0,00267	
26,64	0,3125	150,40	699,65	0,00270	
26,66	0,3124	152,52	699,54	0,00284	
26,68	0,3124	151,57	699,49	0,00301	
26,70	0,3126	148,55	699,65	0,00306	
26,72	0,3129	148,66	699,75	0,00292	
26,74	0,3130	151,63	699,64	0,00272	
26,76	0,3131	152,68	699,51	0,00263	
26,78	0,3131	150,71	699,53	0,00269	
26,80	0,3132	149,55	699,67	0,00280	
26,82	0,3132	150,71	699,67	0,00292	
26,84	0,3131	151,70	699,52	0,00303	
26,86	0,3131	150,48	699,50	0,00306	
26,88	0,3132	148,64	699,69	0,00294	
26,90	0,3132	149,15	699,77	0,00277	
26,92	0,3131	151,20	699,63	0,00269	
26,94	0,3131	151,30	699,50	0,00278	
26,96	0,3131	149,60	699,56	0,00286	
26,98	0,3132	148,62	699,69	0,00289	
27,00	0,3132	150,03	699,66	0,00288	
27,02	0,3131	150,92	699,52	0,00283	
27,04	0,3133	149,33	699,55	0,00275	
27,06	0,3137	147,82	699,69	0,00240	
27,08	0,3138	149,87	699,67	0,00187	
27,10	0,3137	152,29	699,51	0,00201	
27,12	0,3138	150,62	699,52	0,00228	
27,14	0,3139	147,23	699,71	0,00208	
27,16	0,3139	147,86	699,76	0,00141	
27,18	0,3138	150,75	699,62	0,00055	
27,20	0,3137	150,55	699,51	-0,00018	
27,22	0,3138	148,92	699,54	-0,00060	
27,24	0,3139	148,20	699,62	-0,00082	
27,26	0,3139	148,28	699,61	-0,00103	
27,28	0,3138	148,55	699,50	-0,00123	
27,30	0,3138	147,72	699,52	-0,00158	
27,32	0,3143	145,90	699,70	-0,00218	
27,34	0,3145	146,35	699,75	-0,00266	
27,36	0,3144	149,71	699,59	-0,00288	
27,38	0,3144	150,01	699,48	-0,00294	
27,40	0,3145	145,93	699,67	-0,00302	
27,42	0,3146	143,77	699,87	-0,00323	
27,44	0,3146	144,94	699,80	-0,00366	
27,46	0,3144	145,96	699,59	-0,00441	
27,48	0,3144	144,71	699,53	-0,00523	
27,50	0,3146	143,41	699,62	-0,00696	
27,52	0,3146	144,87	699,62	-0,00934	
27,54	0,3145	146,19	699,50	-0,01080	
27,56	0,3147	144,60	699,51	-0,01116	
27,58	0,3151	141,71	699,69	-0,01134	
27,60	0,3152	142,43	699,75	-0,01176	
27,62	0,3151	145,87	699,60	-0,01313	
27,64	0,3151	145,81	699,50	-0,01493	
27,66	0,3152	143,05	699,62	-0,01588	
27,68	0,3153	142,45	699,73	-0,01601	
27,70	0,3152	144,31	699,63	-0,01591	
27,72	0,3151	144,31	699,50	-0,01589	
27,74	0,3153	142,12	699,56	-0,01597	
27,76	0,3157	141,42	699,69	-0,01609	
27,78	0,3159	143,36	699,64	-0,01623	
27,80	0,3158	145,07	699,48	-0,01627	
27,82	0,3158	143,42	699,55	-0,01612	
27,84	0,3160	140,38	699,78	-0,01596	
27,86	0,3159	141,15	699,80	-0,01594	
27,88	0,3158	144,17	699,61	-0,01607	
27,90	0,3158	144,45	699,53	-0,01622	
27,92	0,3162	142,76	699,63	-0,01632	
27,94	0,3165	143,42	699,64	-0,01641	
27,96	0,3165	144,81	699,50	-0,01638	
27,98	0,3165	142,56	699,51	-0,01623	
28,00	0,3166	138,69	699,72	-0,01614	
28,02	0,3166	138,88	699,81	-0,01613	
28,04	0,3165	142,67	699,65	-0,01632	
28,06	0,3164	144,23	699,51	-0,01646	
28,08	0,3166	142,15	699,60	-0,01651	
28,10	0,3169	141,87	699,67	-0,01648	
28,12	0,3171	144,13	699,56	-0,01636	
28,14	0,3171	144,18	699,48	-0,01625	
28,16	0,3172	140,25	699,64	-0,01620	
28,18	0,3173	138,79	699,80	-0,01626	
28,20	0,3172	141,53	699,71	-0,01647	
28,22	0,3171	143,37	699,51	-0,01655	
28,24	0,3171	141,25	699,52	-0,01647	
28,26	0,3172	138,98	699,74	-0,01631	
28,28	0,3173	139,87	699,78	-0,01618	
28,30	0,3174	141,78	699,60	-0,01623	
28,32	0,3176	140,79	699,51	-0,01633	
28,34	0,3178	137,87	699,65	-0,01640	
28,36	0,3179	138,08	699,73	-0,01650	
28,38	0,3178	140,70	699,60	-0,01654	
28,40	0,3177	140,86	699,48	-0,01643	
28,42	0,3179	137,58	699,59	-0,01627	
28,44	0,3183	136,37	699,72	-0,01624	
28,46	0,3184	139,20	699,64	-0,01629	
28,48	0,3184	141,47	699,50	-0,01639	
28,50	0,3185	140,31	699,54	-0,01641	
28,52	0,3186	138,85	699,68	-0,01643	
28,54	0,3185	141,04	699,64	-0,01645	
28,56	0,3184	142,98	699,49	-0,01637	
28,58	0,3185	140,10	699,54	-0,01626	
28,60	0,3189	136,55	699,74	-0,01626	
28,62	0,3192	137,64	699,75	-0,01636	
28,64	0,3191	140,48	699,57	-0,01647	
28,66	0,3191	140,39	699,49	-0,01655	
28,68	0,3192	138,04	699,67	-0,01649	
28,70	0,3193	138,11	699,80	-0,01641	
28,72	0,3192	140,56	699,68	-0,01637	
28,74	0,3191	141,83	699,52	-0,01631	
28,76	0,3195	140,33	699,54	-0,01631	
28,78	0,3198	139,47	699,65	-0,01644	
28,80	0,3199	140,76	699,61	-0,01660	
28,82	0,3198	141,12	699,48	-0,01659	
28,84	0,3198	137,95	699,57	-0,01649	
28,86	0,3199	135,34	699,77	-0,01643	
28,88	0,3199	137,45	699,74	-0,01639	
28,90	0,3198	140,60	699,56	-0,01624	
28,92	0,3201	140,04	699,51	-0,01318	
28,94	0,3205	137,93	699,62	-0,00256	
28,96	0,3206	138,64	699,64	0,02145	
28,98	0,3205	140,76	699,50	0,03596	
29,00	0,3204	139,40	699,51	0,03679	
29,02	0,3206	136,48	699,72	0,04341	
29,04	0,3208	137,87	699,79	0,04005	
29,06	0,3209	142,20	699,62	0,02407	
29,08	0,3211	142,48	699,50	0,00516	
29,10	0,3212	139,21	699,60	-0,00387	
29,12	0,3213	138,42	699,68	-0,00299	
29,14	0,3211	140,28	699,57	0,00180	
29,16	0,3211	139,49	699,48	0,00404	
29,18	0,3213	136,06	699,62	0,00404	
29,20	0,3216	134,54	699,77	0,00348	
29,22	0,3218	138,05	699,67	0,00307	
29,24	0,3218	140,17	699,50	0,00262	
29,26	0,3218	137,73	699,56	0,00239	
29,28	0,3219	135,52	699,70	0,00227	
29,30	0,3219	137,25	699,65	0,00223	
29,32	0,3218	138,83	699,49	0,00215	
29,34	0,3220	136,30	699,54	0,00194	
29,36	0,3224	133,01	699,75	0,00192	
29,38	0,3225	134,20	699,75	0,00236	
29,40	0,3224	137,12	699,56	0,00306	
29,42	0,3224	135,98	699,51	0,00370	
29,44	0,3226	133,13	699,64	0,00430	
29,46	0,3226	134,26	699,65	0,00485	
29,48	0,3225	137,14	699,50	0,00515	
29,50	0,3228	135,58	699,52	0,00522	
29,52	0,3232	131,22	699,74	0,00508	
29,54	0,3233	131,98	699,79	0,00490	
29,56	0,3232	136,37	699,61	0,00493	
29,58	0,3231	136,80	699,50	0,00506	
29,60	0,3234	133,77	699,62	0,00501	
29,62	0,3238	134,01	699,71	0,00439	
29,64	0,3238	137,04	699,59	0,00388	
29,66	0,3238	136,67	699,48	0,00359	
29,68	0,3239	132,84	699,60	0,00321	
29,70	0,3240	132,27	699,73	0,00273	
29,72	0,3239	135,71	699,63	0,00241	
29,74	0,3241	137,20	699,48	0,00213	
29,76	0,3244	134,35	699,59	0,00169	
29,78	0,3246	132,93	699,78	0,00143	
29,80	0,3246	135,70	699,72	0,00170	
29,82	0,3245	137,16	699,54	0,00218	
29,84	0,3247	133,88	699,55	0,00255	
29,86	0,3251	132,44	699,63	0,00309	
29,88	0,3252	135,58	699,55	0,00363	
29,90	0,3251	137,07	699,46	0,00410	
29,92	0,3253	132,68	699,64	0,00450	
29,94	0,3254	129,77	699,84	0,00491	
29,96	0,3256	132,12	699,75	0,00510	
29,98	0,3257	134,62	699,54	0,00505	
30,00	0,3258	133,63	699,53	0,00507	
30,02	0,3260	131,96	699,70	0,00519	
30,04	0,3260	133,03	699,71	0,00524	
30,06	0,3258	134,70	699,54	0,00510	
30,08	0,3260	132,85	699,51	0,00489	
30,10	0,3264	129,66	699,69	0,00448	
30,12	0,3266	130,55	699,75	0,00404	
30,14	0,3265	133,80	699,59	0,00356	
30,16	0,3265	133,50	699,50	0,00307	
30,18	0,3269	130,03	699,64	0,00283	
30,20	0,3272	129,91	699,73	0,00269	
30,22	0,3272	133,34	699,59	0,00254	
30,24	0,3271	133,56	699,47	0,00244	
30,26	0,3273	130,12	699,65	0,00255	
30,28	0,3277	129,25	699,82	0,00271	
30,30	0,3278	132,38	699,71	0,00288	
30,32	0,3278	133,92	699,51	0,00279	
30,34	0,3278	131,19	699,55	0,00257	
30,36	0,3280	128,67	699,74	0,00245	
30,38	0,3283	130,50	699,72	0,00251	
30,40	0,3284	132,81	699,53	0,00268	
30,42	0,3285	131,11	699,52	0,00284	
30,44	0,3287	128,79	699,74	0,00298	
30,46	0,3287	130,37	699,79	0,00320	
30,48	0,3286	132,95	699,61	0,00343	
30,50	0,3288	132,09	699,49	0,00382	
30,52	0,3292	129,32	699,61	0,00435	
30,54	0,3293	129,13	699,72	0,00481	
30,56	0,3292	131,63	699,61	0,00516	
30,58	0,3292	131,48	699,48	0,00524	
30,60	0,3296	127,70	699,60	0,00507	
30,62	0,3299	126,13	699,74	0,00481	
30,64	0,3299	129,56	699,65	0,00456	
30,66	0,3299	132,07	699,49	0,00437	
30,68	0,3301	129,52	699,56	0,00429	
30,70	0,3305	127,08	699,73	0,00426	
30,72	0,3306	129,81	699,70	0,00441	
30,74	0,3305	132,73	699,52	0,00443	
30,76	0,3305	130,51	699,52	0,00430	
30,78	0,3308	128,16	699,70	0,00413	
30,80	0,3311	130,27	699,71	0,00411	
30,82	0,3312	133,66	699,54	0,00436	
30,84	0,3312	132,76	699,49	0,00452	
30,86	0,3313	129,42	699,69	0,00467	
30,88	0,3313	129,10	699,79	0,00484	
30,90	0,3313	132,21	699,65	0,00495	
30,92	0,3315	132,43	699,50	0,00470	
30,94	0,3319	129,76	699,59	0,00435	
30,96	0,3320	129,24	699,70	0,00413	
30,98	0,3319	132,38	699,60	0,00379	
31,00	0,3319	133,74	699,47	0,00342	
31,02	0,3323	130,04	699,59	0,00304	
31,04	0,3326	127,18	699,78	0,00259	
31,06	0,3326	129,92	699,73	0,00213	
31,08	0,3325	132,80	699,53	0,00187	
31,10	0,3327	131,25	699,51	0,00208	
31,12	0,3332	128,97	699,69	0,00246	
31,14	0,3333	130,63	699,73	0,00295	
31,16	0,3332	133,81	699,56	0,00333	
31,18	0,3332	132,92	699,48	0,00344	
31,20	0,3335	129,59	699,64	0,00349	
31,22	0,3339	129,74	699,74	0,00359	
31,24	0,3339	133,19	699,61	0,00402	
31,26	0,3339	134,17	699,46	0,00449	
31,28	0,3340	130,98	699,61	0,00507	
31,30	0,3343	129,48	699,81	0,00567	
31,32	0,3345	132,23	699,74	0,00621	
31,34	0,3345	133,80	699,54	0,00664	
31,36	0,3346	131,37	699,52	0,00675	
31,38	0,3347	129,54	699,66	0,00683	
31,40	0,3347	131,31	699,67	0,00681	
31,42	0,3347	134,04	699,52	0,00672	
31,44	0,3350	132,73	699,50	0,00675	
31,46	0,3353	129,72	699,68	0,00664	
31,48	0,3354	130,62	699,74	0,00620	
31,50	0,3353	133,88	699,58	0,00575	
31,52	0,3354	133,59	699,51	0,00527	
31,54	0,3358	130,40	699,64	0,00486	
31,56	0,3360	130,86	699,69	0,00459	
31,58	0,3359	133,90	699,55	0,00478	
31,60	0,3359	134,38	699,47	0,00508	
31,62	0,3362	131,00	699,66	0,00544	
31,64	0,3366	129,61	699,83	0,00590	
31,66	0,3366	132,41	699,72	0,00650	
31,68	0,3365	134,81	699,52	0,00707	
31,70	0,3366	133,83	699,52	0,00708	
31,72	0,3367	132,13	699,67	0,00688	
31,74	0,3367	133,11	699,67	0,00681	
31,76	0,3369	134,71	699,51	0,00688	
31,78	0,3372	132,93	699,50	0,00705	
31,80	0,3374	129,74	699,70	0,00753	
31,82	0,3374	130,66	699,77	0,00808	
31,84	0,3373	133,87	699,61	0,00857	
31,86	0,3374	134,64	699,46	0,00885	
31,88	0,3378	132,10	699,62	0,00882	
31,90	0,3381	130,83	699,83	0,00849	
31,92	0,3380	132,87	699,77	0,00807	
31,94	0,3379	134,32	699,56	0,00788	
31,96	0,3381	133,25	699,51	0,00772	
31,98	0,3385	132,08	699,62	0,00779	
32,00	0,3387	133,07	699,65	0,00789	
32,02	0,3386	134,57	699,52	0,00786	
32,04	0,3386	132,94	699,48	0,00786	
32,06	0,3389	129,53	699,67	0,00767	
32,08	0,3393	129,16	699,80	0,00769	
32,10	0,3393	132,50	699,67	0,00777	
32,12	0,3393	134,24	699,50	0,00789	
32,14	0,3394	132,87	699,56	0,00788	
32,16	0,3395	132,29	699,68	0,00777	
32,18	0,3396	133,98	699,62	0,00774	
32,20	0,3398	134,28	699,47	0,00760	
32,22	0,3400	131,21	699,55	0,00756	
32,24	0,3401	128,76	699,76	0,00758	
32,26	0,3401	130,56	699,76	0,00779	
32,28	0,3400	133,77	699,56	0,00791	
32,30	0,3401	133,50	699,48	0,00788	
32,32	0,3405	130,56	699,66	0,00770	
32,34	0,3408	130,80	699,77	0,00750	
32,36	0,3407	133,76	699,63	0,00751	
32,38	0,3406	133,70	699,50	0,00750	
32,40	0,3409	130,37	699,60	0,00762	
32,42	0,3413	129,32	699,73	0,00773	
32,44	0,3413	132,36	699,63	0,00775	
32,46	0,3413	133,88	699,48	0,00765	
32,48	0,3414	131,16	699,56	0,00752	
32,50	0,3418	129,59	699,73	0,00745	
32,52	0,3420	132,08	699,69	0,00746	
32,54	0,3419	134,65	699,50	0,00757	
32,56	0,3420	132,86	699,53	0,00758	
32,58	0,3421	129,62	699,74	0,00764	
32,60	0,3422	130,67	699,78	0,00759	
32,62	0,3423	133,93	699,60	0,00748	
32,64	0,3425	133,67	699,49	0,00743	
32,66	0,3427	131,20	699,60	0,00740	
32,68	0,3428	131,53	699,71	0,00747	
32,70	0,3427	134,07	699,61	0,00754	
32,72	0,3428	134,46	699,47	0,00759	
32,74	0,3432	131,19	699,60	0,00752	
32,76	0,3435	129,68	699,78	0,00745	
32,78	0,3434	133,24	699,71	0,00741	
32,80	0,3434	136,31	699,53	0,00738	
32,82	0,3437	134,57	699,53	0,00741	
32,84	0,3440	132,28	699,65	0,00750	
32,86	0,3441	133,70	699,64	0,00758	
32,88	0,3440	135,42	699,49	0,00758	
32,90	0,3441	133,12	699,52	0,00744	
32,92	0,3445	129,59	699,74	0,00722	
32,94	0,3447	130,71	699,82	0,00717	
32,96	0,3447	135,10	699,65	0,00726	
32,98	0,3446	135,67	699,51	0,00734	
33,00	0,3448	133,32	699,58	0,00737	
33,02	0,3451	133,91	699,65	0,00730	
33,04	0,3453	136,66	699,55	0,00728	
33,06	0,3453	135,85	699,46	0,00717	
33,08	0,3454	131,26	699,64	0,00700	
33,10	0,3455	129,63	699,86	0,00706	
33,12	0,3454	133,67	699,79	0,00726	
33,14	0,3455	137,45	699,58	0,00736	
33,16	0,3458	136,78	699,52	0,00733	
33,18	0,3461	134,66	699,63	0,00722	
33,20	0,3461	135,85	699,63	0,00708	
33,22	0,3460	137,86	699,49	0,00701	
33,24	0,3462	135,93	699,51	0,00708	
33,26	0,3466	132,18	699,71	0,00717	
33,28	0,3468	133,33	699,75	0,00721	
33,30	0,3467	137,01	699,59	0,00725	
33,32	0,3467	137,50	699,50	0,00718	
33,34	0,3469	134,45	699,63	0,00699	
33,36	0,3473	134,24	699,71	0,00686	
33,38	0,3474	137,04	699,59	0,00688	
33,40	0,3473	137,91	699,49	0,00701	
33,42	0,3474	136,13	699,58	0,00711	
33,44	0,3475	135,76	699,70	0,00712	
33,46	0,3475	138,81	699,63	0,00703	
33,48	0,3476	140,36	699,48	0,00695	
33,50	0,3480	137,78	699,55	0,00685	
33,52	0,3482	136,14	699,74	0,00681	
33,54	0,3482	138,52	699,73	0,00690	
33,56	0,3480	141,08	699,57	0,00702	
33,58	0,3482	140,45	699,51	0,00705	
33,60	0,3486	138,98	699,59	0,00697	
33,62	0,3488	139,67	699,64	0,00686	
33,64	0,3487	141,12	699,53	0,00681	
33,66	0,3487	140,31	699,47	0,00679	
33,68	0,3488	137,06	699,66	0,00680	
33,70	0,3490	136,08	699,81	0,00693	
33,72	0,3492	139,05	699,71	0,00704	
33,74	0,3493	141,40	699,52	0,00701	
33,76	0,3494	140,51	699,50	0,00684	
33,78	0,3495	138,85	699,67	0,00668	
33,80	0,3495	139,66	699,74	0,00670	
33,82	0,3494	141,33	699,60	0,00685	
33,84	0,3495	140,74	699,49	0,00693	
33,86	0,3499	138,84	699,62	0,00689	
33,88	0,3502	139,00	699,74	0,00682	
33,90	0,3501	142,06	699,64	0,00676	
33,92	0,3500	143,06	699,50	0,00665	
33,94	0,3501	140,72	699,56	0,00657	
33,96	0,3505	139,61	699,68	0,00665	
33,98	0,3507	142,37	699,62	0,00679	
34,00	0,3507	143,88	699,49	0,00690	
34,02	0,3508	140,64	699,58	0,00688	
34,04	0,3509	138,32	699,72	0,00663	
34,06	0,3508	141,23	699,66	0,00646	
34,08	0,3508	144,17	699,50	0,00650	
34,10	0,3511	142,27	699,51	0,00662	
34,12	0,3514	140,01	699,66	0,00669	
34,14	0,3515	141,36	699,67	0,00672	
34,16	0,3514	143,97	699,53	0,00664	
34,18	0,3513	143,00	699,48	0,00655	
34,20	0,3515	139,99	699,64	0,00650	
34,22	0,3516	140,60	699,72	0,00654	
34,24	0,3518	143,71	699,59	0,00662	
34,26	0,3519	144,62	699,47	0,00673	
34,28	0,3521	142,04	699,59	0,00675	
34,30	0,3522	140,20	699,77	0,00673	
34,32	0,3522	142,39	699,72	0,00665	
34,34	0,3521	144,56	699,54	0,00658	
34,36	0,3523	142,96	699,51	0,00653	
34,38	0,3527	141,06	699,64	0,00648	
34,40	0,3528	142,51	699,66	0,00654	
34,42	0,3528	144,54	699,53	0,00663	
34,44	0,3527	143,75	699,48	0,00662	
34,46	0,3528	140,70	699,66	0,00651	
34,48	0,3529	140,83	699,79	0,00639	
34,50	0,3528	143,71	699,68	0,00637	
34,52	0,3529	145,54	699,50	0,00646	
34,54	0,3532	144,61	699,52	0,00661	
34,56	0,3535	143,22	699,70	0,00665	
34,58	0,3535	143,91	699,72	0,00660	
34,60	0,3534	145,09	699,55	0,00661	
34,62	0,3534	143,96	699,49	0,00651	
34,64	0,3535	142,20	699,65	0,00636	
34,66	0,3536	143,16	699,73	0,00640	
34,68	0,3536	146,13	699,60	0,00661	
34,70	0,3538	146,00	699,48	0,00677	
34,72	0,3541	143,25	699,58	0,00675	
34,74	0,3542	142,31	699,73	0,00663	
34,76	0,3542	143,88	699,67	0,00650	
34,78	0,3540	145,11	699,50	0,00643	
34,80	0,3541	143,73	699,52	0,00640	
34,82	0,3545	141,95	699,72	0,00643	
34,84	0,3548	142,85	699,76	0,00653	
34,86	0,3548	144,83	699,60	0,00660	
34,88	0,3547	144,68	699,49	0,00662	
34,90	0,3548	142,66	699,59	0,00656	
34,92	0,3549	142,18	699,70	0,00646	
34,94	0,3548	143,98	699,61	0,00646	
34,96	0,3548	144,53	699,48	0,00656	
34,98	0,3551	142,76	699,58	0,00658	
35,00	0,3555	141,61	699,77	0,00667	
35,02	0,3555	143,63	699,74	0,00677	
35,04	0,3554	145,57	699,55	0,00671	
35,06	0,3554	144,20	699,50	0,00649	
35,08	0,3555	142,22	699,66	0,00640	
35,10	0,3555	142,95	699,70	0,00643	
35,12	0,3554	144,89	699,55	0,00653	
35,14	0,3556	144,44	699,49	0,00663	
35,16	0,3560	141,71	699,65	0,00662	
35,18	0,3562	141,89	699,73	0,00654	
35,20	0,3561	145,38	699,59	0,00645	
35,22	0,3561	145,58	699,48	0,00639	
35,24	0,3562	141,67	699,64	0,00634	
35,26	0,3563	140,84	699,80	0,00640	
35,28	0,3562	143,34	699,72	0,00658	
35,30	0,3564	144,96	699,54	0,00663	
35,32	0,3567	143,75	699,51	0,00655	
35,34	0,3569	142,76	699,62	0,00644	
35,36	0,3569	143,74	699,65	0,00640	
35,38	0,3568	144,84	699,52	0,00642	
35,40	0,3567	143,95	699,46	0,00650	
35,42	0,3570	141,99	699,64	0,00661	
35,44	0,3574	142,20	699,79	0,00667	
35,46	0,3575	145,58	699,69	0,00659	
35,48	0,3574	147,85	699,52	0,00645	
35,50	0,3574	145,46	699,53	0,00631	
35,52	0,3576	143,11	699,65	0,00629	
35,54	0,3575	144,41	699,63	0,00638	
35,56	0,3574	145,70	699,50	0,00656	
35,58	0,3576	143,44	699,53	0,00663	
35,60	0,3580	141,27	699,74	0,00656	
35,62	0,3582	143,38	699,79	0,00638	
35,64	0,3581	147,12	699,62	0,00625	
35,66	0,3581	147,91	699,50	0,00623	
35,68	0,3581	146,10	699,57	0,00630	
35,70	0,3582	145,49	699,67	0,00646	
35,72	0,3582	146,44	699,61	0,00659	
35,74	0,3581	146,13	699,49	0,00658	
35,76	0,3584	143,77	699,56	0,00647	
35,78	0,3588	142,70	699,71	0,00639	
35,80	0,3589	145,35	699,68	0,00641	
35,82	0,3588	147,89	699,51	0,00647	
35,84	0,3588	147,13	699,50	0,00648	
35,86	0,3589	145,35	699,69	0,00651	
35,88	0,3589	146,09	699,76	0,00655	
35,90	0,3588	148,05	699,62	0,00655	
35,92	0,3588	148,05	699,50	0,00645	
35,94	0,3591	146,43	699,55	0,00632	
35,96	0,3595	146,31	699,66	0,00630	
35,98	0,3595	147,63	699,62	0,00643	
36,00	0,3594	147,93	699,48	0,00654	
36,02	0,3594	146,36	699,53	0,00654	
36,04	0,3596	145,06	699,72	0,00649	
36,06	0,3596	147,04	699,75	0,00646	
36,08	0,3594	150,29	699,59	0,00640	
36,10	0,3595	150,33	699,48	0,00633	
36,12	0,3598	148,17	699,59	0,00635	
36,14	0,3602	147,64	699,70	0,00643	
36,16	0,3602	149,53	699,63	0,00653	
36,18	0,3601	149,98	699,48	0,00659	
36,20	0,3601	147,56	699,54	0,00645	
36,22	0,3602	146,23	699,74	0,00629	
36,24	0,3602	148,59	699,75	0,00634	
36,26	0,3601	151,19	699,58	0,00648	
36,28	0,3601	150,69	699,49	0,00654	
36,30	0,3602	148,80	699,60	0,00656	
36,32	0,3603	148,73	699,70	0,00654	
36,34	0,3603	150,83	699,60	0,00649	
36,36	0,3606	151,12	699,48	0,00637	
36,38	0,3608	147,87	699,60	0,00625	
36,40	0,3609	146,30	699,73	0,00628	
36,42	0,3609	149,04	699,65	0,00642	
36,44	0,3607	150,71	699,49	0,00656	
36,46	0,3608	148,16	699,56	0,00653	
36,48	0,3609	146,44	699,73	0,00643	
36,50	0,3609	148,79	699,70	0,00636	
36,52	0,3608	151,36	699,53	0,00632	
36,54	0,3609	149,92	699,51	0,00634	
36,56	0,3614	147,25	699,69	0,00645	
36,58	0,3615	148,05	699,74	0,00654	
36,60	0,3614	150,90	699,59	0,00661	
36,62	0,3614	150,91	699,49	0,00659	
36,64	0,3615	148,30	699,61	0,00643	
36,66	0,3616	147,96	699,70	0,00637	
36,68	0,3615	150,44	699,60	0,00650	
36,70	0,3614	151,15	699,47	0,00660	
36,72	0,3615	148,13	699,57	0,00661	
36,74	0,3616	146,41	699,75	0,00663	
36,76	0,3615	148,80	699,71	0,00663	
36,78	0,3616	151,07	699,53	0,00652	
36,80	0,3619	148,99	699,50	0,00643	
36,82	0,3622	146,56	699,65	0,00638	
36,84	0,3622	147,78	699,69	0,00642	
36,86	0,3621	150,57	699,55	0,00654	
36,88	0,3621	149,77	699,49	0,00658	
36,90	0,3622	146,76	699,63	0,00654	
36,92	0,3622	147,25	699,73	0,00645	
36,94	0,3621	150,50	699,61	0,00636	
36,96	0,3621	150,59	699,50	0,00633	
36,98	0,3625	147,23	699,59	0,00635	
37,00	0,3628	146,00	699,71	0,00645	
37,02	0,3629	148,90	699,65	0,00659	
37,04	0,3628	150,68	699,49	0,00668	
37,06	0,3628	148,31	699,53	0,00660	
37,08	0,3629	146,26	699,71	0,00646	
37,10	0,3629	147,95	699,73	0,00643	
37,12	0,3628	150,85	699,56	0,00645	
37,14	0,3628	149,89	699,51	0,00656	
37,16	0,3632	146,80	699,65	0,00667	
37,18	0,3635	147,36	699,70	0,00670	
37,20	0,3635	150,36	699,56	0,00663	
37,22	0,3634	149,90	699,49	0,00647	
37,24	0,3636	146,65	699,67	0,00633	
37,26	0,3636	145,94	699,81	0,00629	
37,28	0,3635	149,02	699,69	0,00643	
37,30	0,3634	150,70	699,52	0,00657	
37,32	0,3634	148,47	699,54	0,00664	
37,34	0,3636	147,25	699,65	0,00662	
37,36	0,3635	149,37	699,62	0,00652	
37,38	0,3635	150,74	699,48	0,00639	
37,40	0,3638	148,29	699,52	0,00635	
37,42	0,3642	145,63	699,74	0,00636	
37,44	0,3643	147,04	699,78	0,00648	
37,46	0,3641	150,52	699,61	0,00663	
37,48	0,3641	151,47	699,49	0,00667	
37,50	0,3642	149,64	699,61	0,00658	
37,52	0,3642	149,01	699,75	0,00645	
37,54	0,3642	150,75	699,67	0,00639	
37,56	0,3641	151,28	699,50	0,00643	
37,58	0,3643	148,86	699,53	0,00648	
37,60	0,3647	147,11	699,71	0,00657	
37,62	0,3649	149,03	699,70	0,00667	
37,64	0,3648	151,43	699,54	0,00664	
37,66	0,3648	149,99	699,50	0,00651	
37,68	0,3649	147,32	699,63	0,00641	
37,70	0,3649	147,97	699,67	0,00649	
37,72	0,3648	150,46	699,54	0,00668	
37,74	0,3648	149,75	699,47	0,00675	
37,76	0,3650	146,53	699,64	0,00674	
37,78	0,3654	145,87	699,80	0,00662	
37,80	0,3655	149,08	699,69	0,00651	
37,82	0,3654	151,03	699,52	0,00646	
37,84	0,3654	149,38	699,53	0,00648	
37,86	0,3656	147,99	699,66	0,00660	
37,88	0,3656	149,53	699,66	0,00678	
37,90	0,3655	150,88	699,52	0,00685	
37,92	0,3654	149,25	699,49	0,00677	
37,94	0,3656	146,40	699,68	0,00655	
37,96	0,3656	147,18	699,80	0,00641	
37,98	0,3656	150,37	699,68	0,00647	
38,00	0,3743	151,43	699,52	0,00662	
38,02	0,4239	149,93	699,53	0,00670	
38,04	0,4717	149,21	699,63	0,00671	
38,06	0,4893	150,50	699,61	0,00666	
38,08	0,4907	151,19	699,48	0,00657	
38,10	0,4898	149,12	699,52	0,00647	
38,12	0,4897	146,29	699,72	0,00643	
38,14	0,4899	147,28	699,75	0,00654	
38,16	0,4900	150,53	699,58	0,00668	
38,18	0,4903	150,97	699,49	0,00674	
38,20	0,4906	147,91	699,60	0,00671	
38,22	0,4906	147,67	699,68	0,00651	
38,24	0,4905	151,99	699,55	0,00621	
38,26	0,4907	157,40	699,45	0,00600	
38,28	0,4917	164,71	699,62	0,00566	
38,30	0,4935	180,67	699,80	0,00514	
38,32	0,4958	208,07	699,72	0,00452	
38,34	0,4988	243,20	699,53	0,00365	
38,36	0,5028	282,48	699,54	0,00241	
38,38	0,5077	329,50	699,68	0,00099	
38,40	0,5133	386,33	699,65	-0,00068	
38,42	0,5196	449,34	699,49	-0,00266	
38,44	0,5268	514,77	699,53	-0,00505	
38,46	0,5349	583,55	699,75	-0,00806	
38,48	0,5437	659,27	699,81	-0,01189	
38,50	0,5530	736,87	699,62	-0,01687	
38,52	0,5634	807,13	699,51	-0,02317	
38,54	0,5746	868,81	699,61	-0,03043	
38,56	0,5865	926,11	699,66	-0,03859	
38,58	0,5992	977,43	699,54	-0,04767	
38,60	0,6127	1016,7	699,50	-0,05766	
38,62	0,6272	1045,8	699,66	-0,06854	
38,64	0,6424	1074,1	699,71	-0,08012	
38,66	0,6581	1101,7	699,55	-0,09252	
38,68	0,6749	1121,8	699,52	-0,1057	
38,70	0,6926	1136,1	699,71	-0,1195	
38,72	0,7109	1153,5	699,78	-0,1338	
38,74	0,7300	1172,1	699,64	-0,1489	
38,76	0,7499	1185,9	699,51	-0,1647	
38,78	0,7709	1196,4	699,60	-0,1813	
38,80	0,7925	1207,9	699,77	-0,1985	
38,82	0,8148	1220,9	699,75	-0,2164	
38,84	0,8379	1233,7	699,60	-0,2349	
38,86	0,8618	1245,0	699,50	-0,2541	
38,88	0,8865	1254,4	699,56	-0,2739	
38,90	0,9121	1263,6	699,63	-0,2942	
38,92	0,9384	1273,0	699,56	-0,3153	
38,94	0,9655	1281,0	699,47	-0,3372	
38,96	0,9935	1286,9	699,58	-0,3597	
38,98	1,022	1294,3	699,74	-0,3827	
39,00	1,052	1305,1	699,73	-0,4062	
39,02	1,082	1316,4	699,58	-0,4304	
39,04	1,113	1324,1	699,51	-0,4554	
39,06	1,145	1329,8	699,60	-0,4810	
39,08	1,178	1336,9	699,67	-0,5073	
39,10	1,212	1344,7	699,58	-0,5343	
39,12	1,246	1351,1	699,49	-0,5619	
39,14	1,281	1355,9	699,59	-0,5901	
39,16	1,317	1362,1	699,74	-0,6190	
39,18	1,354	1370,4	699,72	-0,6484	
39,20	1,391	1378,3	699,57	-0,6785	
39,22	1,430	1383,9	699,51	-0,7088	
39,24	1,469	1388,1	699,61	-0,7393	
39,26	1,508	1392,6	699,68	-0,7697	
39,28	1,548	1397,9	699,62	-0,8002	
39,30	1,588	1400,8	699,55	-0,8310	
39,32	1,628	1402,2	699,54	-0,8619	
39,34	1,668	1405,6	699,57	-0,8928	
39,36	1,708	1409,3	699,58	-0,9238	
39,38	1,748	1411,1	699,55	-0,9549	
39,40	1,788	1412,2	699,53	-0,9861	
39,42	1,828	1413,4	699,58	-1,017	
39,44	1,868	1414,7	699,65	-1,048	
39,46	1,908	1417,3	699,63	-1,080	
39,48	1,948	1420,9	699,52	-1,111	
39,50	1,988	1423,6	699,47	-1,143	
39,52	2,028	1422,8	699,66	-1,175	
39,54	2,068	1422,1	699,87	-1,206	
39,56	2,108	1424,1	699,84	-1,238	
39,58	2,148	1427,1	699,66	-1,270	
39,60	2,188	1428,2	699,58	-1,302	
39,62	2,228	1428,8	699,58	-1,334	
39,64	2,268	1430,2	699,54	-1,366	
39,66	2,308	1429,8	699,49	-1,398	
39,68	2,348	1426,2	699,60	-1,431	
39,70	2,388	1423,4	699,78	-1,463	
39,72	2,428	1425,2	699,75	-1,495	
39,74	2,468	1429,3	699,60	-1,528	
39,76	2,508	1429,7	699,61	-1,560	
39,78	2,548	1428,3	699,66	-1,593	
39,80	2,588	1429,6	699,57	-1,626	
39,82	2,628	1429,4	699,50	-1,659	
39,84	2,668	1424,8	699,62	-1,691	
39,86	2,708	1421,8	699,71	-1,724	
39,88	2,748	1424,4	699,62	-1,757	
39,90	2,788	1426,5	699,50	-1,791	
39,92	2,828	1424,3	699,57	-1,824	
39,94	2,868	1422,3	699,72	-1,857	
39,96	2,908	1423,3	699,69	-1,891	
39,98	2,948	1423,9	699,54	-1,924	
40,00	2,988	1421,1	699,55	-1,958	
40,02	3,028	1418,5	699,66	-1,991	
40,04	3,068	1419,4	699,62	-2,025	
40,06	3,108	1420,0	699,52	-2,059	
40,08	3,148	1415,4	699,57	-2,093	
40,10	3,188	1411,5	699,68	-2,127	
40,12	3,228	1412,3	699,62	-2,161	
40,14	3,268	1413,3	699,51	-2,195	
40,16	3,308	1410,1	699,58	-2,230	
40,18	3,348	1407,0	699,67	-2,264	
40,20	3,388	1408,4	699,59	-2,298	
40,22	3,428	1408,5	699,50	-2,333	
40,24	3,468	1403,8	699,64	-2,368	
40,26	3,508	1400,0	699,77	-2,402	
40,28	3,548	1400,3	699,67	-2,437	
40,30	3,588	1400,2	699,55	-2,472	
40,32	3,628	1395,8	699,66	-2,507	
40,34	3,668	1392,9	699,74	-2,542	
40,36	3,708	1394,1	699,62	-2,577	
40,38	3,748	1392,6	699,53	-2,612	
40,40	3,788	1387,2	699,65	-2,647	
40,42	3,828	1384,6	699,69	-2,683	
40,44	3,868	1385,5	699,57	-2,718	
40,46	3,908	1382,7	699,56	-2,754	
40,48	3,948	1377,0	699,68	-2,789	
40,50	3,988	1375,6	699,66	-2,825	
40,52	4,028	1376,0	699,54	-2,861	
40,54	4,068	1371,4	699,60	-2,896	
40,56	4,108	1366,3	699,71	-2,932	
40,58	4,148	1365,9	699,65	-2,969	
40,60	4,188	1365,6	699,53	-3,005	
40,62	4,228	1360,7	699,58	-3,041	
40,64	4,268	1355,9	699,63	-3,077	
40,66	4,308	1354,6	699,56	-3,113	
40,68	4,348	1352,3	699,48	-3,149	
40,70	4,388	1346,7	699,65	-3,186	
40,72	4,428	1342,7	699,82	-3,222	
40,74	4,468	1342,9	699,73	-3,259	
40,76	4,508	1343,1	699,57	-3,295	
40,78	4,548	1338,0	699,67	-3,332	
40,80	4,588	1333,3	699,74	-3,369	
40,82	4,628	1333,0	699,60	-3,405	
40,84	4,668	1329,9	699,56	-3,442	
40,86	4,708	1321,8	699,72	-3,479	
40,88	4,748	1318,0	699,71	-3,516	
40,90	4,788	1318,2	699,58	-3,553	
40,92	4,828	1313,2	699,63	-3,590	
40,94	4,868	1306,2	699,71	-3,628	
40,96	4,908	1305,0	699,61	-3,665	
40,98	4,948	1303,4	699,56	-3,702	
41,00	4,988	1297,3	699,68	-3,740	
41,02	5,028	1293,5	699,69	-3,777	
41,04	5,068	1292,5	699,56	-3,815	
41,06	5,108	1288,1	699,60	-3,852	
41,08	5,148	1281,4	699,72	-3,890	
41,10	5,188	1279,0	699,64	-3,928	
41,12	5,228	1277,3	699,54	-3,965	
41,14	5,268	1270,4	699,65	-4,003	
41,16	5,308	1263,8	699,73	-4,041	
41,18	5,348	1262,7	699,61	-4,079	
41,20	5,388	1259,4	699,58	-4,117	
41,22	5,428	1252,0	699,65	-4,155	
41,24	5,468	1248,1	699,60	-4,193	
41,26	5,508	1246,4	699,50	-4,231	
41,28	5,548	1239,9	699,64	-4,269	
41,30	5,588	1232,0	699,84	-4,307	
41,32	5,628	1229,2	699,78	-4,346	
41,34	5,668	1227,4	699,60	-4,384	
41,36	5,708	1220,7	699,68	-4,422	
41,38	5,748	1214,3	699,77	-4,461	
41,40	5,788	1211,9	699,64	-4,499	
41,42	5,828	1207,6	699,57	-4,538	
41,44	5,868	1198,6	699,71	-4,576	
41,46	5,908	1192,5	699,70	-4,615	
41,48	5,948	1189,7	699,57	-4,653	
41,50	5,988	1182,8	699,61	-4,692	
41,52	6,028	1174,5	699,71	-4,730	
41,54	6,068	1171,5	699,62	-4,769	
41,56	6,108	1168,1	699,55	-4,807	
41,58	6,148	1158,9	699,66	-4,846	
41,60	6,188	1151,6	699,68	-4,885	
41,62	6,228	1148,6	699,56	-4,924	
41,64	6,268	1142,0	699,71	-4,962	
41,66	6,308	1132,7	699,92	-5,001	
41,68	6,348	1127,6	699,82	-5,040	
41,70	6,388	1124,3	699,62	-5,079	
41,72	6,428	1116,4	699,76	-5,118	
41,74	6,468	1107,6	699,96	-5,157	
41,76	6,508	1102,6	699,84	-5,196	
41,78	6,548	1098,0	699,64	-5,235	
41,80	6,588	1088,5	699,73	-5,274	
41,82	6,628	1078,9	699,82	-5,313	
41,84	6,668	1074,1	699,67	-5,352	
41,86	6,708	1067,6	699,62	-5,391	
41,88	6,748	1057,0	699,76	-5,430	
41,90	6,788	1049,1	699,74	-5,469	
41,92	6,828	1045,3	699,59	-5,508	
41,94	6,868	1036,8	699,71	-5,547	
41,96	6,908	1026,4	699,85	-5,586	
41,98	6,948	1021,0	699,72	-5,626	
42,00	6,988	1015,0	699,62	-5,665	
42,02	7,028	1003,6	699,77	-5,704	
42,04	7,068	994,35	699,78	-5,743	
42,06	7,108	989,34	699,61	-5,782	
42,08	7,148	980,72	699,68	-5,822	
42,10	7,188	968,70	699,82	-5,861	
42,12	7,228	961,10	699,71	-5,900	
42,14	7,268	953,90	699,61	-5,940	
42,16	7,308	941,47	699,77	-5,979	
42,18	7,348	930,64	699,78	-6,019	
42,20	7,388	924,46	699,61	-6,058	
42,22	7,428	914,44	699,61	-6,097	
42,24	7,468	900,17	699,71	-6,137	
42,26	7,508	891,01	699,62	-6,176	
42,28	7,548	882,52	699,56	-6,216	
42,30	7,588	868,59	699,68	-6,255	
42,32	7,628	856,24	699,68	-6,295	
42,34	7,668	847,91	699,56	-6,334	
42,36	7,708	834,47	699,65	-6,374	
42,38	7,748	819,17	699,72	-6,414	
42,40	7,788	808,72	699,60	-6,454	
42,42	7,828	796,38	699,61	-6,494	
42,44	7,868	779,24	699,76	-6,533	
42,46	7,908	764,99	699,70	-6,573	
42,48	7,948	752,82	699,61	-6,613	
42,50	7,988	735,21	699,78	-6,653	
42,52	8,028	716,39	699,84	-6,693	
42,54	8,068	701,95	699,66	-6,733	
42,56	8,108	684,47	699,69	-6,774	
42,58	8,148	661,33	699,91	-6,814	
42,60	8,188	640,78	699,86	-6,855	
42,62	8,228	622,09	699,64	-6,896	
42,64	8,268	597,32	699,70	-6,937	
42,66	8,308	567,97	699,83	-6,978	
42,68	8,348	541,02	699,72	-7,020	
42,70	8,388	512,01	699,61	-7,063	
42,72	8,428	474,06	699,73	-7,107	
42,74	8,468	430,36	699,73	-7,150	
42,76	8,508	385,32	699,59	-7,193	
42,78	8,548	334,43	699,67	-7,235	
42,80	8,588	279,26	699,79	-7,277	
42,82	8,628	231,35	699,68	-7,319	
42,84	8,668	190,59	699,66	-7,361	
42,86	8,708	150,81	699,83	-7,403	
42,88	8,748	117,19	699,78	-7,442	
42,90	8,788	92,82	699,70	-7,477	
42,92	8,828	67,11	700,19	-7,508	
42,94	8,867	39,63	700,59	-7,525	
42,96	8,900	18,93	700,42	-7,531	
42,98	8,924	2,813	699,95	-7,534	
43,00	8,937	-12,60	700,03	-7,536	
43,02	8,944	-24,42	700,40	-7,538	
43,04	8,946	-29,19	699,89	-7,539	
43,06	8,948	-31,31	699,23	-7,540	
43,08	8,948	-33,27	698,54	-7,540	
43,10	8,949	-35,11	697,96	-7,540	
43,12	8,949	-34,98	697,48	-7,541	
43,14	8,949	-35,08	697,03	-7,541	
43,16	8,949	-35,87	696,61	-7,542	
43,18	8,949	-36,37	696,22	-7,542	
43,20	8,949	-36,51	695,83	-7,543	
43,22	8,949	-36,54	695,42	-7,543	
43,24	8,949	-36,56	695,01	-7,543	
43,26	8,949	-36,61	694,60	-7,544	
43,28	8,949	-36,65	694,18	-7,544	
43,30	8,949	-36,59	693,77	-7,544	
43,32	8,949	-36,56	693,37	-7,545	
43,34	8,949	-36,56	692,96	-7,545	
43,36	8,949	-36,55	692,54	-7,545	
43,38	8,949	-36,57	692,12	-7,546	
43,40	8,949	-36,59	691,72	-7,546	
43,42	8,949	-36,64	691,32	-7,546	
43,44	8,949	-36,65	690,93	-7,547	
43,46	8,949	-36,60	690,56	-7,547	
43,48	8,949	-36,60	690,18	-7,547	
43,50	8,949	-36,62	689,79	-7,548	
43,52	8,949	-36,58	689,40	-7,548	
43,54	8,949	-36,52	689,03	-7,548	
43,56	8,949	-36,51	688,64	-7,548	
43,58	8,949	-36,48	688,26	-7,549	
43,60	8,949	-36,45	687,88	-7,549	
43,62	8,949	-36,44	687,47	-7,549	
43,64	8,949	-36,48	687,05	-7,550	
43,66	8,949	-36,50	686,64	-7,550	
43,68	8,949	-36,50	686,24	-7,550	
43,70	8,949	-36,48	685,88	-7,551	
43,72	8,949	-36,45	685,54	-7,551	
43,74	8,949	-36,44	685,18	-7,551	
43,76	8,949	-36,49	684,79	-7,552	
43,78	8,949	-36,51	684,38	-7,552	
43,80	8,949	-36,52	683,97	-7,552	
43,82	8,949	-36,45	683,55	-7,552	
43,84	8,949	-36,41	683,15	-7,553	
43,86	8,949	-36,47	682,77	-7,553	
43,88	8,949	-36,45	682,38	-7,553	
43,90	8,949	-36,42	681,99	-7,554	
43,92	8,949	-36,45	681,60	-7,554	
43,94	8,949	-36,46	681,21	-7,554	
43,96	8,949	-36,45	680,80	-7,554	
43,98	8,949	-36,38	680,38	-7,555	
44,00	8,949	-36,31	679,99	-7,555	
44,02	8,949	-36,29	679,62	-7,555	
44,04	8,949	-36,30	679,25	-7,555	
44,06	8,949	-36,37	678,87	-7,556	
44,08	8,949	-36,42	678,47	-7,556	
44,10	8,949	-36,40	678,08	-7,556	
44,12	8,949	-36,42	677,67	-7,557	
44,14	8,949	-36,48	677,26	-7,557	
44,16	8,949	-36,50	676,86	-7,557	
44,18	8,949	-36,50	676,44	-7,557	
44,20	8,949	-36,47	676,02	-7,558	
44,22	8,949	-36,47	675,59	-7,558	
44,24	8,949	-36,51	675,17	-7,558	
44,26	8,949	-36,53	674,76	-7,559	
44,28	8,949	-36,55	674,33	-7,559	
44,30	8,949	-36,61	673,89	-7,559	
44,32	8,949	-36,60	673,45	-7,559	
44,34	8,949	-36,54	673,02	-7,560	
44,36	8,949	-36,52	672,59	-7,560	
44,38	8,949	-36,56	672,16	-7,560	
44,40	8,949	-36,48	671,73	-7,560	
44,42	8,949	-36,38	671,28	-7,561	
44,44	8,949	-36,41	670,83	-7,561	
44,46	8,949	-36,48	670,37	-7,561	
44,48	8,949	-36,49	669,94	-7,562	
44,50	8,949	-36,51	669,51	-7,562	
44,52	8,949	-36,51	669,09	-7,562	
44,54	8,949	-36,52	668,66	-7,562	
44,56	8,949	-36,58	668,22	-7,563	
44,58	8,949	-36,60	667,79	-7,563	
44,60	8,949	-36,56	667,36	-7,563	
44,62	8,949	-36,58	666,94	-7,564	
44,64	8,949	-36,57	666,52	-7,564	
44,66	8,949	-36,51	666,10	-7,564	
44,68	8,949	-36,49	665,66	-7,564	
44,70	8,949	-36,51	665,23	-7,565	
44,72	8,949	-36,56	664,81	-7,565	
44,74	8,949	-36,56	664,36	-7,565	
44,76	8,949	-36,52	663,90	-7,566	
44,78	8,949	-36,46	663,45	-7,566	
44,80	8,949	-36,53	662,99	-7,566	
44,82	8,949	-36,60	662,54	-7,566	
44,84	8,949	-36,66	662,09	-7,567	
44,86	8,949	-36,65	661,64	-7,567	
44,88	8,949	-36,59	661,18	-7,567	
44,90	8,949	-36,55	660,72	-7,568	
44,92	8,949	-36,52	660,26	-7,568	
44,94	8,949	-36,56	659,79	-7,568	
44,96	8,949	-36,51	659,34	-7,568	
44,98	8,949	-36,46	658,89	-7,568	
45,00	8,949	-36,47	658,44	-7,569	
45,02	8,949	-36,44	658,00	-7,569	
45,04	8,949	-36,47	657,54	-7,569	
45,06	8,949	-36,50	657,08	-7,569	
45,08	8,949	-36,51	656,61	-7,570	
45,10	8,949	-36,45	656,13	-7,570	
45,12	8,949	-36,46	655,64	-7,570	
45,14	8,949	-36,52	655,16	-7,570	
45,16	8,949	-36,51	654,70	-7,571	
45,18	8,949	-36,43	654,24	-7,571	
45,20	8,949	-36,48	653,78	-7,571	
45,22	8,949	-36,53	653,33	-7,571	
45,24	8,949	-36,52	652,91	-7,572	
45,26	8,949	-36,54	652,46	-7,572	
45,28	8,949	-36,54	651,98	-7,572	
45,30	8,949	-36,53	651,49	-7,572	
45,32	8,949	-36,52	651,01	-7,573	
45,34	8,949	-36,49	650,53	-7,573	
45,36	8,949	-36,47	650,06	-7,573	
45,38	8,949	-36,49	649,60	-7,573	
45,40	8,949	-36,54	649,12	-7,574	
45,42	8,949	-36,52	648,64	-7,574	
45,44	8,949	-36,51	648,16	-7,574	
45,46	8,949	-36,52	647,70	-7,574	
45,48	8,949	-36,55	647,23	-7,575	
45,50	8,949	-36,53	646,75	-7,575	
45,52	8,949	-36,48	646,26	-7,575	
45,54	8,949	-36,49	645,78	-7,575	
45,56	8,949	-36,53	645,30	-7,576	
45,58	8,949	-36,60	644,83	-7,576	
45,60	8,949	-36,57	644,34	-7,576	
45,62	8,949	-36,57	643,85	-7,577	
45,64	8,949	-36,53	643,37	-7,577	
45,66	8,949	-36,48	642,92	-7,577	
45,68	8,949	-36,44	642,49	-7,577	
45,70	8,949	-36,47	642,07	-7,578	
45,72	8,949	-36,50	641,64	-7,578	
45,74	8,949	-36,55	641,19	-7,578	
45,76	8,949	-36,60	640,73	-7,578	
45,78	8,949	-36,61	640,28	-7,579	
45,80	8,949	-36,56	639,84	-7,579	
45,82	8,949	-36,51	639,40	-7,579	
45,84	8,949	-36,54	638,96	-7,580	
45,86	8,949	-36,62	638,52	-7,580	
45,88	8,949	-36,63	638,05	-7,580	
45,90	8,949	-36,66	637,58	-7,580	
45,92	8,949	-36,64	637,11	-7,581	
45,94	8,949	-36,67	636,64	-7,581	
45,96	8,949	-36,73	636,18	-7,581	
45,98	8,949	-36,64	635,72	-7,581	
46,00	8,949	-36,57	635,25	-7,582	
46,02	8,949	-36,57	634,76	-7,582	
46,04	8,949	-36,53	634,28	-7,582	
46,06	8,949	-36,53	633,79	-7,582	
46,08	8,949	-36,54	633,32	-7,583	
46,10	8,949	-36,60	632,85	-7,583	
46,12	8,949	-36,62	632,37	-7,583	
46,14	8,949	-36,58	631,88	-7,583	
46,16	8,949	-36,55	631,39	-7,584	
46,18	8,949	-36,58	630,92	-7,584	
46,20	8,949	-36,62	630,46	-7,584	
46,22	8,949	-36,59	630,00	-7,585	
46,24	8,949	-36,60	629,57	-7,585	
46,26	8,949	-36,68	629,14	-7,585	
46,28	8,949	-36,71	628,68	-7,585	
46,30	8,949	-36,59	628,23	-7,586	
46,32	8,949	-36,52	627,78	-7,586	
46,34	8,949	-36,63	627,34	-7,586	
46,36	8,949	-36,66	626,90	-7,586	
46,38	8,949	-36,61	626,44	-7,587	
46,40	8,949	-36,50	626,00	-7,587	
46,42	8,949	-36,47	625,55	-7,587	
46,44	8,949	-36,55	625,09	-7,587	
46,46	8,949	-36,59	624,62	-7,588	
46,48	8,949	-36,56	624,13	-7,588	
46,50	8,949	-36,53	623,65	-7,588	
46,52	8,949	-36,56	623,19	-7,588	
46,54	8,949	-36,60	622,73	-7,589	
46,56	8,949	-36,54	622,23	-7,589	
46,58	8,949	-36,52	621,72	-7,589	
46,60	8,949	-36,60	621,22	-7,589	
46,62	8,949	-36,68	620,76	-7,590	
46,64	8,949	-36,69	620,28	-7,590	
46,66	8,949	-36,64	619,81	-7,590	
46,68	8,949	-36,59	619,35	-7,591	
46,70	8,949	-36,54	618,90	-7,591	
46,72	8,949	-36,50	618,45	-7,591	
46,74	8,949	-36,51	617,98	-7,591	
46,76	8,949	-36,49	617,48	-7,592	
46,78	8,949	-36,48	616,99	-7,592	
46,80	8,949	-36,53	616,53	-7,592	
46,82	8,949	-36,48	616,11	-7,592	
46,84	8,949	-36,46	615,70	-7,593	
46,86	8,949	-36,52	615,28	-7,593	
46,88	8,949	-36,49	614,85	-7,593	
46,90	8,949	-36,46	614,40	-7,593	
46,92	8,949	-36,53	613,92	-7,594	
46,94	8,949	-36,55	613,44	-7,594	
46,96	8,949	-36,49	612,99	-7,594	
46,98	8,949	-36,48	612,56	-7,594	
47,00	8,949	-36,55	612,12	-7,595	
47,02	8,949	-36,65	611,69	-7,595	
47,04	8,949	-36,62	611,23	-7,595	
47,06	8,949	-36,55	610,76	-7,595	
47,08	8,949	-36,56	610,27	-7,596	
47,10	8,949	-36,54	609,77	-7,596	
47,12	8,949	-36,51	609,28	-7,596	
47,14	8,949	-36,50	608,79	-7,596	
47,16	8,949	-36,45	608,30	-7,597	
47,18	8,949	-36,39	607,82	-7,597	
47,20	8,949	-36,48	607,35	-7,597	
47,22	8,949	-36,60	606,86	-7,597	
47,24	8,949	-36,63	606,35	-7,598	
47,26	8,949	-36,56	605,86	-7,598	
47,28	8,949	-36,53	605,38	-7,598	
47,30	8,949	-36,56	604,89	-7,598	
47,32	8,949	-36,52	604,41	-7,599	
47,34	8,949	-36,46	603,93	-7,599	
47,36	8,949	-36,43	603,44	-7,599	
47,38	8,949	-36,39	602,95	-7,600	
47,40	8,949	-36,39	602,49	-7,600	
47,42	8,949	-36,42	602,01	-7,600	
47,44	8,949	-36,42	601,55	-7,600	
47,46	8,949	-36,42	601,09	-7,600	
47,48	8,949	-36,44	600,61	-7,601	
47,50	8,949	-36,42	600,11	-7,601	
47,52	8,949	-36,44	599,61	-7,601	
47,54	8,949	-36,55	599,14	-7,601	
47,56	8,949	-36,59	598,69	-7,602	
47,58	8,949	-36,53	598,24	-7,602	
47,60	8,949	-36,49	597,80	-7,602	
47,62	8,949	-36,53	597,35	-7,602	
47,64	8,949	-36,56	596,91	-7,603	
47,66	8,949	-36,51	596,47	-7,603	
47,68	8,949	-36,49	596,02	-7,603	
47,70	8,949	-36,56	595,54	-7,603	
47,72	8,949	-36,55	595,06	-7,604	
47,74	8,949	-36,54	594,59	-7,604	
47,76	8,949	-36,46	594,13	-7,604	
47,78	8,949	-36,34	593,69	-7,605	
47,80	8,949	-36,32	593,24	-7,605	
47,82	8,949	-36,40	592,78	-7,605	
47,84	8,949	-36,51	592,32	-7,605	
47,86	8,949	-36,53	591,87	-7,606	
47,88	8,949	-36,52	591,43	-7,606	
47,90	8,949	-36,52	591,01	-7,606	
47,92	8,949	-36,49	590,58	-7,606	
47,94	8,949	-36,46	590,14	-7,607	
47,96	8,949	-36,49	589,69	-7,607	
47,98	8,949	-36,53	589,22	-7,607	
48,00	8,949	-36,54	588,73	-7,607	
48,02	8,949	-36,48	588,26	-7,607	
48,04	8,949	-36,48	587,78	-7,608	
48,06	8,949	-36,45	587,31	-7,608	
48,08	8,949	-36,40	586,85	-7,608	
48,10	8,949	-36,46	586,41	-7,609	
48,12	8,949	-36,49	585,96	-7,609	
48,14	8,949	-36,45	585,51	-7,609	
48,16	8,949	-36,49	585,06	-7,609	
48,18	8,949	-36,53	584,58	-7,610	
48,20	8,949	-36,57	584,11	-7,610	
48,22	8,949	-36,61	583,65	-7,610	
48,24	8,949	-36,58	583,19	-7,610	
48,26	8,949	-36,53	582,71	-7,611	
48,28	8,949	-36,50	582,23	-7,611	
48,30	8,949	-36,49	581,77	-7,611	
48,32	8,949	-36,44	581,32	-7,611	
48,34	8,949	-36,38	580,85	-7,612	
48,36	8,949	-36,38	580,39	-7,612	
48,38	8,949	-36,36	579,93	-7,612	
48,40	8,949	-36,41	579,47	-7,612	
48,42	8,949	-36,50	579,01	-7,613	
48,44	8,949	-36,54	578,54	-7,613	
48,46	8,949	-36,52	578,07	-7,613	
48,48	8,949	-36,47	577,59	-7,613	
48,50	8,949	-36,43	577,13	-7,614	
48,52	8,949	-36,46	576,66	-7,614	
48,54	8,949	-36,60	576,18	-7,614	
48,56	8,949	-36,62	575,74	-7,614	
48,58	8,949	-36,56	575,32	-7,615	
48,60	8,949	-36,57	574,89	-7,615	
48,62	8,949	-36,53	574,46	-7,615	
48,64	8,949	-36,47	574,04	-7,615	
48,66	8,949	-36,40	573,60	-7,616	
48,68	8,949	-36,42	573,14	-7,616	
48,70	8,949	-36,47	572,69	-7,616	
48,72	8,949	-36,47	572,27	-7,616	
48,74	8,949	-36,53	571,85	-7,617	
48,76	8,949	-36,54	571,40	-7,617	
48,78	8,949	-36,48	570,95	-7,617	
48,80	8,949	-36,39	570,51	-7,617	
48,82	8,949	-36,39	570,06	-7,618	
48,84	8,949	-36,51	569,64	-7,618	
48,86	8,949	-36,56	569,24	-7,618	
48,88	8,949	-36,56	568,83	-7,618	
48,90	8,949	-36,52	568,41	-7,618	
48,92	8,949	-36,48	568,00	-7,619	
48,94	8,949	-36,52	567,58	-7,619	
48,96	8,949	-36,56	567,15	-7,619	
48,98	8,949	-36,54	566,72	-7,619	
49,00	8,949	-36,52	566,31	-7,620	
49,02	8,949	-36,48	565,90	-7,620	
49,04	8,949	-36,44	565,50	-7,620	
49,06	8,949	-36,44	565,10	-7,620	
49,08	8,949	-36,44	564,69	-7,621	
49,10	8,949	-36,36	564,26	-7,621	
49,12	8,949	-36,32	563,83	-7,621	
49,14	8,949	-36,34	563,41	-7,621	
49,16	8,949	-36,41	563,00	-7,621	
49,18	8,949	-36,51	562,57	-7,622	
49,20	8,949	-36,51	562,15	-7,622	
49,22	8,949	-36,47	561,74	-7,622	
49,24	8,949	-36,43	561,31	-7,622	
49,26	8,949	-36,44	560,87	-7,623	
49,28	8,949	-36,44	560,44	-7,623	
49,30	8,949	-36,41	560,02	-7,623	
49,32	8,949	-36,43	559,59	-7,623	
49,34	8,949	-36,41	559,14	-7,623	
49,36	8,949	-36,39	558,72	-7,624	
49,38	8,949	-36,38	558,30	-7,624	
49,40	8,949	-36,46	557,88	-7,624	
49,42	8,949	-36,52	557,48	-7,624	
49,44	8,949	-36,50	557,08	-7,625	
49,46	8,949	-36,47	556,67	-7,625	
49,48	8,949	-36,43	556,25	-7,625	
49,50	8,949	-36,43	555,86	-7,625	
49,52	8,949	-36,44	555,48	-7,625	
49,54	8,949	-36,45	555,11	-7,626	
49,56	8,949	-36,51	554,70	-7,626	
49,58	8,949	-36,51	554,29	-7,626	
49,60	8,949	-36,49	553,87	-7,627	
49,62	8,949	-36,54	553,44	-7,627	
49,64	8,949	-36,48	553,03	-7,627	
49,66	8,949	-36,50	552,63	-7,627	
49,68	8,949	-36,56	552,23	-7,627	
49,70	8,949	-36,52	551,82	-7,627	
49,72	8,949	-36,50	551,42	-7,628	
49,74	8,949	-36,50	551,02	-7,628	
49,76	8,949	-36,46	550,62	-7,628	
49,78	8,949	-36,48	550,20	-7,628	
49,80	8,949	-36,52	549,81	-7,628	