Zeit  1 - Standardmessrate [s]	ZwickWeg [mm]	ZwickKraft [N]	Pyrometer [°C]	Maytec [mm]
0	-0,00342	153,80	150,06	0,00332	
0,02000	-0,00341	153,86	150,06	0,00323	
0,04000	-0,00340	153,90	150,06	0,00319	
0,06000	-0,00342	153,86	150,06	0,00328	
0,08000	-0,00344	153,81	150,06	0,00340	
0,1000	-0,00345	153,83	150,06	0,00347	
0,1200	-0,00346	153,88	150,06	0,00349	
0,1400	-0,00346	153,92	150,05	0,00339	
0,1600	-0,00344	153,90	150,06	0,00325	
0,1800	-0,00343	153,88	150,06	0,00311	
0,2000	-0,00343	153,91	150,06	0,00315	
0,2200	-0,00343	153,97	150,05	0,00329	
0,2400	-0,00343	154,00	150,06	0,00344	
0,2600	-0,00343	153,99	150,06	0,00351	
0,2800	-0,00344	153,96	150,06	0,00345	
0,3000	-0,00345	153,92	150,06	0,00331	
0,3200	-0,00344	153,90	150,06	0,00322	
0,3400	-0,00344	153,87	150,06	0,00318	
0,3600	-0,00344	153,86	150,06	0,00324	
0,3800	-0,00344	153,87	150,06	0,00335	
0,4000	-0,00342	153,91	150,06	0,00343	
0,4200	-0,00341	153,94	150,06	0,00348	
0,4400	-0,00342	153,92	150,06	0,00344	
0,4600	-0,00341	153,93	150,06	0,00339	
0,4800	-0,00342	153,94	150,06	0,00329	
0,5000	-0,00341	153,97	150,06	0,00322	
0,5200	-0,00341	153,96	150,06	0,00334	
0,5400	-0,00343	153,91	150,06	0,00353	
0,5600	-0,00343	153,86	150,06	0,00359	
0,5800	-0,00342	153,86	150,06	0,00355	
0,6000	-0,00342	153,88	150,06	0,00347	
0,6200	-0,00341	153,92	150,06	0,00335	
0,6400	-0,00342	153,94	150,06	0,00319	
0,6600	-0,00343	153,95	150,06	0,00317	
0,6800	-0,00343	153,95	150,06	0,00325	
0,7000	-0,00343	153,95	150,06	0,00335	
0,7200	-0,00344	153,94	150,06	0,00342	
0,7400	-0,00344	153,89	150,06	0,00338	
0,7600	-0,00344	153,89	150,06	0,00333	
0,7800	-0,00344	153,91	150,06	0,00330	
0,8000	-0,00342	153,87	150,06	0,00325	
0,8200	-0,00341	153,82	150,06	0,00324	
0,8400	-0,00343	153,83	150,06	0,00334	
0,8600	-0,00343	153,76	150,06	0,00338	
0,8800	-0,00343	153,72	150,06	0,00340	
0,9000	-0,00344	153,76	150,06	0,00344	
0,9200	-0,00344	153,82	150,06	0,00340	
0,9400	-0,00343	153,81	150,06	0,00328	
0,9600	-0,00342	153,78	150,06	0,00323	
0,9800	-0,00343	153,72	150,06	0,00325	
1,000	-0,00342	153,73	150,06	0,00340	
1,020	-0,00343	153,71	150,06	0,00352	
1,040	-0,00344	153,70	150,06	0,00354	
1,060	-0,00343	153,74	150,06	0,00351	
1,080	-0,00340	153,82	150,06	0,00338	
1,100	-0,00341	153,89	150,06	0,00320	
1,120	-0,00343	153,87	150,06	0,00318	
1,140	-0,00343	153,89	150,06	0,00326	
1,160	-0,00342	153,96	150,06	0,00328	
1,180	-0,00342	153,93	150,06	0,00333	
1,200	-0,00342	153,84	150,06	0,00343	
1,220	-0,00341	153,78	150,06	0,00338	
1,240	-0,00341	153,85	150,06	0,00324	
1,260	-0,00341	153,97	150,06	0,00316	
1,280	-0,00341	153,98	150,06	0,00317	
1,300	-0,00343	153,89	150,06	0,00324	
1,320	-0,00343	153,85	150,06	0,00340	
1,340	-0,00344	153,86	150,06	0,00350	
1,360	-0,00344	153,90	150,06	0,00349	
1,380	-0,00345	153,91	150,06	0,00339	
1,400	-0,00345	153,94	150,06	0,00329	
1,420	-0,00344	153,95	150,06	0,00327	
1,440	-0,00345	153,92	150,06	0,00326	
1,460	-0,00345	153,90	150,06	0,00331	
1,480	-0,00345	153,95	150,06	0,00335	
1,500	-0,00345	153,91	150,06	0,00338	
1,520	-0,00345	153,86	150,05	0,00341	
1,540	-0,00345	153,87	150,05	0,00333	
1,560	-0,00345	153,86	150,06	0,00325	
1,580	-0,00345	153,85	150,06	0,00319	
1,600	-0,00346	153,91	150,05	0,00315	
1,620	-0,00346	153,94	150,06	0,00322	
1,640	-0,00345	153,90	150,06	0,00335	
1,660	-0,00344	153,84	150,06	0,00346	
1,680	-0,00345	153,82	150,06	0,00348	
1,700	-0,00347	153,84	150,06	0,00340	
1,720	-0,00347	153,89	150,06	0,00325	
1,740	-0,00346	153,89	150,06	0,00312	
1,760	-0,00343	153,86	150,06	0,00316	
1,780	-0,00342	153,89	150,06	0,00323	
1,800	-0,00344	153,96	150,06	0,00330	
1,820	-0,00344	153,93	150,06	0,00340	
1,840	-0,00344	153,93	150,06	0,00343	
1,860	-0,00345	153,95	150,06	0,00335	
1,880	-0,00346	153,96	150,06	0,00320	
1,900	-0,00347	153,98	150,06	0,00318	
1,920	-0,00346	154,01	150,06	0,00326	
1,940	-0,00345	154,03	150,06	0,00330	
1,960	-0,00343	153,93	150,06	0,00336	
1,980	-0,00344	153,88	150,06	0,00344	
2,000	-0,00347	153,91	150,06	0,00338	
2,020	-0,00347	153,88	150,06	0,00324	
2,040	-0,00346	153,86	150,06	0,00316	
2,060	-0,00345	153,89	150,06	0,00314	
2,080	-0,00343	153,90	150,05	0,00320	
2,100	-0,00343	153,87	150,05	0,00325	
2,120	-0,00344	153,84	150,06	0,00337	
2,140	-0,00344	153,90	150,06	0,00344	
2,160	-0,00343	153,94	150,05	0,00338	
2,180	-0,00344	153,99	150,06	0,00325	
2,200	-0,00345	154,02	150,06	0,00313	
2,220	-0,00344	154,01	150,06	0,00307	
2,240	-0,00343	153,99	150,06	0,00320	
2,260	-0,00343	153,98	150,06	0,00340	
2,280	-0,00343	153,93	150,06	0,00352	
2,300	-0,00342	153,91	150,06	0,00358	
2,320	-0,00343	153,90	150,05	0,00347	
2,340	-0,00344	153,85	150,06	0,00328	
2,360	-0,00344	153,85	150,06	0,00313	
2,380	-0,00343	153,92	150,06	0,00315	
2,400	-0,00342	153,92	150,05	0,00323	
2,420	-0,00343	153,89	150,06	0,00332	
2,440	-0,00343	153,85	150,06	0,00340	
2,460	-0,00345	153,80	150,06	0,00341	
2,480	-0,00346	153,88	150,05	0,00333	
2,500	-0,00346	153,95	150,06	0,00320	
2,520	-0,00346	153,96	150,06	0,00321	
2,540	-0,00346	153,93	150,06	0,00329	
2,560	-0,00345	153,87	150,06	0,00330	
2,580	-0,00344	153,84	150,06	0,00334	
2,600	-0,00344	153,91	150,06	0,00335	
2,620	-0,00344	154,00	150,06	0,00339	
2,640	-0,00344	153,94	150,06	0,00337	
2,660	-0,00344	153,80	150,06	0,00329	
2,680	-0,00344	153,71	150,06	0,00326	
2,700	-0,00344	153,77	150,05	0,00320	
2,720	-0,00344	153,93	150,05	0,00323	
2,740	-0,00344	153,99	150,06	0,00334	
2,760	-0,00345	154,00	150,05	0,00339	
2,780	-0,00344	153,99	150,05	0,00336	
2,800	-0,00343	153,96	150,06	0,00335	
2,820	-0,00343	153,95	150,06	0,00327	
2,840	-0,00343	153,97	150,06	0,00318	
2,860	-0,00344	154,05	150,05	0,00315	
2,880	-0,00346	154,15	150,06	0,00323	
2,900	-0,00345	154,13	150,06	0,00332	
2,920	-0,00346	154,08	150,06	0,00339	
2,940	-0,00346	154,07	150,05	0,00339	
2,960	-0,00346	154,05	150,06	0,00336	
2,980	-0,00344	154,01	150,06	0,00331	
3,000	-0,00344	154,01	150,05	0,00326	
3,020	-0,00345	154,02	150,05	0,00324	
3,040	-0,00344	154,01	150,06	0,00327	
3,060	-0,00344	154,00	150,06	0,00336	
3,080	-0,00344	154,01	150,06	0,00346	
3,100	-0,00345	153,94	150,06	0,00340	
3,120	-0,00347	153,88	150,06	0,00323	
3,140	-0,00347	153,95	150,06	0,00311	
3,160	-0,00345	154,01	150,06	0,00311	
3,180	-0,00343	154,02	150,06	0,00321	
3,200	-0,00343	154,02	150,06	0,00329	
3,220	-0,00344	154,02	150,06	0,00337	
3,240	-0,00344	154,06	150,06	0,00345	
3,260	-0,00345	154,11	150,06	0,00345	
3,280	-0,00345	154,12	150,07	0,00333	
3,300	-0,00345	154,09	150,07	0,00315	
3,320	-0,00347	154,04	150,06	0,00315	
3,340	-0,00347	154,01	150,06	0,00324	
3,360	-0,00346	153,98	150,06	0,00329	
3,380	-0,00345	153,95	150,06	0,00338	
3,400	-0,00345	153,98	150,06	0,00344	
3,420	-0,00345	154,00	150,06	0,00339	
3,440	-0,00345	154,02	150,06	0,00332	
3,460	-0,00344	154,01	150,06	0,00323	
3,480	-0,00344	153,97	150,06	0,00316	
3,500	-0,00343	153,89	150,06	0,00318	
3,520	-0,00344	153,85	150,06	0,00323	
3,540	-0,00345	153,85	150,06	0,00330	
3,560	-0,00345	153,90	150,06	0,00337	
3,580	-0,00344	153,97	150,06	0,00337	
3,600	-0,00345	153,96	150,06	0,00326	
3,620	-0,00348	153,90	150,06	0,00319	
3,640	-0,00349	153,85	150,06	0,00319	
3,660	-0,00347	153,83	150,06	0,00321	
3,680	-0,00346	153,87	150,06	0,00329	
3,700	-0,00346	153,85	150,06	0,00337	
3,720	-0,00345	153,82	150,06	0,00345	
3,740	-0,00343	153,86	150,06	0,00342	
3,760	-0,00342	153,91	150,06	0,00330	
3,780	-0,00341	153,89	150,06	0,00314	
3,800	-0,00342	153,85	150,06	0,00308	
3,820	-0,00343	153,87	150,06	0,00314	
3,840	-0,00342	153,87	150,06	0,00330	
3,860	-0,00342	153,85	150,06	0,00342	
3,880	-0,00343	153,88	150,06	0,00343	
3,900	-0,00343	153,84	150,06	0,00334	
3,920	-0,00343	153,82	150,06	0,00320	
3,940	-0,00343	153,84	150,06	0,00313	
3,960	-0,00344	153,91	150,07	0,00317	
3,980	-0,00345	153,92	150,06	0,00323	
4,000	-0,00346	153,97	150,06	0,00328	
4,020	-0,00346	154,01	150,06	0,00335	
4,040	-0,00346	154,00	150,06	0,00340	
4,060	-0,00346	154,04	150,06	0,00335	
4,080	-0,00345	154,04	150,06	0,00323	
4,100	-0,00343	154,03	150,06	0,00322	
4,120	-0,00344	154,05	150,06	0,00329	
4,140	-0,00345	154,01	150,06	0,00334	
4,160	-0,00344	153,97	150,05	0,00341	
4,180	-0,00343	154,02	150,06	0,00341	
4,200	-0,00344	154,07	150,06	0,00337	
4,220	-0,00344	154,02	150,06	0,00335	
4,240	-0,00344	153,99	150,06	0,00331	
4,260	-0,00344	153,96	150,06	0,00326	
4,280	-0,00343	154,04	150,06	0,00319	
4,300	-0,00343	154,15	150,06	0,00318	
4,320	-0,00341	154,13	150,06	0,00328	
4,340	-0,00341	154,05	150,06	0,00338	
4,360	-0,00342	154,03	150,06	0,00339	
4,380	-0,00341	154,00	150,06	0,00332	
4,400	-0,00340	153,92	150,06	0,00323	
4,420	-0,00340	153,86	150,06	0,00319	
4,440	-0,00343	153,87	150,06	0,00327	
4,460	-0,00344	153,85	150,06	0,00330	
4,480	-0,00344	153,86	150,06	0,00331	
4,500	-0,00343	153,92	150,06	0,00339	
4,520	-0,00342	153,91	150,06	0,00341	
4,540	-0,00341	153,89	150,06	0,00330	
4,560	-0,00342	153,95	150,06	0,00317	
4,580	-0,00343	153,98	150,06	0,00311	
4,600	-0,00343	153,94	150,06	0,00312	
4,620	-0,00343	153,93	150,06	0,00319	
4,640	-0,00343	154,02	150,06	0,00327	
4,660	-0,00344	154,04	150,06	0,00329	
4,680	-0,00345	153,99	150,06	0,00331	
4,700	-0,00344	153,98	150,06	0,00328	
4,720	-0,00342	153,96	150,06	0,00321	
4,740	-0,00342	153,98	150,06	0,00313	
4,760	-0,00342	153,98	150,06	0,00318	
4,780	-0,00342	153,97	150,06	0,00326	
4,800	-0,00344	153,88	150,06	0,00332	
4,820	-0,00345	153,80	150,06	0,00340	
4,840	-0,00345	153,87	150,06	0,00335	
4,860	-0,00345	153,97	150,06	0,00326	
4,880	-0,00345	154,02	150,06	0,00320	
4,900	-0,00344	154,03	150,05	0,00320	
4,920	-0,00344	153,98	150,06	0,00324	
4,940	-0,00344	153,91	150,06	0,00331	
4,960	-0,00345	153,93	150,06	0,00338	
4,980	-0,00344	154,02	150,06	0,00339	
5,000	-0,00341	154,05	150,06	0,00338	
5,020	-0,00342	154,02	150,06	0,00330	
5,040	-0,00344	153,97	150,06	0,00321	
5,060	-0,00346	153,95	150,06	0,00317	
5,080	-0,00345	153,91	150,06	0,00325	
5,100	-0,00345	153,97	150,06	0,00334	
5,120	-0,00344	153,97	150,06	0,00341	
5,140	-0,00344	153,96	150,06	0,00347	
5,160	-0,00344	153,95	150,06	0,00343	
5,180	-0,00345	153,94	150,06	0,00332	
5,200	-0,00347	153,91	150,06	0,00322	
5,220	-0,00347	153,90	150,06	0,00316	
5,240	-0,00347	153,97	150,06	0,00320	
5,260	-0,00347	153,99	150,06	0,00327	
5,280	-0,00346	153,94	150,06	0,00331	
5,300	-0,00345	153,92	150,06	0,00341	
5,320	-0,00345	153,96	150,06	0,00343	
5,340	-0,00344	153,99	150,06	0,00329	
5,360	-0,00345	154,02	150,06	0,00316	
5,380	-0,00344	154,01	150,06	0,00313	
5,400	-0,00344	154,01	150,06	0,00321	
5,420	-0,00343	153,97	150,06	0,00330	
5,440	-0,00342	153,93	150,06	0,00338	
5,460	-0,00343	153,94	150,06	0,00342	
5,480	-0,00344	153,93	150,06	0,00340	
5,500	-0,00345	153,92	150,06	0,00333	
5,520	-0,00344	153,89	150,06	0,00324	
5,540	-0,00344	153,86	150,06	0,00319	
5,560	-0,00344	153,86	150,06	0,00326	
5,580	-0,00346	153,92	150,06	0,00343	
5,600	-0,00346	153,91	150,06	0,00351	
5,620	-0,00345	153,88	150,05	0,00349	
5,640	-0,00343	153,86	150,05	0,00339	
5,660	-0,00342	153,89	150,06	0,00323	
5,680	-0,00343	153,89	150,06	0,00316	
5,700	-0,00345	153,92	150,06	0,00318	
5,720	-0,00347	153,93	150,06	0,00326	
5,740	-0,00348	153,91	150,06	0,00330	
5,760	-0,00346	153,86	150,06	0,00334	
5,780	-0,00344	153,86	150,06	0,00332	
5,800	-0,00344	153,88	150,06	0,00328	
5,820	-0,00346	153,90	150,06	0,00320	
5,840	-0,00346	153,91	150,06	0,00317	
5,860	-0,00345	153,90	150,06	0,00323	
5,880	-0,00345	153,91	150,06	0,00328	
5,900	-0,00347	153,94	150,06	0,00330	
5,920	-0,00348	153,94	150,06	0,00339	
5,940	-0,00347	153,90	150,06	0,00347	
5,960	-0,00347	153,82	150,06	0,00333	
5,980	-0,00348	153,79	150,06	0,00321	
6,000	-0,00348	153,83	150,06	0,00312	
6,020	-0,00347	153,83	150,06	0,00307	
6,040	-0,00346	153,77	150,05	0,00322	
6,060	-0,00346	153,79	150,06	0,00338	
6,080	-0,00346	153,84	150,06	0,00343	
6,100	-0,00346	153,85	150,05	0,00342	
6,120	-0,00346	153,89	150,06	0,00335	
6,140	-0,00345	153,91	150,06	0,00325	
6,160	-0,00344	153,85	150,06	0,00320	
6,180	-0,00345	153,78	150,06	0,00316	
6,200	-0,00345	153,76	150,06	0,00322	
6,220	-0,00345	153,78	150,06	0,00331	
6,240	-0,00345	153,86	150,06	0,00342	
6,260	-0,00346	153,89	150,05	0,00346	
6,280	-0,00346	153,86	150,05	0,00337	
6,300	-0,00344	153,81	150,06	0,00322	
6,320	-0,00344	153,81	150,06	0,00313	
6,340	-0,00346	153,87	150,06	0,00317	
6,360	-0,00346	153,95	150,06	0,00332	
6,380	-0,00401	156,79	150,18	0,00304	
6,400	-0,00334	133,86	150,04	0,00207	
6,420	-0,00311	87,37	149,98	0,00191	
6,440	-0,00332	41,57	150,03	0,00224	
6,460	-0,00321	0,8759	150,06	0,00241	
6,480	-0,00142	-33,19	150,06	0,00235	
6,500	0,00275	-40,54	150,06	0,00228	
6,520	0,00773	-13,22	150,06	0,00242	
6,540	0,01223	24,61	150,06	0,00270	
6,560	0,01585	62,73	150,06	0,00286	
6,580	0,01844	96,07	150,06	0,00282	
6,600	0,02004	121,84	150,06	0,00268	
6,620	0,02093	138,78	150,06	0,00254	
6,640	0,02132	148,77	150,06	0,00255	
6,660	0,02143	153,65	150,05	0,00262	
6,680	0,02146	156,09	150,06	0,00273	
6,700	0,02145	157,09	150,06	0,00282	
6,720	0,02145	157,35	150,05	0,00283	
6,740	0,02144	157,40	150,06	0,00283	
6,760	0,02145	157,51	150,06	0,00274	
6,780	0,02141	158,71	150,06	0,00261	
6,800	0,02114	159,41	150,06	0,00254	
6,820	0,02088	158,49	150,06	0,00263	
6,840	0,02078	157,53	150,06	0,00267	
6,860	0,02076	157,25	150,06	0,00273	
6,880	0,02076	157,28	150,06	0,00280	
6,900	0,02077	157,28	150,06	0,00277	
6,920	0,02078	157,23	150,06	0,00262	
6,940	0,02063	157,26	150,06	0,00254	
6,960	0,02032	157,31	150,06	0,00258	
6,980	0,02012	157,28	150,06	0,00269	
7,000	0,02007	157,25	150,06	0,00282	
7,020	0,02007	157,22	150,06	0,00287	
7,040	0,02007	157,20	150,06	0,00284	
7,060	0,02009	157,19	150,06	0,00283	
7,080	0,02006	157,19	150,06	0,00271	
7,100	0,01982	157,23	150,06	0,00256	
7,120	0,01954	157,30	150,06	0,00252	
7,140	0,01942	157,37	150,06	0,00258	
7,160	0,01940	157,25	150,06	0,00268	
7,180	0,01940	157,14	150,06	0,00279	
7,200	0,01940	157,12	150,06	0,00289	
7,220	0,01940	156,94	150,05	0,00284	
7,240	0,01941	155,71	150,05	0,00268	
7,260	0,01941	154,41	150,06	0,00258	
7,280	0,01941	153,91	150,06	0,00257	
7,300	0,01941	153,80	150,06	0,00261	
7,320	0,01941	153,83	150,06	0,00273	
7,340	0,01940	153,87	150,06	0,00285	
7,360	0,01938	153,84	150,06	0,00291	
7,380	0,01913	153,85	150,05	0,00287	
7,400	0,01886	153,84	150,06	0,00269	
7,420	0,01875	153,85	150,06	0,00259	
7,440	0,01875	153,87	150,06	0,00260	
7,460	0,01876	153,82	150,06	0,00267	
7,480	0,01877	153,78	150,06	0,00265	
7,500	0,01877	153,83	150,06	0,00277	
7,520	0,01876	153,88	150,06	0,00287	
7,540	0,01875	153,86	150,06	0,00283	
7,560	0,01874	153,84	150,06	0,00274	
7,580	0,01873	153,86	150,06	0,00266	
7,600	0,01873	153,81	150,06	0,00264	
7,620	0,01874	153,77	150,06	0,00267	
7,640	0,01874	153,82	150,06	0,00271	
7,660	0,01876	153,88	150,06	0,00280	
7,680	0,01877	153,92	150,06	0,00283	
7,700	0,01877	153,90	150,06	0,00274	
7,720	0,01877	153,82	150,06	0,00262	
7,740	0,01878	153,74	150,06	0,00262	
7,760	0,01876	153,79	150,06	0,00258	
7,780	0,01875	153,75	150,06	0,00262	
7,800	0,01876	153,68	150,06	0,00274	
7,820	0,01875	153,70	150,06	0,00284	
7,840	0,01876	153,72	150,06	0,00290	
7,860	0,01877	153,76	150,06	0,00289	
7,880	0,01876	153,84	150,06	0,00277	
7,900	0,01874	153,81	150,06	0,00262	
7,920	0,01874	153,75	150,06	0,00261	
7,940	0,01874	153,78	150,06	0,00275	
7,960	0,01876	153,73	150,05	0,00289	
7,980	0,01877	153,63	150,06	0,00288	
8,000	0,01862	153,65	150,07	0,00282	
8,020	0,01831	153,66	150,06	0,00272	
8,040	0,01808	153,92	150,07	0,00262	
8,060	0,01788	154,25	150,10	0,00249	
8,080	0,01795	147,99	150,08	0,00233	
8,100	0,01806	136,29	150,06	0,00239	
8,120	0,01810	122,95	150,06	0,00255	
8,140	0,01823	109,50	150,06	0,00264	
8,160	0,01870	96,54	150,06	0,00265	
8,180	0,01961	87,82	150,06	0,00258	
8,200	0,02084	84,18	150,06	0,00248	
8,220	0,02218	82,65	150,06	0,00243	
8,240	0,02352	81,27	150,06	0,00241	
8,260	0,02487	81,72	150,06	0,00246	
8,280	0,02623	84,01	150,06	0,00255	
8,300	0,02756	86,53	150,06	0,00266	
8,320	0,02889	88,68	150,06	0,00269	
8,340	0,03023	89,70	150,06	0,00263	
8,360	0,03159	89,98	150,06	0,00251	
8,380	0,03290	89,79	150,06	0,00236	
8,400	0,03398	88,45	150,05	0,00234	
8,420	0,03505	87,10	150,06	0,00245	
8,440	0,03629	86,57	150,06	0,00253	
8,460	0,03762	86,57	150,06	0,00256	
8,480	0,03895	86,65	150,05	0,00257	
8,500	0,04029	86,64	150,05	0,00259	
8,520	0,04164	86,60	150,05	0,00248	
8,540	0,04297	86,43	150,05	0,00237	
8,560	0,04433	85,13	150,06	0,00227	
8,580	0,04567	84,44	150,06	0,00232	
8,600	0,04702	85,35	150,06	0,00242	
8,620	0,04836	85,19	150,05	0,00246	
8,640	0,04970	84,67	150,06	0,00251	
8,660	0,05104	84,00	150,06	0,00257	
8,680	0,05239	83,53	150,06	0,00248	
8,700	0,05375	83,35	150,05	0,00235	
8,720	0,05509	83,34	150,06	0,00233	
8,740	0,05643	83,33	150,06	0,00240	
8,760	0,05778	83,30	150,06	0,00254	
8,780	0,05911	83,28	150,05	0,00264	
8,800	0,06045	83,25	150,06	0,00264	
8,820	0,06179	83,23	150,06	0,00253	
8,840	0,06314	83,26	150,06	0,00244	
8,860	0,06450	83,28	150,05	0,00241	
8,880	0,06584	83,28	150,06	0,00245	
8,900	0,06718	83,32	150,06	0,00254	
8,920	0,06852	83,34	150,06	0,00257	
8,940	0,06998	83,26	150,05	0,00255	
8,960	0,07162	83,24	150,06	0,00255	
8,980	0,07316	83,28	150,06	0,00252	
9,000	0,07456	83,08	150,05	0,00249	
9,020	0,07589	81,82	150,05	0,00247	
9,040	0,07721	80,43	150,06	0,00253	
9,060	0,07855	79,81	150,06	0,00262	
9,080	0,07988	79,78	150,06	0,00268	
9,100	0,08123	79,82	150,05	0,00272	
9,120	0,08258	79,75	150,06	0,00270	
9,140	0,08392	79,79	150,06	0,00258	
9,160	0,08529	79,90	150,06	0,00246	
9,180	0,08688	79,93	150,06	0,00243	
9,200	0,08851	79,94	150,06	0,00244	
9,220	0,08997	79,88	150,06	0,00249	
9,240	0,09132	79,85	150,05	0,00262	
9,260	0,09266	79,95	150,06	0,00268	
9,280	0,09400	80,01	150,06	0,00267	
9,300	0,09546	79,93	150,06	0,00259	
9,320	0,09711	79,85	150,05	0,00249	
9,340	0,09866	79,86	150,06	0,00245	
9,360	0,1001	79,90	150,06	0,00245	
9,380	0,1014	79,91	150,06	0,00250	
9,400	0,1027	79,81	150,05	0,00257	
9,420	0,1041	79,74	150,06	0,00261	
9,440	0,1057	79,77	150,06	0,00263	
9,460	0,1073	79,81	150,06	0,00255	
9,480	0,1088	79,65	150,05	0,00241	
9,500	0,1101	78,40	150,06	0,00240	
9,520	0,1115	77,08	150,06	0,00251	
9,540	0,1130	76,56	150,05	0,00266	
9,560	0,1146	76,47	150,05	0,00271	
9,580	0,1161	76,50	150,06	0,00272	
9,600	0,1175	76,52	150,06	0,00274	
9,620	0,1189	76,54	150,06	0,00261	
9,640	0,1203	76,57	150,06	0,00246	
9,660	0,1220	76,57	150,06	0,00246	
9,680	0,1235	76,55	150,06	0,00255	
9,700	0,1250	76,53	150,05	0,00264	
9,720	0,1267	76,50	150,06	0,00269	
9,740	0,1282	76,54	150,06	0,00268	
9,760	0,1296	76,46	150,06	0,00264	
9,780	0,1311	76,40	150,05	0,00250	
9,800	0,1327	76,44	150,06	0,00244	
9,820	0,1343	76,47	150,06	0,00243	
9,840	0,1356	76,44	150,06	0,00244	
9,860	0,1371	76,46	150,06	0,00257	
9,880	0,1387	76,55	150,06	0,00271	
9,900	0,1403	76,60	150,06	0,00267	
9,920	0,1417	76,41	150,06	0,00252	
9,940	0,1433	75,17	150,05	0,00239	
9,960	0,1449	73,78	150,06	0,00234	
9,980	0,1464	73,25	150,06	0,00239	
10,00	0,1479	73,19	150,05	0,00257	
10,02	0,1495	73,18	150,06	0,00264	
10,04	0,1510	73,18	150,15	0,00268	
10,06	0,1526	73,21	150,53	0,00279	
10,08	0,1542	73,11	152,18	0,00273	
10,10	0,1557	71,92	154,32	0,00256	
10,12	0,1573	70,56	155,84	0,00248	
10,14	0,1589	69,96	156,95	0,00247	
10,16	0,1605	69,85	158,29	0,00253	
10,18	0,1621	69,86	160,13	0,00267	
10,20	0,1637	69,90	161,83	0,00278	
10,22	0,1653	70,37	163,14	0,00279	
10,24	0,1670	70,61	164,57	0,00272	
10,26	0,1686	70,23	166,18	0,00257	
10,28	0,1702	69,92	167,64	0,00245	
10,30	0,1718	69,76	169,46	0,00245	
10,32	0,1734	69,75	171,51	0,00257	
10,34	0,1750	69,82	173,23	0,00263	
10,36	0,1766	69,85	174,64	0,00264	
10,38	0,1782	69,86	175,86	0,00266	
10,40	0,1799	69,89	177,21	0,00262	
10,42	0,1816	69,88	178,60	0,00251	
10,44	0,1832	69,83	179,65	0,00240	
10,46	0,1849	69,78	180,68	0,00244	
10,48	0,1866	69,77	181,97	0,00260	
10,50	0,1883	69,78	183,35	0,00271	
10,52	0,1899	69,74	184,88	0,00272	
10,54	0,1916	69,08	186,35	0,00267	
10,56	0,1933	67,60	187,63	0,00251	
10,58	0,1950	66,64	188,90	0,00238	
10,60	0,1966	66,38	190,25	0,00238	
10,62	0,1984	66,38	191,62	0,00243	
10,64	0,2001	66,42	192,99	0,00253	
10,66	0,2019	66,42	194,36	0,00262	
10,68	0,2035	66,46	195,67	0,00265	
10,70	0,2052	66,53	196,89	0,00273	
10,72	0,2069	66,50	198,11	0,00272	
10,74	0,2086	66,45	199,45	0,00262	
10,76	0,2102	66,27	200,97	0,00250	
10,78	0,2120	64,96	202,48	0,00251	
10,80	0,2138	63,58	203,87	0,00261	
10,82	0,2155	63,08	205,23	0,00265	
10,84	0,2172	63,05	206,67	0,00264	
10,86	0,2189	63,11	208,14	0,00261	
10,88	0,2207	63,12	209,64	0,00251	
10,90	0,2225	63,05	211,12	0,00245	
10,92	0,2243	63,07	212,58	0,00248	
10,94	0,2260	63,05	214,00	0,00254	
10,96	0,2279	62,66	215,37	0,00260	
10,98	0,2298	62,74	216,81	0,00265	
11,00	0,2315	67,77	218,24	0,00265	
11,02	0,2333	79,24	219,47	0,00251	
11,04	0,2350	93,16	220,38	0,00239	
11,06	0,2367	107,02	221,14	0,00239	
11,08	0,2380	119,59	221,84	0,00248	
11,10	0,2387	127,66	222,40	0,00257	
11,12	0,2391	131,52	222,79	0,00267	
11,14	0,2396	133,91	223,12	0,00282	
11,16	0,2401	137,68	223,35	0,00283	
11,18	0,2404	142,39	223,48	0,00270	
11,20	0,2408	147,61	223,61	0,00261	
11,22	0,2410	152,55	223,78	0,00259	
11,24	0,2410	156,07	223,92	0,00263	
11,26	0,2410	158,52	224,05	0,00279	
11,28	0,2410	160,15	224,19	0,00289	
11,30	0,2410	161,93	224,28	0,00288	
11,32	0,2410	163,49	224,25	0,00282	
11,34	0,2409	164,02	224,20	0,00269	
11,36	0,2406	163,03	224,23	0,00258	
11,38	0,2404	163,25	224,33	0,00258	
11,40	0,2401	164,50	224,37	0,00260	
11,42	0,2399	160,51	224,39	0,00263	
11,44	0,2397	155,53	224,51	0,00270	
11,46	0,2395	154,01	224,73	0,00274	
11,48	0,2394	146,41	225,04	0,00273	
11,50	0,2395	131,25	225,48	0,00265	
11,52	0,2397	116,65	226,09	0,00260	
11,54	0,2399	102,25	226,83	0,00257	
11,56	0,2404	86,74	227,65	0,00257	
11,58	0,2412	78,27	228,43	0,00268	
11,60	0,2421	79,84	229,14	0,00273	
11,62	0,2431	86,98	229,70	0,00271	
11,64	0,2444	96,93	230,10	0,00259	
11,66	0,2454	107,39	230,46	0,00249	
11,68	0,2462	116,24	230,82	0,00255	
11,70	0,2468	122,33	231,11	0,00264	
11,72	0,2473	126,35	231,27	0,00274	
11,74	0,2476	130,51	231,42	0,00284	
11,76	0,2480	132,80	231,61	0,00282	
11,78	0,2485	129,12	231,90	0,00272	
11,80	0,2489	124,21	232,35	0,00259	
11,82	0,2490	119,99	232,85	0,00246	
11,84	0,2493	112,28	233,37	0,00244	
11,86	0,2498	106,77	233,95	0,00249	
11,88	0,2506	107,07	234,55	0,00256	
11,90	0,2512	108,87	235,15	0,00268	
11,92	0,2517	111,08	235,70	0,00279	
11,94	0,2523	115,21	236,12	0,00272	
11,96	0,2529	119,59	236,46	0,00260	
11,98	0,2533	124,06	236,76	0,00256	
12,00	0,2537	126,80	236,98	0,00253	
12,02	0,2541	124,01	237,24	0,00250	
12,04	0,2542	122,71	237,62	0,00260	
12,06	0,2545	119,90	238,02	0,00271	
12,08	0,2549	111,47	238,48	0,00279	
12,10	0,2554	103,49	239,12	0,00281	
12,12	0,2559	97,98	239,83	0,00271	
12,14	0,2565	92,75	240,53	0,00256	
12,16	0,2570	91,87	241,14	0,00250	
12,18	0,2576	95,67	241,63	0,00257	
12,20	0,2581	100,53	242,02	0,00272	
12,22	0,2586	106,37	242,33	0,00284	
12,24	0,2591	110,56	242,58	0,00284	
12,26	0,2594	112,00	242,84	0,00268	
12,28	0,2596	114,70	243,09	0,00255	
12,30	0,2600	111,85	243,37	0,00247	
12,32	0,2605	103,22	243,83	0,00243	
12,34	0,2608	95,36	244,45	0,00245	
12,36	0,2612	86,95	245,10	0,00259	
12,38	0,2617	79,88	245,75	0,00276	
12,40	0,2623	79,66	246,33	0,00281	
12,42	0,2631	84,99	246,85	0,00275	
12,44	0,2637	91,89	247,30	0,00264	
12,46	0,2641	99,20	247,67	0,00255	
12,48	0,2646	104,48	247,95	0,00254	
12,50	0,2649	107,86	248,19	0,00262	
12,52	0,2653	109,92	248,43	0,00272	
12,54	0,2658	106,46	248,73	0,00281	
12,56	0,2662	101,12	249,15	0,00285	
12,58	0,2664	97,18	249,58	0,00281	
12,60	0,2669	90,54	250,03	0,00266	
12,62	0,2674	82,22	250,57	0,00250	
12,64	0,2680	76,87	251,24	0,00245	
12,66	0,2685	71,71	251,97	0,00253	
12,68	0,2690	68,67	252,71	0,00268	
12,70	0,2695	69,98	253,35	0,00276	
12,72	0,2701	73,45	253,86	0,00273	
12,74	0,2708	77,86	254,29	0,00265	
12,76	0,2714	83,91	254,64	0,00254	
12,78	0,2720	88,44	254,92	0,00257	
12,80	0,2724	92,04	255,18	0,00266	
12,82	0,2729	94,33	255,37	0,00280	
12,84	0,2733	96,74	255,52	0,00289	
12,86	0,2736	102,01	255,69	0,00289	
12,88	0,2739	102,41	255,90	0,00283	
12,90	0,2744	95,23	256,29	0,00271	
12,92	0,2747	84,35	256,93	0,00259	
12,94	0,2751	72,03	257,77	0,00256	
12,96	0,2757	55,76	258,70	0,00259	
12,98	0,2763	41,75	259,68	0,00269	
13,00	0,2770	36,78	260,63	0,00281	
13,02	0,2776	39,06	261,45	0,00281	
13,04	0,2782	43,24	262,13	0,00277	
13,06	0,2789	48,17	262,69	0,00269	
13,08	0,2795	54,61	263,15	0,00260	
13,10	0,2801	59,89	263,50	0,00264	
13,12	0,2806	63,14	263,78	0,00266	
13,14	0,2811	67,02	263,99	0,00272	
13,16	0,2816	71,63	264,13	0,00282	
13,18	0,2821	77,02	264,25	0,00283	
13,20	0,2824	84,90	264,39	0,00273	
13,22	0,2829	91,70	264,51	0,00262	
13,24	0,2834	93,54	264,62	0,00255	
13,26	0,2836	95,96	264,78	0,00260	
13,28	0,2838	98,55	264,97	0,00266	
13,30	0,2841	93,92	265,24	0,00271	
13,32	0,2845	84,44	265,68	0,00275	
13,34	0,2848	75,34	266,52	0,00273	
13,36	0,2854	62,71	268,16	0,00265	
13,38	0,2858	49,93	270,05	0,00256	
13,40	0,2862	45,51	271,57	0,00256	
13,42	0,2866	47,05	272,43	0,00266	
13,44	0,2873	50,97	272,65	0,00269	
13,46	0,2879	56,35	272,54	0,00276	
13,48	0,2885	60,89	272,39	0,00282	
13,50	0,2890	63,40	272,36	0,00279	
13,52	0,2894	65,99	272,36	0,00267	
13,54	0,2899	70,38	272,21	0,00257	
13,56	0,2902	76,88	272,18	0,00259	
13,58	0,2908	78,29	272,69	0,00258	
13,60	0,2913	76,93	273,26	0,00264	
13,62	0,2915	79,37	273,60	0,00274	
13,64	0,2919	80,55	273,90	0,00280	
13,66	0,2924	80,98	274,05	0,00272	
13,68	0,2927	86,28	274,29	0,00258	
13,70	0,2932	88,64	274,86	0,00252	
13,72	0,2935	84,99	275,44	0,00262	
13,74	0,2937	83,93	275,82	0,00269	
13,76	0,2940	81,38	276,21	0,00275	
13,78	0,2943	75,02	276,72	0,00281	
13,80	0,2945	74,33	277,09	0,00282	
13,82	0,2949	73,38	277,61	0,00275	
13,84	0,2953	68,82	278,03	0,00264	
13,86	0,2957	67,88	278,45	0,00259	
13,88	0,2961	67,04	278,81	0,00262	
13,90	0,2964	65,11	279,20	0,00273	
13,92	0,2967	66,54	279,53	0,00280	
13,94	0,2972	65,31	280,12	0,00286	
13,96	0,2976	59,63	280,82	0,00285	
13,98	0,2979	57,79	281,23	0,00273	
14,00	0,2983	56,46	281,53	0,00260	
14,02	0,2986	54,20	281,78	0,00252	
14,04	0,2990	53,56	282,25	0,00254	
14,06	0,2996	51,65	282,88	0,00266	
14,08	0,2999	51,05	283,31	0,00278	
14,10	0,3003	51,47	283,67	0,00285	
14,12	0,3009	48,25	284,25	0,00286	
14,14	0,3014	44,80	284,84	0,00276	
14,16	0,3018	46,51	285,13	0,00263	
14,18	0,3023	46,16	285,40	0,00266	
14,20	0,3026	45,73	285,61	0,00266	
14,22	0,3030	46,90	286,11	0,00261	
14,24	0,3037	43,93	287,02	0,00266	
14,26	0,3041	39,97	287,74	0,00278	
14,28	0,3045	39,46	287,99	0,00284	
14,30	0,3049	39,46	288,06	0,00274	
14,32	0,3053	40,08	288,30	0,00262	
14,34	0,3059	40,69	288,92	0,00256	
14,36	0,3065	38,24	289,55	0,00263	
14,38	0,3069	36,78	290,00	0,00276	
14,40	0,3073	35,19	290,45	0,00293	
14,42	0,3079	32,24	290,93	0,00301	
14,44	0,3083	34,12	291,23	0,00294	
14,46	0,3089	35,83	291,77	0,00279	
14,48	0,3095	32,68	292,51	0,00263	
14,50	0,3100	31,59	293,02	0,00261	
14,52	0,3105	31,71	293,42	0,00267	
14,54	0,3110	31,01	293,65	0,00274	
14,56	0,3113	33,49	293,78	0,00280	
14,58	0,3120	34,44	294,36	0,00280	
14,60	0,3127	30,48	295,19	0,00275	
14,62	0,3132	30,20	295,65	0,00269	
14,64	0,3136	31,64	295,82	0,00263	
14,66	0,3141	31,45	295,98	0,00266	
14,68	0,3146	34,38	296,31	0,00271	
14,70	0,3152	36,11	297,00	0,00276	
14,72	0,3157	33,52	297,68	0,00279	
14,74	0,3162	31,99	298,13	0,00277	
14,76	0,3168	31,43	298,46	0,00265	
14,78	0,3172	32,09	298,73	0,00255	
14,80	0,3177	35,06	299,14	0,00258	
14,82	0,3185	35,17	299,80	0,00267	
14,84	0,3190	34,10	300,26	0,00275	
14,86	0,3194	35,17	300,65	0,00281	
14,88	0,3200	33,13	301,20	0,00283	
14,90	0,3205	32,26	301,62	0,00279	
14,92	0,3209	35,38	301,99	0,00263	
14,94	0,3216	34,55	302,47	0,00256	
14,96	0,3220	33,67	302,85	0,00254	
14,98	0,3225	36,19	303,23	0,00253	
15,00	0,3231	34,80	303,71	0,00261	
15,02	0,3235	33,72	304,08	0,00276	
15,04	0,3240	35,47	304,54	0,00289	
15,06	0,3247	33,13	305,17	0,00284	
15,08	0,3252	31,71	305,60	0,00266	
15,10	0,3256	33,53	305,99	0,00255	
15,12	0,3263	31,79	306,54	0,00256	
15,14	0,3268	31,70	306,95	0,00264	
15,16	0,3274	34,55	307,33	0,00270	
15,18	0,3280	33,78	307,73	0,00278	
15,20	0,3283	35,15	308,09	0,00282	
15,22	0,3289	37,15	308,62	0,00275	
15,24	0,3295	35,97	309,09	0,00266	
15,26	0,3299	37,35	309,42	0,00260	
15,28	0,3304	37,82	309,95	0,00254	
15,30	0,3310	34,27	310,56	0,00263	
15,32	0,3314	35,21	311,01	0,00280	
15,34	0,3320	36,19	311,51	0,00288	
15,36	0,3326	34,33	311,87	0,00286	
15,38	0,3331	36,22	312,18	0,00274	
15,40	0,3338	37,45	312,64	0,00265	
15,42	0,3343	35,72	313,08	0,00262	
15,44	0,3347	37,45	313,48	0,00263	
15,46	0,3354	37,43	314,02	0,00266	
15,48	0,3358	35,27	314,50	0,00272	
15,50	0,3362	37,21	314,89	0,00270	
15,52	0,3369	38,12	315,34	0,00265	
15,54	0,3373	37,75	315,69	0,00265	
15,56	0,3377	40,93	316,06	0,00265	
15,58	0,3383	40,90	316,63	0,00261	
15,60	0,3387	39,27	317,10	0,00264	
15,62	0,3392	40,87	317,47	0,00269	
15,64	0,3399	39,58	318,04	0,00272	
15,66	0,3403	38,46	318,50	0,00281	
15,68	0,3409	39,90	318,97	0,00285	
15,70	0,3415	38,67	319,53	0,00276	
15,72	0,3418	38,73	319,91	0,00266	
15,74	0,3422	40,69	320,36	0,00257	
15,76	0,3428	39,10	320,88	0,00264	
15,78	0,3433	39,13	321,22	0,00278	
15,80	0,3438	42,06	321,56	0,00281	
15,82	0,3444	40,22	321,94	0,00281	
15,84	0,3447	40,18	322,23	0,00281	
15,86	0,3452	43,00	322,75	0,00268	
15,88	0,3457	40,48	323,42	0,00258	
15,90	0,3461	39,38	323,91	0,00264	
15,92	0,3467	40,47	324,33	0,00270	
15,94	0,3473	40,32	324,65	0,00275	
15,96	0,3476	42,77	324,91	0,00280	
15,98	0,3481	44,40	325,52	0,00281	
16,00	0,3487	41,33	326,26	0,00277	
16,02	0,3491	41,37	326,71	0,00266	
16,04	0,3497	41,21	327,13	0,00260	
16,06	0,3502	38,63	327,46	0,00261	
16,08	0,3505	40,59	327,73	0,00265	
16,10	0,3510	42,27	328,21	0,00274	
16,12	0,3515	40,10	328,68	0,00287	
16,14	0,3518	41,20	329,08	0,00298	
16,16	0,3524	40,77	329,65	0,00291	
16,18	0,3529	38,50	330,11	0,00277	
16,20	0,3533	40,42	330,49	0,00265	
16,22	0,3539	40,65	330,94	0,00262	
16,24	0,3544	39,28	331,28	0,00266	
16,26	0,3547	42,66	331,64	0,00265	
16,28	0,3553	42,54	332,27	0,00270	
16,30	0,3558	39,84	332,79	0,00278	
16,32	0,3561	40,80	333,22	0,00281	
16,34	0,3567	39,60	333,75	0,00273	
16,36	0,3572	38,45	334,13	0,00265	
16,38	0,3576	40,62	334,50	0,00261	
16,40	0,3583	40,27	335,02	0,00269	
16,42	0,3586	39,61	335,38	0,00282	
16,44	0,3590	42,18	335,77	0,00281	
16,46	0,3596	40,49	336,36	0,00277	
16,48	0,3601	39,12	336,81	0,00271	
16,50	0,3605	41,79	337,20	0,00263	
16,52	0,3610	41,78	337,58	0,00255	
16,54	0,3614	42,68	337,87	0,00260	
16,56	0,3619	45,56	338,39	0,00263	
16,58	0,3625	43,43	339,08	0,00275	
16,60	0,3629	42,71	339,54	0,00285	
16,62	0,3633	44,58	339,95	0,00287	
16,64	0,3639	42,90	340,35	0,00283	
16,66	0,3643	43,27	340,66	0,00278	
16,68	0,3649	45,34	341,23	0,00268	
16,70	0,3654	43,31	341,84	0,00264	
16,72	0,3657	43,52	342,19	0,00267	
16,74	0,3663	45,23	342,61	0,00269	
16,76	0,3668	43,49	343,04	0,00280	
16,78	0,3671	44,83	343,37	0,00287	
16,80	0,3676	46,74	343,87	0,00278	
16,82	0,3681	45,40	344,34	0,00264	
16,84	0,3685	47,41	344,70	0,00262	
16,86	0,3691	47,99	345,20	0,00264	
16,88	0,3695	45,55	345,62	0,00272	
16,90	0,3699	47,99	345,97	0,00280	
16,92	0,3705	49,17	346,54	0,00285	
16,94	0,3710	46,86	347,06	0,00284	
16,96	0,3713	48,71	347,44	0,00275	
16,98	0,3719	48,76	347,98	0,00264	
17,00	0,3723	47,25	348,39	0,00261	
17,02	0,3726	50,05	348,77	0,00260	
17,04	0,3731	49,66	349,37	0,00264	
17,06	0,3736	47,46	349,84	0,00281	
17,08	0,3739	49,32	350,22	0,00285	
17,10	0,3744	49,16	350,71	0,00279	
17,12	0,3747	47,95	351,08	0,00271	
17,14	0,3751	50,34	351,44	0,00257	
17,16	0,3757	50,81	351,99	0,00251	
17,18	0,3761	50,05	352,41	0,00261	
17,20	0,3765	52,54	352,82	0,00267	
17,22	0,3770	51,71	353,37	0,00275	
17,24	0,3774	50,92	353,76	0,00284	
17,26	0,3778	53,01	354,24	0,00287	
17,28	0,3784	52,24	354,82	0,00281	
17,30	0,3787	52,04	355,19	0,00273	
17,32	0,3791	54,13	355,61	0,00259	
17,34	0,3797	53,50	356,10	0,00261	
17,36	0,3800	53,88	356,43	0,00275	
17,38	0,3805	56,75	356,84	0,00277	
17,40	0,3811	55,01	357,36	0,00284	
17,42	0,3814	54,89	357,73	0,00286	
17,44	0,3819	57,14	358,22	0,00274	
17,46	0,3823	55,57	358,76	0,00260	
17,48	0,3826	55,84	359,11	0,00256	
17,50	0,3832	57,42	359,69	0,00260	
17,52	0,3836	54,42	360,35	0,00269	
17,54	0,3839	53,92	360,70	0,00278	
17,56	0,3844	57,31	360,85	0,00285	
17,58	0,3848	58,32	360,96	0,00282	
17,60	0,3851	61,61	361,23	0,00273	
17,62	0,3857	63,92	362,15	0,00259	
17,64	0,3863	61,30	363,11	0,00255	
17,66	0,3866	60,13	363,56	0,00261	
17,68	0,3869	59,63	363,70	0,00271	
17,70	0,3873	58,34	363,81	0,00285	
17,72	0,3876	61,96	364,14	0,00293	
17,74	0,3882	62,84	365,10	0,00285	
17,76	0,3887	59,29	365,96	0,00269	
17,78	0,3889	57,95	366,32	0,00261	
17,80	0,3891	57,62	366,39	0,00266	
17,82	0,3894	56,43	366,42	0,00276	
17,84	0,3898	59,22	366,79	0,00278	
17,86	0,3902	59,12	367,73	0,00276	
17,88	0,3906	55,53	368,49	0,00275	
17,90	0,3908	53,46	368,77	0,00274	
17,92	0,3911	52,81	368,84	0,00264	
17,94	0,3914	53,83	368,92	0,00259	
17,96	0,3917	58,01	369,45	0,00257	
17,98	0,3922	57,16	370,53	0,00262	
18,00	0,3926	52,71	371,32	0,00276	
18,02	0,3928	51,21	371,60	0,00285	
18,04	0,3931	50,39	371,64	0,00284	
18,06	0,3933	49,54	371,70	0,00274	
18,08	0,3937	51,70	372,28	0,00255	
18,10	0,3942	51,03	373,25	0,00245	
18,12	0,3946	48,87	373,88	0,00254	
18,14	0,3948	48,11	374,12	0,00267	
18,16	0,3952	47,08	374,20	0,00276	
18,18	0,3954	48,86	374,35	0,00284	
18,20	0,3959	51,80	375,16	0,00279	
18,22	0,3963	49,60	376,21	0,00264	
18,24	0,3966	47,01	376,76	0,00252	
18,26	0,3968	46,24	376,91	0,00253	
18,28	0,3972	46,25	376,93	0,00264	
18,30	0,3974	48,32	377,11	0,00277	
18,32	0,3980	50,25	377,77	0,00276	
18,34	0,3984	48,57	378,49	0,00276	
18,36	0,3987	48,17	378,91	0,00278	
18,38	0,3990	47,14	379,19	0,00269	
18,40	0,3994	46,11	379,39	0,00264	
18,42	0,3997	49,78	379,67	0,00258	
18,44	0,4002	51,65	380,39	0,00258	
18,46	0,4006	49,94	381,08	0,00275	
18,48	0,4008	50,78	381,48	0,00288	
18,50	0,4011	50,72	381,80	0,00289	
18,52	0,4014	50,28	382,05	0,00282	
18,54	0,4017	54,21	382,39	0,00270	
18,56	0,4022	54,22	383,12	0,00264	
18,58	0,4026	51,05	383,75	0,00269	
18,60	0,4028	51,95	384,11	0,00272	
18,62	0,4031	52,19	384,40	0,00276	
18,64	0,4034	51,55	384,61	0,00283	
18,66	0,4037	54,61	385,04	0,00290	
18,68	0,4043	53,83	385,84	0,00285	
18,70	0,4046	50,83	386,45	0,00269	
18,72	0,4048	51,30	386,78	0,00257	
18,74	0,4051	50,69	387,03	0,00258	
18,76	0,4053	50,93	387,25	0,00263	
18,78	0,4058	53,81	387,72	0,00267	
18,80	0,4063	53,15	388,43	0,00275	
18,82	0,4064	51,70	388,94	0,00282	
18,84	0,4067	52,11	389,30	0,00278	
18,86	0,4070	50,98	389,64	0,00263	
18,88	0,4073	51,64	389,92	0,00257	
18,90	0,4078	53,66	390,55	0,00258	
18,92	0,4083	50,76	391,40	0,00269	
18,94	0,4085	48,47	391,93	0,00282	
18,96	0,4087	50,12	392,12	0,00289	
18,98	0,4091	50,92	392,20	0,00290	
19,00	0,4093	53,12	392,37	0,00284	
19,02	0,4096	56,70	393,21	0,00268	
19,04	0,4102	52,89	394,35	0,00256	
19,06	0,4105	49,14	394,97	0,00265	
19,08	0,4108	48,41	395,16	0,00283	
19,10	0,4110	47,01	395,22	0,00295	
19,12	0,4113	47,69	395,40	0,00304	
19,14	0,4117	49,79	396,07	0,00299	
19,16	0,4122	48,43	396,82	0,00278	
19,18	0,4124	47,37	397,21	0,00265	
19,20	0,4128	47,64	397,35	0,00269	
19,22	0,4131	47,86	397,43	0,00282	
19,24	0,4133	52,52	397,73	0,00287	
19,26	0,4137	54,38	398,74	0,00282	
19,28	0,4142	50,67	399,76	0,00282	
19,30	0,4144	48,37	400,21	0,00279	
19,32	0,4146	48,35	400,32	0,00269	
19,34	0,4149	48,13	400,37	0,00263	
19,36	0,4153	50,71	400,69	0,00262	
19,38	0,4157	49,86	401,49	0,00263	
19,40	0,4160	46,96	402,16	0,00273	
19,42	0,4163	47,09	402,48	0,00282	
19,44	0,4166	47,33	402,63	0,00284	
19,46	0,4170	47,99	402,75	0,00284	
19,48	0,4173	53,60	403,24	0,00275	
19,50	0,4178	54,33	404,36	0,00266	
19,52	0,4181	49,75	405,20	0,00264	
19,54	0,4183	47,67	405,50	0,00275	
19,56	0,4185	47,40	405,55	0,00288	
19,58	0,4187	47,77	405,62	0,00296	
19,60	0,4192	50,11	406,13	0,00295	
19,62	0,4197	49,18	406,99	0,00286	
19,64	0,4199	47,11	407,55	0,00274	
19,66	0,4201	46,66	407,75	0,00268	
19,68	0,4205	46,71	407,82	0,00266	
19,70	0,4207	49,18	407,96	0,00270	
19,72	0,4212	53,81	408,75	0,00276	
19,74	0,4217	52,19	409,96	0,00283	
19,76	0,4219	49,39	410,67	0,00285	
19,78	0,4222	48,85	410,87	0,00277	
19,80	0,4224	48,14	410,93	0,00266	
19,82	0,4227	49,53	411,10	0,00261	
19,84	0,4231	51,59	411,88	0,00258	
19,86	0,4236	49,18	412,77	0,00269	
19,88	0,4238	46,65	413,21	0,00285	
19,90	0,4241	45,93	413,33	0,00292	
19,92	0,4244	46,11	413,37	0,00292	
19,94	0,4247	49,53	413,58	0,00286	
19,96	0,4251	51,50	414,46	0,00273	
19,98	0,4255	48,87	415,41	0,00263	
20,00	0,4257	46,56	415,85	0,00268	
20,02	0,4259	45,98	415,98	0,00279	
20,04	0,4262	46,37	416,03	0,00314	
20,06	0,4265	50,15	416,30	0,00388	
20,08	0,4270	51,76	417,11	0,00440	
20,10	0,4275	50,45	417,87	0,00447	
20,12	0,4277	49,68	418,22	0,00435	
20,14	0,4279	50,69	418,28	0,00432	
20,16	0,4282	52,79	418,31	0,00444	
20,18	0,4285	58,18	418,67	0,00446	
20,20	0,4290	59,21	419,58	0,00445	
20,22	0,4293	56,26	420,34	0,00444	
20,24	0,4296	55,43	420,67	0,00438	
20,26	0,4299	54,51	420,82	0,00437	
20,28	0,4302	54,57	420,94	0,00394	
20,30	0,4304	58,78	421,51	0,00315	
20,32	0,4309	58,22	422,71	0,00271	
20,34	0,4312	54,30	423,58	0,00277	
20,36	0,4315	53,39	423,87	0,00291	
20,38	0,4317	52,96	423,92	0,00297	
20,40	0,4319	52,59	424,00	0,00287	
20,42	0,4323	54,42	424,62	0,00270	
20,44	0,4327	53,00	425,63	0,00261	
20,46	0,4330	50,53	426,25	0,00264	
20,48	0,4333	49,52	426,45	0,00275	
20,50	0,4336	49,48	426,48	0,00287	
20,52	0,4337	52,29	426,58	0,00291	
20,54	0,4341	56,04	427,31	0,00290	
20,56	0,4346	53,53	428,38	0,00283	
20,58	0,4350	50,47	428,98	0,00271	
20,60	0,4352	49,54	429,14	0,00267	
20,62	0,4354	49,62	429,15	0,00277	
20,64	0,4356	52,87	429,30	0,00285	
20,66	0,4362	57,01	430,15	0,00287	
20,68	0,4366	54,78	431,16	0,00286	
20,70	0,4368	51,15	431,66	0,00289	
20,72	0,4371	49,68	431,78	0,00284	
20,74	0,4374	49,65	431,80	0,00275	
20,76	0,4376	53,31	432,03	0,00271	
20,78	0,4381	55,99	433,01	0,00266	
20,80	0,4385	53,57	434,01	0,00273	
20,82	0,4387	51,70	434,46	0,00283	
20,84	0,4390	51,61	434,57	0,00289	
20,86	0,4392	51,07	434,60	0,00287	
20,88	0,4395	54,29	434,81	0,00281	
20,90	0,4399	56,91	435,43	0,00271	
20,92	0,4404	56,77	435,98	0,00261	
20,94	0,4406	56,83	436,22	0,00265	
20,96	0,4408	58,26	436,29	0,00278	
20,98	0,4410	59,93	436,33	0,00296	
21,00	0,4413	64,97	436,67	0,00300	
21,02	0,4418	65,91	437,60	0,00284	
21,04	0,4421	62,89	438,42	0,00267	
21,06	0,4423	62,00	438,82	0,00255	
21,08	0,4426	61,26	439,00	0,00251	
21,10	0,4428	61,36	439,14	0,00263	
21,12	0,4430	65,71	439,68	0,00279	
21,14	0,4435	66,20	440,81	0,00285	
21,16	0,4439	62,49	441,63	0,00286	
21,18	0,4440	60,59	441,92	0,00280	
21,20	0,4442	60,08	441,97	0,00275	
21,22	0,4444	60,17	442,05	0,00273	
21,24	0,4449	61,59	442,66	0,00264	
21,26	0,4453	59,84	443,58	0,00266	
21,28	0,4456	58,38	444,11	0,00285	
21,30	0,4458	58,92	444,26	0,00301	
21,32	0,4460	59,53	444,27	0,00305	
21,34	0,4462	62,39	444,39	0,00292	
21,36	0,4466	66,04	445,11	0,00277	
21,38	0,4471	62,93	446,12	0,00269	
21,40	0,4473	60,09	446,69	0,00269	
21,42	0,4475	59,07	446,85	0,00275	
21,44	0,4479	58,69	446,91	0,00285	
21,46	0,4480	61,93	447,09	0,00288	
21,48	0,4484	65,73	448,01	0,00286	
21,50	0,4488	62,33	449,19	0,00275	
21,52	0,4491	58,34	449,77	0,00266	
21,54	0,4493	57,73	449,89	0,00269	
21,56	0,4497	57,34	449,90	0,00277	
21,58	0,4498	59,14	450,13	0,00282	
21,60	0,4504	60,13	451,11	0,00286	
21,62	0,4507	57,12	452,10	0,00286	
21,64	0,4509	54,72	452,53	0,00285	
21,66	0,4512	53,63	452,61	0,00280	
21,68	0,4515	53,57	452,63	0,00269	
21,70	0,4518	57,45	453,00	0,00258	
21,72	0,4524	58,00	454,06	0,00258	
21,74	0,4527	54,96	454,94	0,00273	
21,76	0,4530	53,62	455,28	0,00287	
21,78	0,4532	54,36	455,32	0,00293	
21,80	0,4535	54,76	455,33	0,00286	
21,82	0,4537	59,11	455,69	0,00274	
21,84	0,4543	60,43	456,62	0,00258	
21,86	0,4546	58,10	457,33	0,00256	
21,88	0,4548	57,58	457,58	0,00271	
21,90	0,4551	58,86	457,62	0,00285	
21,92	0,4553	60,47	457,65	0,00293	
21,94	0,4556	64,00	458,22	0,00291	
21,96	0,4561	63,61	459,41	0,00284	
21,98	0,4565	61,01	460,23	0,00274	
22,00	0,4567	59,78	460,48	0,00268	
22,02	0,4569	59,24	460,49	0,00274	
22,04	0,4572	59,54	460,54	0,00283	
22,06	0,4576	61,97	461,18	0,00284	
22,08	0,4581	60,26	462,28	0,00281	
22,10	0,4584	57,40	462,94	0,00289	
22,12	0,4586	56,24	463,13	0,00297	
22,14	0,4588	56,13	463,16	0,00287	
22,16	0,4590	58,68	463,26	0,00271	
22,18	0,4595	62,88	463,83	0,00259	
22,20	0,4600	62,37	464,60	0,00264	
22,22	0,4602	61,48	465,01	0,00279	
22,24	0,4605	62,25	465,11	0,00288	
22,26	0,4607	64,07	465,12	0,00289	
22,28	0,4609	68,22	465,29	0,00281	
22,30	0,4613	70,28	466,14	0,00265	
22,32	0,4617	67,69	467,08	0,00260	
22,34	0,4620	66,19	467,52	0,00263	
22,36	0,4621	66,21	467,62	0,00273	
22,38	0,4625	65,57	467,65	0,00280	
22,40	0,4626	68,94	467,89	0,00281	
22,42	0,4631	70,99	468,98	0,00275	
22,44	0,4635	67,53	470,14	0,00266	
22,46	0,4637	64,11	470,65	0,00260	
22,48	0,4639	62,93	470,75	0,00265	
22,50	0,4641	62,26	470,75	0,00279	
22,52	0,4643	64,93	471,07	0,00290	
22,54	0,4648	64,75	472,11	0,00289	
22,56	0,4653	60,92	473,03	0,00284	
22,58	0,4654	59,09	473,37	0,00279	
22,60	0,4657	58,28	473,40	0,00274	
22,62	0,4659	57,86	473,41	0,00268	
22,64	0,4662	62,22	473,84	0,00261	
22,66	0,4667	62,58	474,93	0,00263	
22,68	0,4671	58,81	475,75	0,00274	
22,70	0,4674	56,60	476,01	0,00288	
22,72	0,4675	56,27	476,01	0,00291	
22,74	0,4677	57,69	476,05	0,00283	
22,76	0,4681	61,65	476,63	0,00263	
22,78	0,4687	61,32	477,69	0,00253	
22,80	0,4689	59,40	478,34	0,00259	
22,82	0,4692	59,19	478,51	0,00277	
22,84	0,4695	59,56	478,48	0,00295	
22,86	0,4697	61,90	478,51	0,00296	
22,88	0,4700	65,39	479,24	0,00287	
22,90	0,4706	62,15	480,43	0,00276	
22,92	0,4708	57,93	481,13	0,00270	
22,94	0,4710	56,40	481,30	0,00265	
22,96	0,4713	56,29	481,29	0,00270	
22,98	0,4715	58,95	481,37	0,00280	
23,00	0,4719	62,60	482,19	0,00281	
23,02	0,4724	60,38	483,30	0,00284	
23,04	0,4727	57,38	483,87	0,00279	
23,06	0,4729	56,26	483,99	0,00264	
23,08	0,4732	55,22	483,99	0,00258	
23,10	0,4735	56,81	484,10	0,00260	
23,12	0,4740	60,50	484,88	0,00265	
23,14	0,4743	59,44	485,81	0,00277	
23,16	0,4746	57,33	486,25	0,00289	
23,18	0,4748	57,57	486,32	0,00289	
23,20	0,4750	59,15	486,30	0,00285	
23,22	0,4753	62,86	486,56	0,00275	
23,24	0,4759	63,63	487,62	0,00267	
23,26	0,4762	60,57	488,64	0,00269	
23,28	0,4764	58,76	489,04	0,00278	
23,30	0,4767	57,60	489,08	0,00293	
23,32	0,4768	57,30	489,06	0,00296	
23,34	0,4771	61,43	489,43	0,00287	
23,36	0,4776	61,56	490,52	0,00271	
23,38	0,4780	57,07	491,39	0,00263	
23,40	0,4782	54,30	491,68	0,00265	
23,42	0,4784	53,26	491,68	0,00273	
23,44	0,4787	53,64	491,66	0,00284	
23,46	0,4791	58,02	492,09	0,00290	
23,48	0,4795	58,64	493,21	0,00291	
23,50	0,4798	55,26	494,04	0,00292	
23,52	0,4801	53,18	494,29	0,00281	
23,54	0,4802	52,86	494,29	0,00267	
23,56	0,4805	53,83	494,29	0,00262	
23,58	0,4809	57,25	494,81	0,00263	
23,60	0,4814	57,08	495,88	0,00268	
23,62	0,4817	54,50	496,58	0,00286	
23,64	0,4819	53,17	496,75	0,00301	
23,66	0,4822	53,01	496,70	0,00297	
23,68	0,4825	55,26	496,71	0,00278	
23,70	0,4828	58,79	497,41	0,00258	
23,72	0,4834	56,69	498,58	0,00256	
23,74	0,4836	53,88	499,21	0,00262	
23,76	0,4838	53,07	499,35	0,00268	
23,78	0,4841	53,17	499,32	0,00276	
23,80	0,4843	55,74	499,40	0,00285	
23,82	0,4847	58,60	500,25	0,00285	
23,84	0,4851	55,80	501,33	0,00279	
23,86	0,4854	53,22	501,85	0,00272	
23,88	0,4855	52,37	501,93	0,00270	
23,90	0,4858	51,13	501,89	0,00277	
23,92	0,4861	52,46	501,84	0,00288	
23,94	0,4866	59,12	501,80	0,00302	
23,96	0,4869	65,22	501,76	0,00309	
23,98	0,4871	69,04	501,72	0,00304	
24,00	0,4874	72,70	501,66	0,00292	
24,02	0,4876	77,00	501,60	0,00281	
24,04	0,4880	82,57	501,55	0,00278	
24,06	0,4882	88,61	501,48	0,00281	
24,08	0,4883	93,84	501,42	0,00284	
24,10	0,4886	99,00	501,38	0,00287	
24,12	0,4889	103,92	501,33	0,00291	
24,14	0,4889	109,10	501,28	0,00283	
24,16	0,4890	114,00	501,21	0,00279	
24,18	0,4893	118,57	501,12	0,00276	
24,20	0,4895	122,52	501,03	0,00275	
24,22	0,4896	126,59	500,94	0,00278	
24,24	0,4896	130,61	500,84	0,00288	
24,26	0,4896	134,60	500,75	0,00298	
24,28	0,4896	138,66	500,67	0,00300	
24,30	0,4896	142,55	500,58	0,00294	
24,32	0,4896	146,67	500,47	0,00284	
24,34	0,4896	150,05	500,36	0,00277	
24,36	0,4896	152,97	500,26	0,00277	
24,38	0,4896	156,01	500,15	0,00285	
24,40	0,4896	158,93	500,03	0,00298	
24,42	0,4896	161,49	499,93	0,00304	
24,44	0,4896	164,33	499,84	0,00306	
24,46	0,4896	166,96	499,75	0,00299	
24,48	0,4895	169,94	499,65	0,00282	
24,50	0,4895	172,33	499,60	0,00272	
24,52	0,4896	171,94	499,68	0,00271	
24,54	0,4897	170,86	499,79	0,00274	
24,56	0,4897	171,65	499,81	0,00284	
24,58	0,4896	174,37	499,74	0,00294	
24,60	0,4896	178,43	499,66	0,00296	
24,62	0,4896	182,07	499,65	0,00289	
24,64	0,4896	183,86	499,65	0,00279	
24,66	0,4896	183,15	499,68	0,00274	
24,68	0,4896	181,48	499,70	0,00281	
24,70	0,4896	180,88	499,68	0,00288	
24,72	0,4893	182,37	499,64	0,00289	
24,74	0,4891	184,27	499,64	0,00292	
24,76	0,4890	184,73	499,71	0,00295	
24,78	0,4890	185,82	499,77	0,00296	
24,80	0,4890	187,42	499,75	0,00290	
24,82	0,4889	189,61	499,67	0,00276	
24,84	0,4889	191,55	499,63	0,00265	
24,86	0,4888	191,55	499,67	0,00267	
24,88	0,4886	191,00	499,70	0,00282	
24,90	0,4883	191,00	499,67	0,00298	
24,92	0,4882	190,70	499,63	0,00307	
24,94	0,4882	189,15	499,67	0,00294	
24,96	0,4883	188,78	499,73	0,00279	
24,98	0,4882	189,90	499,71	0,00271	
25,00	0,4879	190,91	499,64	0,00269	
25,02	0,4876	191,15	499,62	0,00280	
25,04	0,4876	190,74	499,70	0,00289	
25,06	0,4877	190,47	499,78	0,00295	
25,08	0,4876	190,62	499,74	0,00300	
25,10	0,4875	191,02	499,65	0,00298	
25,12	0,4872	191,05	499,61	0,00284	
25,14	0,4870	190,28	499,70	0,00274	
25,16	0,4870	188,61	499,79	0,00274	
25,18	0,4869	187,65	499,74	0,00283	
25,20	0,4868	187,71	499,65	0,00286	
25,22	0,4869	187,63	499,64	0,00286	
25,24	0,4867	187,47	499,68	0,00286	
25,26	0,4864	187,47	499,67	0,00282	
25,28	0,4862	187,22	499,64	0,00272	
25,30	0,4862	185,34	499,67	0,00265	
25,32	0,4863	183,48	499,74	0,00265	
25,34	0,4863	183,79	499,76	0,00274	
25,36	0,4861	185,89	499,68	0,00288	
25,38	0,4858	187,42	499,61	0,00292	
25,40	0,4856	186,61	499,63	0,00287	
25,42	0,4856	184,69	499,75	0,00273	
25,44	0,4856	183,86	499,80	0,00256	
25,46	0,4856	183,99	499,72	0,00246	
25,48	0,4855	184,44	499,63	0,00243	
25,50	0,4855	184,40	499,63	0,00251	
25,52	0,4854	183,59	499,70	0,00263	
25,54	0,4851	181,95	499,73	0,00267	
25,56	0,4849	181,12	499,68	0,00264	
25,58	0,4849	180,71	499,62	0,00263	
25,60	0,4849	179,70	499,67	0,00259	
25,62	0,4850	179,12	499,78	0,00256	
25,64	0,4850	179,75	499,81	0,00257	
25,66	0,4848	180,56	499,72	0,00265	
25,68	0,4845	181,07	499,62	0,00273	
25,70	0,4843	180,92	499,62	0,00273	
25,72	0,4843	180,44	499,72	0,00270	
25,74	0,4843	179,32	499,77	0,00261	
25,76	0,4842	178,13	499,71	0,00250	
25,78	0,4842	177,69	499,61	0,00246	
25,80	0,4842	177,53	499,62	0,00251	
25,82	0,4842	177,11	499,74	0,00264	
25,84	0,4842	176,94	499,81	0,00279	
25,86	0,4839	177,17	499,75	0,00299	
25,88	0,4836	178,09	499,64	0,00308	
25,90	0,4835	178,50	499,62	0,00302	
25,92	0,4836	177,78	499,70	0,00292	
25,94	0,4836	177,14	499,74	0,00294	
25,96	0,4835	176,27	499,68	0,00295	
25,98	0,4835	174,85	499,60	0,00286	
26,00	0,4835	173,16	499,66	0,00269	
26,02	0,4836	172,39	499,80	0,00244	
26,04	0,4836	173,07	499,85	0,00203	
26,06	0,4833	173,90	499,74	0,00159	
26,08	0,4830	174,50	499,63	0,00115	
26,10	0,4829	173,41	499,70	0,00074	
26,12	0,4829	172,95	499,80	0,00031	
26,14	0,4829	173,17	499,76	0,000	
26,16	0,4828	172,48	499,65	-0,00015	
26,18	0,4828	170,37	499,62	-0,00029	
26,20	0,4829	169,04	499,71	-0,00044	
26,22	0,4829	169,56	499,78	-0,00062	
26,24	0,4829	170,46	499,73	-0,00078	
26,26	0,4828	170,75	499,63	-0,00086	
26,28	0,4828	169,23	499,64	-0,00086	
26,30	0,4829	168,56	499,73	-0,00080	
26,32	0,4829	169,56	499,75	-0,00084	
26,34	0,4825	170,28	499,67	-0,00096	
26,36	0,4822	169,18	499,60	-0,00110	
26,38	0,4822	167,73	499,67	-0,00126	
26,40	0,4823	166,95	499,80	-0,00148	
26,42	0,4823	166,95	499,81	-0,00164	
26,44	0,4822	167,40	499,71	-0,00171	
26,46	0,4821	168,70	499,62	-0,00177	
26,48	0,4822	168,88	499,67	-0,00188	
26,50	0,4822	168,79	499,73	-0,00202	
26,52	0,4822	168,88	499,68	-0,00226	
26,54	0,4821	167,93	499,61	-0,00266	
26,56	0,4822	165,68	499,66	-0,00302	
26,58	0,4822	163,91	499,79	-0,00328	
26,60	0,4822	164,49	499,82	-0,00337	
26,62	0,4822	166,45	499,72	-0,00334	
26,64	0,4821	167,62	499,64	-0,00342	
26,66	0,4822	167,39	499,68	-0,00353	
26,68	0,4822	167,16	499,71	-0,00366	
26,70	0,4820	167,40	499,65	-0,00380	
26,72	0,4816	166,17	499,61	-0,00401	
26,74	0,4816	162,90	499,70	-0,00418	
26,76	0,4816	161,65	499,78	-0,00424	
26,78	0,4816	162,93	499,74	-0,00434	
26,80	0,4815	164,20	499,63	-0,00456	
26,82	0,4815	164,49	499,60	-0,00478	
26,84	0,4815	163,94	499,73	-0,00504	
26,86	0,4816	163,62	499,84	-0,00554	
26,88	0,4816	163,75	499,81	-0,00610	
26,90	0,4815	164,19	499,68	-0,00671	
26,92	0,4814	164,90	499,63	-0,00721	
26,94	0,4815	164,45	499,71	-0,00755	
26,96	0,4816	163,86	499,75	-0,00775	
26,98	0,4815	164,12	499,68	-0,00870	
27,00	0,4814	163,94	499,61	-0,01108	
27,02	0,4815	161,58	499,66	-0,01291	
27,04	0,4816	160,43	499,74	-0,01344	
27,06	0,4816	162,09	499,71	-0,01337	
27,08	0,4815	163,55	499,62	-0,01318	
27,10	0,4814	162,66	499,61	-0,01315	
27,12	0,4815	161,01	499,73	-0,01322	
27,14	0,4816	160,65	499,83	-0,01329	
27,16	0,4816	162,31	499,78	-0,01332	
27,18	0,4814	164,13	499,65	-0,01339	
27,20	0,4815	163,42	499,64	-0,01345	
27,22	0,4815	161,78	499,74	-0,01338	
27,24	0,4812	161,94	499,75	-0,01326	
27,26	0,4809	161,92	499,65	-0,01322	
27,28	0,4808	160,03	499,60	-0,01324	
27,30	0,4808	157,33	499,71	-0,01331	
27,32	0,4809	156,89	499,81	-0,01337	
27,34	0,4809	158,81	499,75	-0,01343	
27,36	0,4808	160,38	499,64	-0,01344	
27,38	0,4808	159,33	499,62	-0,01340	
27,40	0,4809	157,58	499,73	-0,01330	
27,42	0,4809	156,95	499,80	-0,01327	
27,44	0,4809	157,28	499,73	-0,01331	
27,46	0,4808	157,86	499,60	-0,01339	
27,48	0,4808	157,73	499,61	-0,01354	
27,50	0,4809	157,03	499,77	-0,01361	
27,52	0,4809	156,84	499,85	-0,01353	
27,54	0,4809	157,18	499,77	-0,01340	
27,56	0,4808	157,83	499,63	-0,01327	
27,58	0,4808	157,02	499,65	-0,01328	
27,60	0,4809	156,46	499,76	-0,01341	
27,62	0,4809	156,89	499,74	-0,01353	
27,64	0,4808	156,60	499,62	-0,01359	
27,66	0,4808	154,27	499,60	-0,01366	
27,68	0,4809	151,42	499,76	-0,01362	
27,70	0,4809	151,28	499,90	-0,01345	
27,72	0,4809	152,93	499,86	-0,01333	
27,74	0,4808	154,22	499,71	-0,01327	
27,76	0,4808	155,20	499,63	-0,01328	
27,78	0,4809	155,43	499,67	-0,01346	
27,80	0,4809	154,79	499,70	-0,01358	
27,82	0,4808	153,33	499,66	-0,01358	
27,84	0,4808	151,28	499,64	-0,01351	
27,86	0,4809	149,03	499,73	-0,01340	
27,88	0,4809	149,30	499,78	-0,01332	
27,90	0,4809	151,98	499,70	-0,01331	
27,92	0,4808	153,59	499,60	-0,01343	
27,94	0,4808	152,25	499,65	-0,01355	
27,96	0,4809	150,56	499,78	-0,01360	
27,98	0,4809	150,14	499,79	-0,01358	
28,00	0,4808	150,55	499,68	-0,01352	
28,02	0,4808	150,25	499,59	-0,01352	
28,04	0,4808	148,97	499,66	-0,01345	
28,06	0,4809	147,50	499,78	-0,01340	
28,08	0,4809	147,03	499,78	-0,01349	
28,10	0,4808	147,51	499,66	-0,01365	
28,12	0,4808	147,70	499,60	-0,01370	
28,14	0,4809	147,22	499,71	-0,01371	
28,16	0,4809	146,83	499,83	-0,01367	
28,18	0,4809	147,03	499,78	-0,01356	
28,20	0,4808	147,70	499,65	-0,01351	
28,22	0,4808	146,66	499,64	-0,01351	
28,24	0,4809	144,98	499,73	-0,01360	
28,26	0,4809	145,65	499,72	-0,01369	
28,28	0,4808	146,77	499,63	-0,01368	
28,30	0,4808	145,48	499,62	-0,01367	
28,32	0,4809	143,40	499,74	-0,01362	
28,34	0,4809	143,42	499,80	-0,01352	
28,36	0,4808	145,53	499,71	-0,01348	
28,38	0,4808	147,00	499,60	-0,01348	
28,40	0,4812	145,67	499,65	-0,01360	
28,42	0,4815	144,33	499,78	-0,01371	
28,44	0,4816	145,39	499,78	-0,01376	
28,46	0,4815	147,12	499,66	-0,01373	
28,48	0,4814	146,71	499,60	-0,01366	
28,50	0,4815	144,74	499,70	-0,01360	
28,52	0,4816	143,99	499,79	-0,01350	
28,54	0,4815	144,71	499,74	-0,01350	
28,56	0,4814	144,97	499,61	-0,01358	
28,58	0,4815	144,13	499,62	-0,01373	
28,60	0,4816	142,83	499,79	-0,01384	
28,62	0,4816	142,91	499,88	-0,01373	
28,64	0,4815	143,56	499,79	-0,01357	
28,66	0,4814	144,25	499,66	-0,01349	
28,68	0,4815	143,42	499,67	-0,01349	
28,70	0,4816	143,41	499,73	-0,01349	
28,72	0,4815	145,28	499,67	-0,01362	
28,74	0,4815	145,27	499,60	-0,01376	
28,76	0,4815	141,80	499,69	-0,01383	
28,78	0,4816	139,60	499,84	-0,01371	
28,80	0,4816	141,42	499,83	-0,01354	
28,82	0,4815	143,73	499,69	-0,01339	
28,84	0,4815	144,09	499,62	-0,01335	
28,86	0,4819	143,11	499,69	-0,01342	
28,88	0,4821	143,29	499,72	-0,01362	
28,90	0,4822	144,09	499,66	-0,01372	
28,92	0,4821	143,12	499,60	-0,01372	
28,94	0,4822	140,11	499,69	-0,01366	
28,96	0,4823	139,46	499,80	-0,01361	
28,98	0,4822	141,71	499,77	-0,01352	
29,00	0,4821	143,87	499,63	-0,01345	
29,02	0,4821	143,29	499,62	-0,01350	
29,04	0,4822	141,24	499,75	-0,01366	
29,06	0,4822	141,23	499,82	-0,01375	
29,08	0,4822	143,01	499,72	-0,01371	
29,10	0,4821	142,97	499,60	-0,01356	
29,12	0,4821	140,57	499,65	-0,01345	
29,14	0,4822	138,93	499,82	-0,01344	
29,16	0,4822	139,34	499,87	-0,01351	
29,18	0,4822	140,32	499,75	-0,01352	
29,20	0,4822	140,89	499,65	-0,01358	
29,22	0,4825	139,94	499,70	-0,01374	
29,24	0,4828	140,55	499,73	-0,01379	
29,26	0,4828	142,53	499,64	-0,01370	
29,28	0,4828	141,47	499,60	-0,01354	
29,30	0,4829	137,48	499,74	-0,01341	
29,32	0,4829	135,65	499,87	-0,01337	
29,34	0,4829	137,81	499,82	-0,01352	
29,36	0,4828	140,30	499,67	-0,01364	
29,38	0,4828	140,85	499,64	-0,01370	
29,40	0,4829	140,41	499,71	-0,01367	
29,42	0,4829	140,33	499,71	-0,01362	
29,44	0,4828	140,37	499,63	-0,01355	
29,46	0,4828	138,66	499,63	-0,01350	
29,48	0,4829	135,99	499,75	-0,01350	
29,50	0,4829	136,63	499,81	-0,01360	
29,52	0,4828	139,36	499,72	-0,01370	
29,54	0,4829	140,95	499,61	-0,01377	
29,56	0,4833	140,86	499,65	-0,01383	
29,58	0,4835	140,26	499,77	-0,01373	
29,60	0,4836	140,16	499,77	-0,01354	
29,62	0,4834	140,73	499,64	-0,01350	
29,64	0,4834	140,01	499,60	-0,01352	
29,66	0,4835	137,95	499,74	-0,01361	
29,68	0,4836	137,78	499,86	-0,01372	
29,70	0,4835	139,49	499,78	-0,01380	
29,72	0,4834	140,53	499,62	-0,01375	
29,74	0,4835	139,12	499,62	-0,01365	
29,76	0,4836	137,62	499,76	-0,01354	
29,78	0,4836	138,52	499,80	-0,01349	
29,80	0,4835	139,99	499,68	-0,01358	
29,82	0,4834	138,94	499,59	-0,01373	
29,84	0,4837	136,12	499,70	-0,01382	
29,86	0,4841	135,74	499,84	-0,01378	
29,88	0,4842	137,20	499,80	-0,01368	
29,90	0,4841	137,97	499,65	-0,01361	
29,92	0,4841	137,02	499,63	-0,01358	
29,94	0,4842	136,22	499,74	-0,01359	
29,96	0,4842	136,48	499,77	-0,01361	
29,98	0,4842	137,29	499,67	-0,01373	
30,00	0,4841	136,72	499,60	-0,01387	
30,02	0,4842	134,76	499,71	-0,01387	
30,04	0,4843	134,47	499,84	-0,01379	
30,06	0,4842	135,97	499,81	-0,01367	
30,08	0,4841	137,37	499,68	-0,01357	
30,10	0,4843	137,59	499,63	-0,01352	
30,12	0,4847	137,53	499,70	-0,01352	
30,14	0,4849	138,73	499,72	-0,01363	
30,16	0,4849	139,28	499,65	-0,01375	
30,18	0,4849	138,05	499,61	-0,01381	
30,20	0,4849	135,80	499,72	-0,01380	
30,22	0,4850	135,85	499,81	-0,01374	
30,24	0,4849	138,48	499,73	-0,01364	
30,26	0,4848	140,26	499,60	-0,01359	
30,28	0,4849	138,99	499,66	-0,01364	
30,30	0,4850	137,52	499,82	-0,01372	
30,32	0,4850	138,47	499,86	-0,01376	
30,34	0,4849	140,17	499,74	-0,01382	
30,36	0,4848	140,08	499,63	-0,01379	
30,38	0,4851	138,56	499,66	-0,01372	
30,40	0,4854	138,68	499,74	-0,01361	
30,42	0,4856	139,91	499,69	-0,01354	
30,44	0,4855	139,55	499,60	-0,01362	
30,46	0,4855	136,46	499,65	-0,01376	
30,48	0,4856	134,19	499,81	-0,01373	
30,50	0,4856	135,39	499,83	-0,01365	
30,52	0,4855	138,54	499,70	-0,01351	
30,54	0,4855	139,53	499,60	-0,01345	
30,56	0,4856	138,00	499,68	-0,01344	
30,58	0,4857	136,73	499,81	-0,01348	
30,60	0,4856	136,70	499,78	-0,01361	
30,62	0,4855	137,40	499,65	-0,01375	
30,64	0,4855	137,55	499,61	-0,01389	
30,66	0,4856	137,01	499,72	-0,01392	
30,68	0,4856	136,70	499,80	-0,01376	
30,70	0,4856	137,17	499,72	-0,01365	
30,72	0,4857	137,31	499,61	-0,01361	
30,74	0,4860	136,59	499,65	-0,01369	
30,76	0,4863	136,30	499,78	-0,01384	
30,78	0,4863	136,63	499,81	-0,01391	
30,80	0,4862	137,29	499,70	-0,01386	
30,82	0,4862	137,63	499,61	-0,01385	
30,84	0,4862	137,20	499,69	-0,01387	
30,86	0,4863	137,09	499,79	-0,01382	
30,88	0,4863	138,69	499,73	-0,01373	
30,90	0,4862	139,17	499,62	-0,01377	
30,92	0,4862	136,83	499,63	-0,01381	
30,94	0,4863	135,69	499,77	-0,01385	
30,96	0,4863	136,19	499,82	-0,01388	
30,98	0,4863	137,05	499,70	-0,01384	
31,00	0,4865	137,51	499,61	-0,01380	
31,02	0,4868	137,13	499,68	-0,01379	
31,04	0,4870	137,67	499,77	-0,01380	
31,06	0,4869	139,48	499,72	-0,01379	
31,08	0,4868	139,51	499,61	-0,01385	
31,10	0,4869	136,85	499,64	-0,01391	
31,12	0,4870	135,73	499,79	-0,01396	
31,14	0,4870	137,29	499,83	-0,01392	
31,16	0,4869	139,45	499,71	-0,01385	
31,18	0,4868	139,21	499,61	-0,01374	
31,20	0,4869	137,76	499,68	-0,01364	
31,22	0,4870	137,79	499,79	-0,01369	
31,24	0,4869	139,49	499,75	-0,01389	
31,26	0,4869	140,47	499,63	-0,01398	
31,28	0,4872	139,10	499,63	-0,01390	
31,30	0,4875	137,69	499,73	-0,01387	
31,32	0,4876	138,61	499,75	-0,01382	
31,34	0,4876	140,24	499,66	-0,01373	
31,36	0,4875	140,05	499,59	-0,01369	
31,38	0,4876	138,24	499,68	-0,01374	
31,40	0,4877	137,29	499,81	-0,01439	
31,42	0,4876	138,69	499,78	-0,01997	
31,44	0,4875	140,51	499,66	-0,02830	
31,46	0,4875	140,02	499,63	-0,02870	
31,48	0,4876	138,88	499,72	-0,02481	
31,50	0,4876	139,39	499,75	-0,02425	
31,52	0,4876	140,41	499,66	-0,02244	
31,54	0,4875	139,95	499,60	-0,01646	
31,56	0,4876	138,03	499,72	-0,01382	
31,58	0,4877	137,73	499,86	-0,01400	
31,60	0,4877	139,33	499,81	-0,00853	
31,62	0,4879	140,85	499,67	-0,00183	
31,64	0,4881	140,98	499,63	0,00117	
31,66	0,4883	140,80	499,70	0,00186	
31,68	0,4883	141,77	499,71	0,00194	
31,70	0,4882	141,89	499,64	0,00202	
31,72	0,4882	139,89	499,64	0,00217	
31,74	0,4883	137,11	499,74	0,00264	
31,76	0,4883	137,39	499,77	0,00355	
31,78	0,4882	140,51	499,67	0,00403	
31,80	0,4882	142,32	499,60	0,00435	
31,82	0,4882	140,71	499,69	0,00451	
31,84	0,4883	139,57	499,79	0,00486	
31,86	0,4883	141,03	499,74	0,00497	
31,88	0,4882	142,12	499,62	0,00489	
31,90	0,4882	139,95	499,62	0,00503	
31,92	0,4885	138,34	499,77	0,00529	
31,94	0,4888	139,08	499,82	0,00555	
31,96	0,4889	140,39	499,72	0,00573	
31,98	0,4889	140,73	499,61	0,00587	
32,00	0,4889	138,96	499,66	0,00569	
32,02	0,4890	138,15	499,78	0,00541	
32,04	0,4890	139,40	499,76	0,00507	
32,06	0,4889	140,47	499,64	0,00457	
32,08	0,4889	139,20	499,62	0,00411	
32,10	0,4890	137,35	499,74	0,00380	
32,12	0,4890	137,52	499,81	0,00373	
32,14	0,4889	139,43	499,72	0,00368	
32,16	0,4888	140,48	499,61	0,00343	
32,18	0,4889	138,95	499,66	0,00321	
32,20	0,4890	137,45	499,78	0,00308	
32,22	0,4890	138,59	499,75	0,00305	
32,24	0,4889	140,06	499,63	0,00309	
32,26	0,4891	138,41	499,63	0,00323	
32,28	0,4895	136,95	499,74	0,00332	
32,30	0,4896	138,36	499,74	0,00333	
32,32	0,4896	139,95	499,64	0,00326	
32,34	0,4895	138,18	499,61	0,00313	
32,36	0,4896	135,27	499,73	0,00316	
32,38	0,4897	135,43	499,82	0,00336	
32,40	0,4897	138,15	499,74	0,00372	
32,42	0,4895	140,08	499,62	0,00403	
32,44	0,4896	138,95	499,65	0,00450	
32,46	0,4897	137,52	499,75	0,00499	
32,48	0,4897	138,43	499,75	0,00516	
32,50	0,4896	139,93	499,62	0,00522	
32,52	0,4896	138,51	499,60	0,00538	
32,54	0,4900	135,98	499,77	0,00575	
32,56	0,4903	135,95	499,90	0,00597	
32,58	0,4903	138,09	499,81	0,00609	
32,60	0,4902	138,86	499,66	0,00614	
32,62	0,4903	137,69	499,70	0,00616	
32,64	0,4904	137,98	499,77	0,00610	
32,66	0,4903	140,31	499,69	0,00604	
32,68	0,4902	141,00	499,60	0,00598	
32,70	0,4902	137,93	499,67	0,00591	
32,72	0,4904	134,86	499,80	0,00579	
32,74	0,4903	136,36	499,79	0,00570	
32,76	0,4902	139,29	499,65	0,00549	
32,78	0,4902	138,56	499,60	0,00496	
32,80	0,4903	136,69	499,73	0,00435	
32,82	0,4904	137,24	499,82	0,00386	
32,84	0,4904	139,39	499,73	0,00360	
32,86	0,4906	140,54	499,60	0,00355	
32,88	0,4909	139,04	499,65	0,00352	
32,90	0,4910	137,48	499,79	0,00354	
32,92	0,4910	138,59	499,78	0,00380	
32,94	0,4909	140,55	499,65	0,00395	
32,96	0,4909	139,49	499,62	0,00376	
32,98	0,4910	137,19	499,77	0,00361	
33,00	0,4910	137,45	499,83	0,00364	
33,02	0,4909	139,57	499,71	0,00377	
33,04	0,4909	140,62	499,61	0,00374	
33,06	0,4910	138,91	499,69	0,00383	
33,08	0,4910	138,01	499,80	0,00424	
33,10	0,4910	139,32	499,74	0,00515	
33,12	0,4909	140,34	499,62	0,00585	
33,14	0,4911	139,01	499,63	0,00614	
33,16	0,4915	137,58	499,76	0,00617	
33,18	0,4917	138,42	499,79	0,00615	
33,20	0,4916	140,06	499,68	0,00659	
33,22	0,4915	140,22	499,59	0,00656	
33,24	0,4916	138,85	499,68	0,00655	
33,26	0,4917	138,16	499,82	0,00646	
33,28	0,4917	139,28	499,79	0,00628	
33,30	0,4916	140,64	499,65	0,00605	
33,32	0,4916	139,97	499,62	0,00606	
33,34	0,4917	138,24	499,72	0,00617	
33,36	0,4917	138,57	499,76	0,00618	
33,38	0,4916	140,02	499,66	0,00623	
33,40	0,4916	139,61	499,59	0,00604	
33,42	0,4916	137,12	499,71	0,00551	
33,44	0,4917	137,03	499,84	0,00483	
33,46	0,4917	139,10	499,77	0,00447	
33,48	0,4917	140,44	499,63	0,00423	
33,50	0,4920	139,08	499,62	0,00404	
33,52	0,4923	137,14	499,78	0,00389	
33,54	0,4924	137,37	499,84	0,00398	
33,56	0,4923	139,28	499,72	0,00396	
33,58	0,4922	139,66	499,62	0,00398	
33,60	0,4923	137,95	499,68	0,00414	
33,62	0,4924	137,67	499,76	0,00433	
33,64	0,4923	139,36	499,69	0,00456	
33,66	0,4922	139,73	499,59	0,00498	
33,68	0,4923	137,17	499,66	0,00562	
33,70	0,4924	134,53	499,85	0,00619	
33,72	0,4924	135,88	499,87	0,00670	
33,74	0,4922	139,18	499,71	0,00686	
33,76	0,4923	139,70	499,65	0,00672	
33,78	0,4926	138,14	499,73	0,00658	
33,80	0,4929	139,27	499,72	0,00681	
33,82	0,4929	140,73	499,60	0,00716	
33,84	0,4929	138,17	499,63	0,00738	
33,86	0,4930	133,43	499,82	0,00767	
33,88	0,4931	133,09	499,90	0,00790	
33,90	0,4930	135,67	499,77	0,00787	
33,92	0,4929	137,37	499,63	0,00774	
33,94	0,4930	137,21	499,68	0,00763	
33,96	0,4931	137,55	499,78	0,00722	
33,98	0,4930	139,25	499,73	0,00692	
34,00	0,4929	139,40	499,62	0,00680	
34,02	0,4929	136,51	499,65	0,00672	
34,04	0,4930	134,81	499,75	0,00651	
34,06	0,4930	136,60	499,75	0,00631	
34,08	0,4931	139,28	499,62	0,00618	
34,10	0,4934	138,07	499,62	0,00607	
34,12	0,4937	135,02	499,80	0,00617	
34,14	0,4937	135,84	499,89	0,00640	
34,16	0,4936	138,88	499,77	0,00662	
34,18	0,4935	140,55	499,62	0,00671	
34,20	0,4936	139,12	499,66	0,00683	
34,22	0,4937	137,99	499,78	0,00693	
34,24	0,4937	139,08	499,76	0,00701	
34,26	0,4936	140,32	499,63	0,00718	
34,28	0,4936	138,49	499,63	0,00747	
34,30	0,4937	136,65	499,78	0,00782	
34,32	0,4937	137,85	499,83	0,00818	
34,34	0,4936	139,90	499,71	0,00850	
34,36	0,4937	140,65	499,60	0,00867	
34,38	0,4941	138,87	499,68	0,00860	
34,40	0,4944	137,96	499,79	0,00853	
34,42	0,4943	139,36	499,72	0,00869	
34,44	0,4942	140,32	499,61	0,00889	
34,46	0,4943	138,19	499,66	0,00907	
34,48	0,4944	136,52	499,82	0,00939	
34,50	0,4944	137,95	499,83	0,00969	
34,52	0,4943	140,09	499,69	0,00984	
34,54	0,4942	139,91	499,62	0,00982	
34,56	0,4943	138,16	499,70	0,00959	
34,58	0,4944	138,45	499,74	0,00930	
34,60	0,4943	139,97	499,65	0,00908	
34,62	0,4943	139,64	499,59	0,00900	
34,64	0,4945	137,22	499,71	0,00892	
34,66	0,4949	136,52	499,84	0,00872	
34,68	0,4950	138,33	499,80	0,00841	
34,70	0,4949	140,37	499,64	0,00810	
34,72	0,4949	139,95	499,61	0,00775	
34,74	0,4950	138,02	499,76	0,00756	
34,76	0,4951	138,33	499,85	0,00746	
34,78	0,4950	139,97	499,74	0,00751	
34,80	0,4949	140,68	499,62	0,00768	
34,82	0,4950	139,05	499,66	0,00781	
34,84	0,4950	138,21	499,74	0,00792	
34,86	0,4950	139,41	499,71	0,00803	
34,88	0,4949	140,35	499,60	0,00811	
34,90	0,4950	138,43	499,63	0,00820	
34,92	0,4951	136,66	499,81	0,00837	
34,94	0,4951	137,88	499,85	0,00864	
34,96	0,4951	140,01	499,71	0,00902	
34,98	0,4954	140,52	499,62	0,00949	
35,00	0,4957	138,91	499,70	0,00998	
35,02	0,4957	139,04	499,74	0,01043	
35,04	0,4956	140,80	499,65	0,01057	
35,06	0,4956	140,15	499,59	0,01050	
35,08	0,4957	136,49	499,72	0,01052	
35,10	0,4957	134,93	499,87	0,01061	
35,12	0,4957	137,41	499,82	0,01076	
35,14	0,4956	140,21	499,67	0,01072	
35,16	0,4956	139,82	499,66	0,01058	
35,18	0,4957	138,62	499,73	0,01034	
35,20	0,4956	139,54	499,68	0,01009	
35,22	0,4956	139,50	499,60	0,00993	
35,24	0,4958	136,20	499,67	0,00977	
35,26	0,4962	133,34	499,81	0,00969	
35,28	0,4963	135,11	499,78	0,00966	
35,30	0,4963	137,47	499,64	0,00969	
35,32	0,4963	137,39	499,62	0,00965	
35,34	0,4964	136,08	499,74	0,00955	
35,36	0,4964	136,90	499,80	0,00947	
35,38	0,4963	138,52	499,69	0,00946	
35,40	0,4963	138,16	499,59	0,00949	
35,42	0,4963	135,64	499,69	0,00955	
35,44	0,4964	134,82	499,83	0,00972	
35,46	0,4964	137,25	499,80	0,00983	
35,48	0,4963	138,50	499,65	0,00987	
35,50	0,4966	137,29	499,61	0,00976	
35,52	0,4969	136,10	499,73	0,00966	
35,54	0,4971	136,18	499,79	0,00955	
35,56	0,4970	136,98	499,68	0,00961	
35,58	0,4969	136,59	499,59	0,00975	
35,60	0,4970	134,68	499,70	0,00983	
35,62	0,4971	134,49	499,83	0,00987	
35,64	0,4970	137,29	499,77	0,00981	
35,66	0,4969	138,34	499,63	0,00970	
35,68	0,4970	136,12	499,66	0,00962	
35,70	0,4971	134,70	499,79	0,00966	
35,72	0,4971	136,60	499,78	0,00974	
35,74	0,4970	138,77	499,64	0,00983	
35,76	0,4973	137,56	499,61	0,00987	
35,78	0,4976	134,97	499,74	0,00983	
35,80	0,4978	135,00	499,81	0,00981	
35,82	0,4977	136,55	499,71	0,00980	
35,84	0,4976	137,24	499,60	0,00976	
35,86	0,4976	136,42	499,66	0,00971	
35,88	0,4977	136,10	499,78	0,00971	
35,90	0,4977	137,12	499,76	0,00985	
35,92	0,4976	138,03	499,63	0,00993	
35,94	0,4976	136,81	499,62	0,00995	
35,96	0,4977	134,66	499,76	0,00991	
35,98	0,4977	135,20	499,80	0,00979	
36,00	0,4977	137,46	499,68	0,00969	
36,02	0,4979	137,09	499,61	0,00965	
36,04	0,4983	134,92	499,72	0,00971	
36,06	0,4984	135,82	499,79	0,00981	
36,08	0,4983	138,92	499,69	0,00988	
36,10	0,4983	139,67	499,57	0,00996	
36,12	0,4983	136,69	499,67	0,00989	
36,14	0,4984	134,75	499,88	0,00973	
36,16	0,4984	135,69	499,90	0,00970	
36,18	0,4983	137,12	499,73	0,00976	
36,20	0,4983	137,36	499,63	0,00983	
36,22	0,4984	136,20	499,70	0,00987	
36,24	0,4984	137,03	499,73	0,00989	
36,26	0,4983	139,08	499,63	0,00987	
36,28	0,4985	137,72	499,60	0,00980	
36,30	0,4989	133,52	499,75	0,00972	
36,32	0,4991	132,88	499,85	0,00964	
36,34	0,4990	135,45	499,76	0,00967	
36,36	0,4989	137,38	499,62	0,00973	
36,38	0,4990	137,39	499,65	0,00977	
36,40	0,4991	136,95	499,80	0,00982	
36,42	0,4991	138,19	499,81	0,00987	
36,44	0,4989	139,85	499,67	0,00979	
36,46	0,4989	138,47	499,63	0,00965	
36,48	0,4990	136,67	499,70	0,00960	
36,50	0,4990	137,36	499,71	0,00963	
36,52	0,4990	138,66	499,63	0,00972	
36,54	0,4990	137,10	499,62	0,00979	
36,56	0,4994	133,84	499,75	0,00981	
36,58	0,4997	133,79	499,83	0,00982	
36,60	0,4997	137,36	499,73	0,00978	
36,62	0,4996	140,00	499,60	0,00969	
36,64	0,4997	138,89	499,68	0,00959	
36,66	0,4998	137,38	499,83	0,00963	
36,68	0,4997	138,41	499,81	0,00976	
36,70	0,4997	139,95	499,66	0,00985	
36,72	0,4996	138,62	499,60	0,00986	
36,74	0,4997	136,74	499,73	0,00981	
36,76	0,4997	136,27	499,85	0,00972	
36,78	0,4997	136,74	499,78	0,00964	
36,80	0,4996	137,42	499,64	0,00960	
36,82	0,4998	137,30	499,62	0,00959	
36,84	0,5002	136,74	499,73	0,00969	
36,86	0,5004	136,64	499,77	0,00978	
36,88	0,5003	137,16	499,65	0,00982	
36,90	0,5003	136,62	499,59	0,00979	
36,92	0,5004	134,37	499,77	0,00967	
36,94	0,5004	134,24	499,93	0,00965	
36,96	0,5004	137,33	499,86	0,00968	
36,98	0,5003	139,34	499,67	0,00965	
37,00	0,5003	138,60	499,60	0,00968	
37,02	0,5004	137,10	499,73	0,00980	
37,04	0,5004	136,51	499,84	0,00989	
37,06	0,5004	136,94	499,75	0,00980	
37,08	0,5003	137,26	499,61	0,00964	
37,10	0,5005	136,58	499,63	0,00959	
37,12	0,5009	136,19	499,78	0,00962	
37,14	0,5011	136,43	499,82	0,00969	
37,16	0,5010	137,16	499,70	0,00977	
37,18	0,5009	137,45	499,61	0,00982	
37,20	0,5010	136,46	499,70	0,00985	
37,22	0,5011	136,83	499,76	0,00976	
37,24	0,5010	138,89	499,68	0,00954	
37,26	0,5034	138,83	499,59	0,00944	
37,28	0,6095	136,04	499,68	0,00950	
37,30	0,8059	134,50	499,83	0,00964	
37,32	0,9170	135,61	499,81	0,00976	
37,34	0,9407	137,22	499,66	0,00985	
37,36	0,9383	137,56	499,61	0,00984	
37,38	0,9365	136,89	499,73	0,00973	
37,40	0,9367	136,54	499,81	0,00959	
37,42	0,9369	136,96	499,72	0,00954	
37,44	0,9369	137,29	499,59	0,00956	
37,46	0,9369	136,22	499,64	0,00958	
37,48	0,9370	135,32	499,82	0,00964	
37,50	0,9370	135,95	499,85	0,00972	
37,52	0,9369	137,36	499,71	0,00960	
37,54	0,9370	139,50	499,59	0,00923	
37,56	0,9376	142,69	499,68	0,00873	
37,58	0,9384	149,64	499,82	0,00828	
37,60	0,9394	162,82	499,80	0,00785	
37,62	0,9406	181,37	499,64	0,00734	
37,64	0,9424	202,81	499,62	0,00675	
37,66	0,9446	228,75	499,73	0,00609	
37,68	0,9473	262,25	499,74	0,00528	
37,70	0,9502	302,28	499,62	0,00438	
37,72	0,9535	344,79	499,59	0,00340	
37,74	0,9573	390,08	499,75	0,00235	
37,76	0,9616	443,36	499,87	0,00133	
37,78	0,9663	503,63	499,78	0,00041	
37,80	0,9714	567,12	499,63	-0,00048	
37,82	0,9768	632,65	499,64	-0,00149	
37,84	0,9824	704,12	499,71	-0,00259	
37,86	0,9886	781,01	499,69	-0,00381	
37,88	0,9951	860,14	499,62	-0,00513	
37,90	1,002	941,59	499,67	-0,00658	
37,92	1,010	1027,9	499,78	-0,00811	
37,94	1,017	1121,1	499,75	-0,00966	
37,96	1,025	1218,2	499,61	-0,01123	
37,98	1,034	1314,3	499,62	-0,01297	
38,00	1,043	1409,8	499,86	-0,01510	
38,02	1,053	1509,3	499,96	-0,01752	
38,04	1,062	1610,7	499,80	-0,02024	
38,06	1,072	1709,3	499,62	-0,02324	
38,08	1,083	1804,3	499,64	-0,02659	
38,10	1,094	1897,3	499,81	-0,03024	
38,12	1,105	1986,4	499,85	-0,03420	
38,14	1,117	2070,4	499,72	-0,03866	
38,16	1,129	2148,4	499,60	-0,04360	
38,18	1,142	2219,0	499,66	-0,04900	
38,20	1,155	2283,1	499,80	-0,05476	
38,22	1,168	2342,2	499,78	-0,06081	
38,24	1,182	2395,9	499,65	-0,06708	
38,26	1,196	2443,5	499,62	-0,07372	
38,28	1,211	2487,8	499,73	-0,08060	
38,30	1,226	2529,9	499,80	-0,08763	
38,32	1,241	2570,0	499,72	-0,09508	
38,34	1,257	2606,8	499,59	-0,1029	
38,36	1,273	2639,2	499,65	-0,1111	
38,38	1,290	2669,5	499,84	-0,1193	
38,40	1,307	2701,1	499,89	-0,1277	
38,42	1,324	2732,3	499,75	-0,1361	
38,44	1,342	2761,0	499,63	-0,1448	
38,46	1,360	2787,6	499,68	-0,1538	
38,48	1,379	2813,9	499,74	-0,1630	
38,50	1,398	2840,3	499,68	-0,1723	
38,52	1,417	2864,7	499,59	-0,1818	
38,54	1,437	2885,3	499,71	-0,1913	
38,56	1,457	2906,6	499,87	-0,2006	
38,58	1,477	2930,6	499,85	-0,2098	
38,60	1,496	2953,9	499,70	-0,2190	
38,62	1,516	2974,6	499,62	-0,2284	
38,64	1,536	2993,1	499,69	-0,2379	
38,66	1,557	3012,3	499,73	-0,2474	
38,68	1,577	3031,4	499,66	-0,2569	
38,70	1,596	3047,9	499,61	-0,2664	
38,72	1,616	3061,6	499,70	-0,2759	
38,74	1,637	3078,0	499,80	-0,2853	
38,76	1,657	3097,2	499,74	-0,2947	
38,78	1,676	3115,6	499,61	-0,3041	
38,80	1,696	3130,3	499,63	-0,3137	
38,82	1,717	3144,0	499,76	-0,3234	
38,84	1,737	3159,0	499,79	-0,3330	
38,86	1,757	3174,5	499,68	-0,3425	
38,88	1,777	3188,8	499,60	-0,3521	
38,90	1,797	3201,1	499,72	-0,3618	
38,92	1,817	3213,8	499,84	-0,3715	
38,94	1,837	3227,9	499,77	-0,3811	
38,96	1,857	3242,0	499,65	-0,3909	
38,98	1,876	3254,0	499,64	-0,4007	
39,00	1,897	3265,7	499,73	-0,4105	
39,02	1,917	3278,6	499,72	-0,4202	
39,04	1,937	3291,5	499,63	-0,4298	
39,06	1,957	3301,3	499,63	-0,4396	
39,08	1,977	3310,4	499,77	-0,4495	
39,10	1,997	3322,2	499,83	-0,4596	
39,12	2,017	3335,7	499,73	-0,4695	
39,14	2,037	3348,1	499,62	-0,4795	
39,16	2,057	3357,7	499,68	-0,4896	
39,18	2,077	3367,3	499,76	-0,4996	
39,20	2,097	3378,6	499,71	-0,5095	
39,22	2,117	3388,9	499,61	-0,5195	
39,24	2,137	3396,4	499,67	-0,5298	
39,26	2,157	3404,7	499,78	-0,5402	
39,28	2,177	3415,6	499,76	-0,5505	
39,30	2,197	3426,8	499,63	-0,5607	
39,32	2,217	3435,0	499,60	-0,5709	
39,34	2,237	3441,6	499,78	-0,5812	
39,36	2,257	3450,0	499,92	-0,5915	
39,38	2,277	3459,9	499,85	-0,6019	
39,40	2,297	3469,3	499,69	-0,6123	
39,42	2,317	3477,8	499,67	-0,6228	
39,44	2,337	3486,1	499,76	-0,6334	
39,46	2,357	3495,5	499,73	-0,6439	
39,48	2,376	3503,8	499,63	-0,6544	
39,50	2,397	3509,3	499,64	-0,6650	
39,52	2,416	3514,5	499,75	-0,6756	
39,54	2,436	3522,6	499,75	-0,6864	
39,56	2,456	3532,1	499,65	-0,6972	
39,58	2,476	3539,3	499,62	-0,7081	
39,60	2,497	3544,4	499,73	-0,7189	
39,62	2,517	3552,1	499,80	-0,7298	
39,64	2,537	3561,8	499,71	-0,7406	
39,66	2,556	3570,1	499,61	-0,7515	
39,68	2,577	3575,6	499,66	-0,7625	
39,70	2,597	3581,8	499,76	-0,7737	
39,72	2,617	3589,3	499,75	-0,7849	
39,74	2,636	3597,0	499,63	-0,7960	
39,76	2,656	3602,0	499,62	-0,8072	
39,78	2,677	3606,7	499,77	-0,8184	
39,80	2,697	3613,1	499,83	-0,8296	
39,82	2,717	3620,4	499,73	-0,8409	
39,84	2,737	3627,5	499,62	-0,8523	
39,86	2,757	3632,4	499,70	-0,8638	
39,88	2,777	3637,4	499,81	-0,8752	
39,90	2,797	3644,0	499,74	-0,8867	
39,92	2,817	3650,1	499,63	-0,8982	
39,94	2,837	3652,9	499,67	-0,9097	
39,96	2,857	3656,2	499,77	-0,9213	
39,98	2,877	3662,9	499,74	-0,9330	
40,00	2,897	3669,9	499,61	-0,9448	
40,02	2,917	3673,0	499,64	-0,9566	
40,04	2,937	3675,7	499,81	-0,9684	
40,06	2,957	3682,2	499,86	-0,9802	
40,08	2,977	3689,7	499,74	-0,9920	
40,10	2,997	3694,8	499,64	-1,004	
40,12	3,017	3697,5	499,71	-1,016	
40,14	3,037	3702,6	499,77	-1,028	
40,16	3,057	3708,8	499,69	-1,040	
40,18	3,077	3713,4	499,60	-1,052	
40,20	3,097	3714,8	499,69	-1,064	
40,22	3,117	3717,1	499,85	-1,077	
40,24	3,137	3722,3	499,84	-1,089	
40,26	3,157	3728,5	499,69	-1,101	
40,28	3,177	3732,8	499,64	-1,113	
40,30	3,197	3736,0	499,71	-1,126	
40,32	3,217	3740,4	499,71	-1,138	
40,34	3,237	3744,8	499,63	-1,151	
40,36	3,257	3746,8	499,65	-1,163	
40,38	3,277	3747,8	499,76	-1,176	
40,40	3,297	3751,6	499,75	-1,188	
40,42	3,317	3758,1	499,63	-1,201	
40,44	3,337	3762,4	499,64	-1,213	
40,46	3,357	3763,9	499,80	-1,226	
40,48	3,377	3767,6	499,84	-1,239	
40,50	3,397	3773,6	499,70	-1,252	
40,52	3,417	3776,9	499,65	-1,265	
40,54	3,437	3778,2	499,74	-1,278	
40,56	3,457	3781,7	499,76	-1,291	
40,58	3,477	3786,8	499,66	-1,303	
40,60	3,497	3789,3	499,62	-1,316	
40,62	3,517	3789,1	499,73	-1,330	
40,64	3,537	3791,0	499,80	-1,343	
40,66	3,557	3795,9	499,71	-1,356	
40,68	3,577	3799,8	499,61	-1,369	
40,70	3,597	3800,4	499,69	-1,382	
40,72	3,617	3802,4	499,84	-1,396	
40,74	3,637	3806,6	499,81	-1,409	
40,76	3,657	3810,5	499,67	-1,422	
40,78	3,677	3812,4	499,64	-1,436	
40,80	3,697	3813,9	499,72	-1,449	
40,82	3,717	3817,0	499,71	-1,463	
40,84	3,737	3820,2	499,62	-1,476	
40,86	3,757	3820,4	499,65	-1,490	
40,88	3,777	3819,4	499,78	-1,504	
40,90	3,797	3822,3	499,80	-1,517	
40,92	3,817	3827,7	499,67	-1,531	
40,94	3,837	3830,8	499,62	-1,545	
40,96	3,857	3831,2	499,75	-1,559	
40,98	3,877	3833,0	499,84	-1,573	
41,00	3,897	3836,2	499,75	-1,587	
41,02	3,917	3838,1	499,63	-1,601	
41,04	3,937	3838,2	499,69	-1,615	
41,06	3,957	3839,8	499,75	-1,629	
41,08	3,977	3843,0	499,68	-1,643	
41,10	3,997	3844,5	499,61	-1,657	
41,12	4,017	3843,2	499,74	-1,672	
41,14	4,037	3843,8	499,86	-1,686	
41,16	4,057	3847,8	499,78	-1,700	
41,18	4,077	3850,7	499,65	-1,715	
41,20	4,097	3850,6	499,68	-1,729	
41,22	4,117	3851,4	499,77	-1,744	
41,24	4,137	3854,9	499,71	-1,758	
41,26	4,157	3857,5	499,62	-1,773	
41,28	4,177	3856,0	499,68	-1,787	
41,30	4,197	3855,0	499,80	-1,802	
41,32	4,217	3857,8	499,76	-1,817	
41,34	4,237	3860,6	499,64	-1,832	
41,36	4,257	3860,1	499,64	-1,846	
41,38	4,277	3859,3	499,77	-1,861	
41,40	4,297	3861,5	499,82	-1,876	
41,42	4,317	3864,1	499,71	-1,891	
41,44	4,337	3865,2	499,64	-1,906	
41,46	4,357	3864,9	499,70	-1,921	
41,48	4,377	3866,2	499,73	-1,936	
41,50	4,397	3869,1	499,64	-1,951	
41,52	4,417	3868,9	499,64	-1,967	
41,54	4,437	3865,7	499,79	-1,982	
41,56	4,457	3865,5	499,85	-1,997	
41,58	4,477	3868,8	499,73	-2,012	
41,60	4,497	3871,1	499,64	-2,028	
41,62	4,517	3870,2	499,70	-2,043	
41,64	4,537	3870,1	499,76	-2,059	
41,66	4,557	3872,5	499,68	-2,074	
41,68	4,577	3873,0	499,61	-2,090	
41,70	4,597	3870,4	499,71	-2,106	
41,72	4,617	3869,1	499,80	-2,121	
41,74	4,637	3871,8	499,73	-2,137	
41,76	4,657	3874,1	499,65	-2,153	
41,78	4,677	3871,8	499,73	-2,168	
41,80	4,697	3871,1	499,77	-2,184	
41,82	4,717	3873,4	499,67	-2,200	
41,84	4,737	3874,0	499,63	-2,216	
41,86	4,757	3871,2	499,74	-2,232	
41,88	4,777	3870,2	499,79	-2,248	
41,90	4,797	3872,6	499,69	-2,264	
41,92	4,817	3873,7	499,63	-2,280	
41,94	4,837	3871,7	499,73	-2,297	
41,96	4,857	3871,5	499,77	-2,313	
41,98	4,877	3873,8	499,67	-2,329	
42,00	4,897	3873,5	499,64	-2,346	
42,02	4,917	3870,1	499,77	-2,362	
42,04	4,937	3868,8	499,82	-2,379	
42,06	4,957	3870,3	499,71	-2,395	
42,08	4,977	3870,6	499,62	-2,412	
42,10	4,997	3868,3	499,70	-2,428	
42,12	5,017	3867,5	499,78	-2,445	
42,14	5,037	3868,6	499,71	-2,462	
42,16	5,057	3868,8	499,61	-2,478	
42,18	5,077	3866,7	499,68	-2,495	
42,20	5,097	3865,0	499,81	-2,512	
42,22	5,117	3865,7	499,79	-2,529	
42,24	5,137	3866,3	499,66	-2,546	
42,26	5,157	3864,2	499,68	-2,563	
42,28	5,177	3861,7	499,80	-2,580	
42,30	5,197	3862,3	499,76	-2,597	
42,32	5,217	3862,9	499,67	-2,614	
42,34	5,237	3859,6	499,79	-2,631	
42,36	5,257	3856,1	499,90	-2,648	
42,38	5,277	3856,5	499,80	-2,666	
42,40	5,297	3857,2	499,68	-2,683	
42,42	5,317	3853,6	499,77	-2,701	
42,44	5,337	3850,3	499,86	-2,718	
42,46	5,357	3850,5	499,75	-2,735	
42,48	5,377	3850,9	499,67	-2,753	
42,50	5,397	3846,6	499,82	-2,770	
42,52	5,417	3843,2	499,91	-2,788	
42,54	5,437	3843,3	499,80	-2,806	
42,56	5,457	3842,9	499,68	-2,823	
42,58	5,477	3839,1	499,71	-2,841	
42,60	5,497	3837,1	499,70	-2,859	
42,62	5,517	3837,3	499,64	-2,877	
42,64	5,537	3834,7	499,69	-2,895	
42,66	5,557	3830,7	499,78	-2,913	
42,68	5,577	3829,8	499,73	-2,931	
42,70	5,597	3830,2	499,62	-2,949	
42,72	5,617	3826,8	499,69	-2,967	
42,74	5,637	3822,7	499,86	-2,985	
42,76	5,657	3821,0	499,86	-3,003	
42,78	5,677	3820,6	499,70	-3,021	
42,80	5,697	3817,5	499,73	-3,039	
42,82	5,717	3813,1	499,89	-3,058	
42,84	5,737	3811,1	499,89	-3,076	
42,86	5,757	3810,2	499,74	-3,094	
42,88	5,777	3807,3	499,66	-3,113	
42,90	5,797	3802,6	499,76	-3,131	
42,92	5,817	3799,8	499,78	-3,150	
42,94	5,837	3798,4	499,68	-3,168	
42,96	5,857	3794,5	499,67	-3,187	
42,98	5,877	3788,6	499,72	-3,205	
43,00	5,897	3786,3	499,67	-3,224	
43,02	5,917	3784,6	499,63	-3,243	
43,04	5,937	3778,4	499,74	-3,261	
43,06	5,957	3772,1	499,84	-3,280	
43,08	5,977	3770,0	499,76	-3,299	
43,10	5,997	3768,5	499,66	-3,317	
43,12	6,017	3763,5	499,75	-3,336	
43,14	6,037	3758,8	499,85	-3,355	
43,16	6,057	3756,3	499,79	-3,374	
43,18	6,077	3753,6	499,67	-3,393	
43,20	6,097	3748,4	499,76	-3,412	
43,22	6,117	3743,0	499,85	-3,431	
43,24	6,137	3739,9	499,77	-3,450	
43,26	6,157	3736,8	499,67	-3,469	
43,28	6,177	3730,1	499,79	-3,488	
43,30	6,197	3723,9	499,90	-3,507	
43,32	6,217	3720,6	499,82	-3,526	
43,34	6,237	3717,9	499,70	-3,545	
43,36	6,257	3711,3	499,83	-3,564	
43,38	6,277	3704,5	499,96	-3,583	
43,40	6,297	3700,4	499,87	-3,603	
43,42	6,317	3696,9	499,69	-3,622	
43,44	6,337	3690,8	499,77	-3,641	
43,46	6,357	3683,6	499,94	-3,660	
43,48	6,377	3679,4	499,91	-3,680	
43,50	6,397	3675,5	499,72	-3,699	
43,52	6,417	3668,8	499,74	-3,718	
43,54	6,437	3660,2	499,97	-3,738	
43,56	6,457	3654,1	500,02	-3,757	
43,58	6,477	3648,8	499,85	-3,777	
43,60	6,497	3642,8	499,70	-3,796	
43,62	6,517	3634,7	499,70	-3,816	
43,64	6,537	3628,5	499,70	-3,835	
43,66	6,557	3624,3	499,62	-3,855	
43,68	6,577	3616,5	499,70	-3,874	
43,70	6,597	3605,9	499,85	-3,894	
43,72	6,617	3599,1	499,82	-3,914	
43,74	6,637	3594,9	499,68	-3,933	
43,76	6,657	3587,6	499,74	-3,953	
43,78	6,677	3578,5	499,89	-3,972	
43,80	6,697	3572,0	499,86	-3,992	
43,82	6,717	3565,9	499,71	-4,012	
43,84	6,737	3556,1	499,74	-4,031	
43,86	6,757	3545,1	499,85	-4,051	
43,88	6,777	3537,5	499,80	-4,071	
43,90	6,797	3530,8	499,70	-4,090	
43,92	6,817	3520,5	499,78	-4,110	
43,94	6,837	3510,4	499,85	-4,130	
43,96	6,857	3503,7	499,75	-4,150	
43,98	6,877	3496,4	499,67	-4,169	
44,00	6,897	3485,0	499,80	-4,189	
44,02	6,917	3474,7	499,88	-4,209	
44,04	6,937	3466,7	499,78	-4,229	
44,06	6,957	3458,3	499,66	-4,249	
44,08	6,977	3447,1	499,69	-4,269	
44,10	6,997	3436,6	499,75	-4,289	
44,12	7,017	3428,1	499,68	-4,309	
44,14	7,037	3418,7	499,62	-4,329	
44,16	7,057	3405,3	499,77	-4,349	
44,18	7,077	3392,7	499,89	-4,369	
44,20	7,097	3383,8	499,80	-4,389	
44,22	7,117	3375,2	499,67	-4,409	
44,24	7,137	3362,6	499,80	-4,429	
44,26	7,157	3349,8	499,94	-4,449	
44,28	7,177	3339,6	499,87	-4,469	
44,30	7,197	3329,3	499,71	-4,489	
44,32	7,217	3315,2	499,76	-4,509	
44,34	7,237	3300,4	499,86	-4,529	
44,36	7,257	3288,0	499,80	-4,550	
44,38	7,277	3276,2	499,69	-4,570	
44,40	7,297	3261,3	499,85	-4,590	
44,42	7,317	3245,8	500,04	-4,610	
44,44	7,337	3232,9	499,99	-4,631	
44,46	7,357	3219,8	499,80	-4,651	
44,48	7,377	3205,1	499,74	-4,671	
44,50	7,397	3188,2	499,90	-4,691	
44,52	7,417	3172,5	499,92	-4,712	
44,54	7,437	3157,5	499,76	-4,732	
44,56	7,457	3141,4	499,71	-4,753	
44,58	7,477	3121,7	499,87	-4,773	
44,60	7,497	3103,7	499,90	-4,794	
44,62	7,517	3087,9	499,74	-4,814	
44,64	7,537	3070,1	499,72	-4,835	
44,66	7,557	3047,8	499,96	-4,856	
44,68	7,577	3027,4	500,05	-4,877	
44,70	7,597	3008,4	499,91	-4,898	
44,72	7,617	2987,6	499,72	-4,918	
44,74	7,637	2963,8	499,72	-4,939	
44,76	7,657	2940,2	499,80	-4,960	
44,78	7,677	2917,2	499,74	-4,982	
44,80	7,697	2892,4	499,66	-5,003	
44,82	7,717	2863,4	499,83	-5,024	
44,84	7,737	2834,0	499,97	-5,046	
44,86	7,757	2806,5	499,88	-5,068	
44,88	7,777	2777,2	499,71	-5,089	
44,90	7,797	2743,2	499,75	-5,111	
44,92	7,817	2707,3	499,87	-5,134	
44,94	7,837	2670,9	499,84	-5,156	
44,96	7,857	2632,7	499,70	-5,178	
44,98	7,877	2589,6	499,73	-5,201	
45,00	7,897	2541,6	499,86	-5,225	
45,02	7,917	2492,0	499,85	-5,249	
45,04	7,937	2439,0	499,73	-5,273	
45,06	7,957	2378,6	499,72	-5,298	
45,08	7,977	2309,2	499,86	-5,326	
45,10	7,997	2230,1	499,91	-5,356	
45,12	8,017	2131,0	499,82	-5,388	
45,14	8,037	2008,4	499,69	-5,417	
45,16	8,057	1869,3	499,79	-5,444	
45,18	8,077	1723,5	499,99	-5,470	
45,20	8,097	1581,5	499,98	-5,495	
45,22	8,117	1455,4	499,82	-5,519	
45,24	8,137	1351,8	499,69	-5,543	
45,26	8,157	1263,5	499,75	-5,567	
45,28	8,177	1185,2	499,80	-5,590	
45,30	8,197	1115,7	499,71	-5,613	
45,32	8,217	1051,2	499,67	-5,636	
45,34	8,237	986,56	499,79	-5,660	
45,36	8,257	924,81	499,81	-5,683	
45,38	8,277	870,53	499,68	-5,704	
45,40	8,297	819,28	499,73	-5,727	
45,42	8,317	764,36	499,97	-5,751	
45,44	8,337	710,62	500,02	-5,773	
45,46	8,357	662,97	499,87	-5,794	
45,48	8,377	619,73	499,70	-5,815	
45,50	8,397	576,40	499,70	-5,836	
45,52	8,417	534,64	499,74	-5,853	
45,54	8,436	496,73	499,67	-5,864	
45,56	8,455	459,10	499,66	-5,870	
45,58	8,470	418,32	499,80	-5,874	
45,60	8,479	378,70	499,81	-5,877	
45,62	8,484	347,88	499,69	-5,878	
45,64	8,486	322,72	499,73	-5,879	
45,66	8,487	298,02	499,87	-5,880	
45,68	8,487	278,94	499,83	-5,881	
45,70	8,487	267,06	499,70	-5,882	
45,72	8,488	256,40	499,81	-5,882	
45,74	8,488	244,03	500,01	-5,883	
45,76	8,488	234,30	499,97	-5,884	
45,78	8,488	227,75	499,77	-5,884	
45,80	8,488	221,65	499,73	-5,884	
45,82	8,488	214,44	499,85	-5,884	
45,84	8,488	209,80	499,82	-5,885	
45,86	8,488	208,34	499,69	-5,885	
45,88	8,488	204,66	499,87	-5,885	
45,90	8,488	196,65	500,18	-5,886	
45,92	8,488	189,27	500,22	-5,887	
45,94	8,488	183,29	500,05	-5,887	
45,96	8,488	178,18	499,82	-5,887	
45,98	8,488	175,28	499,70	-5,887	
46,00	8,488	174,06	499,73	-5,887	
46,02	8,488	174,03	499,71	-5,887	
46,04	8,488	174,60	499,63	-5,887	
46,06	8,488	174,40	499,69	-5,887	
46,08	8,488	173,97	499,79	-5,888	
46,10	8,488	174,11	499,76	-5,888	
46,12	8,488	174,61	499,66	-5,888	
46,14	8,488	174,22	499,74	-5,888	
46,16	8,488	173,90	499,83	-5,888	
46,18	8,488	174,15	499,76	-5,889	
46,20	8,488	174,60	499,69	-5,889	
46,22	8,488	174,13	499,86	-5,889	
46,24	8,488	173,98	499,98	-5,889	
46,26	8,488	174,13	499,92	-5,889	
46,28	8,488	174,44	499,75	-5,889	
46,30	8,488	174,68	499,74	-5,889	
46,32	8,488	174,15	499,98	-5,890	
46,34	8,488	174,01	500,11	-5,890	
46,36	8,488	174,16	500,02	-5,890	
46,38	8,488	174,37	499,82	-5,890	
46,40	8,488	174,78	499,72	-5,890	
46,42	8,488	174,22	499,95	-5,891	
46,44	8,488	173,91	500,16	-5,891	
46,46	8,488	168,71	500,12	-5,891	
46,48	8,488	156,01	499,94	-5,891	
46,50	8,488	147,26	499,76	-5,891	
46,52	8,488	146,26	499,69	-5,891	
46,54	8,488	147,32	499,78	-5,891	
46,56	8,488	147,67	499,79	-5,891	
46,58	8,488	149,07	499,69	-5,891	
46,60	8,488	149,67	499,68	-5,891	
46,62	8,488	147,93	499,78	-5,891	
46,64	8,488	147,94	499,78	-5,891	
46,66	8,488	150,07	499,68	-5,891	
46,68	8,488	151,32	499,71	-5,891	
46,70	8,488	149,81	499,86	-5,892	
46,72	8,488	149,22	499,91	-5,892	
46,74	8,488	149,97	499,80	-5,892	
46,76	8,488	150,86	499,69	-5,892	
46,78	8,488	150,18	499,76	-5,892	
46,80	8,488	149,65	499,86	-5,892	
46,82	8,488	150,16	499,80	-5,892	
46,84	8,488	151,66	499,67	-5,892	
46,86	8,488	151,62	499,76	-5,892	
46,88	8,488	148,48	499,99	-5,893	
46,90	8,488	146,99	500,04	-5,893	
46,92	8,488	147,06	499,90	-5,893	
46,94	8,488	147,57	499,72	-5,893	
46,96	8,488	147,52	499,76	-5,893	
46,98	8,488	146,38	499,97	-5,893	
47,00	8,488	144,83	500,03	-5,894	
47,02	8,488	144,05	499,89	-5,894	
47,04	8,488	144,11	499,71	-5,893	
47,06	8,488	142,18	499,82	-5,894	
47,08	8,488	139,98	500,08	-5,894	
47,10	8,488	138,59	500,14	-5,894	
47,12	8,488	137,58	500,01	-5,894	
47,14	8,488	136,64	499,80	-5,894	
47,16	8,488	136,43	499,71	-5,894	
47,18	8,488	136,85	499,85	-5,894	
47,20	8,488	137,08	499,93	-5,894	
47,22	8,488	137,13	499,85	-5,894	
47,24	8,488	137,50	499,71	-5,894	
47,26	8,488	136,92	499,72	-5,894	
47,28	8,488	136,31	499,84	-5,895	
47,30	8,488	137,39	499,85	-5,895	
47,32	8,488	139,43	499,73	-5,895	
47,34	8,488	140,66	499,66	-5,895	
47,36	8,488	139,44	499,78	-5,895	
47,38	8,488	139,07	499,88	-5,895	
47,40	8,488	139,91	499,81	-5,895	
47,42	8,488	140,89	499,68	-5,895	
47,44	8,488	139,60	499,81	-5,895	
47,46	8,488	137,42	500,07	-5,896	
47,48	8,488	136,24	500,11	-5,896	
47,50	8,488	134,97	499,97	-5,896	
47,52	8,488	133,67	499,79	-5,896	
47,54	8,488	133,24	499,71	-5,896	
47,56	8,488	133,56	499,81	-5,896	
47,58	8,488	133,76	499,85	-5,896	
47,60	8,488	134,07	499,74	-5,896	
47,62	8,488	133,89	499,73	-5,896	
47,64	8,488	131,16	499,93	-5,897	
47,66	8,488	129,65	500,00	-5,897	
47,68	8,488	129,99	499,89	-5,897	
47,70	8,488	130,78	499,73	-5,897	
47,72	8,488	130,37	499,74	-5,897	
47,74	8,488	129,60	499,91	-5,897	
47,76	8,488	129,85	499,92	-5,897	
47,78	8,488	130,45	499,77	-5,897	
47,80	8,488	130,06	499,71	-5,897	
47,82	8,488	126,95	499,90	-5,897	
47,84	8,488	125,06	500,01	-5,897	
47,86	8,488	124,26	499,93	-5,897	
47,88	8,488	124,11	499,76	-5,897	
47,90	8,488	124,14	499,71	-5,897	
47,92	8,488	123,67	499,85	-5,897	
47,94	8,488	123,52	499,90	-5,898	
47,96	8,488	123,90	499,78	-5,898	
47,98	8,488	125,33	499,69	-5,898	
48,00	8,488	123,39	499,88	-5,898	
48,02	8,488	121,76	500,04	-5,898	
48,04	8,488	121,34	499,96	-5,898	
48,06	8,488	121,00	499,77	-5,898	
48,08	8,488	120,68	499,73	-5,898	
48,10	8,488	118,82	499,96	-5,898	
48,12	8,488	117,22	500,08	-5,899	
48,14	8,488	116,62	499,96	-5,899	
48,16	8,488	115,76	499,77	-5,899	
48,18	8,488	113,99	499,70	-5,898	
48,20	8,488	112,91	499,75	-5,895	
48,22	8,488	114,51	499,73	-5,892	
48,24	8,488	116,54	499,65	-5,890	
48,26	8,488	114,92	499,74	-5,890	
48,28	8,488	112,04	499,84	-5,890	
48,30	8,488	113,15	499,78	-5,891	
48,32	8,488	116,01	499,68	-5,891	
48,34	8,488	114,38	499,86	-5,891	
48,36	8,488	111,64	500,05	-5,891	
48,38	8,488	111,90	500,01	-5,891	
48,40	8,488	111,94	499,82	-5,891	
48,42	8,488	111,01	499,75	-5,893	
48,44	8,488	109,42	499,93	-5,897	
48,46	8,488	109,36	499,99	-5,899	
48,48	8,488	109,94	499,88	-5,900	
48,50	8,488	110,49	499,71	-5,900	
48,52	8,488	109,97	499,69	-5,900	
48,54	8,488	109,20	499,79	-5,900	
48,56	8,488	109,52	499,79	-5,900	
48,58	8,488	110,93	499,69	-5,900	
48,60	8,488	111,99	499,69	-5,900	
48,62	8,488	109,84	499,88	-5,901	
48,64	8,488	108,83	499,94	-5,901	
48,66	8,488	109,64	499,80	-5,901	
48,68	8,488	110,37	499,70	-5,901	
48,70	8,488	107,06	499,87	-5,901	
48,72	8,488	104,23	500,01	-5,901	
48,74	8,488	103,87	499,94	-5,901	
48,76	8,488	104,09	499,75	-5,901	
48,78	8,488	103,09	499,79	-5,901	
48,80	8,488	100,30	500,09	-5,902	
48,82	8,488	98,72	500,21	-5,902	
48,84	8,488	97,42	500,09	-5,902	
48,86	8,488	95,51	499,88	-5,902	
48,88	8,488	94,23	499,67	-5,902	
48,90	8,488	96,25	499,46	-5,901	
48,92	8,488	100,38	499,25	-5,901	
48,94	8,488	104,41	499,04	-5,901	
48,96	8,488	107,91	498,85	-5,901	
48,98	8,488	111,72	498,65	-5,901	
49,00	8,488	115,82	498,45	-5,901	
49,02	8,488	119,68	498,25	-5,901	
49,04	8,488	123,78	498,05	-5,901	
49,06	8,488	127,68	497,83	-5,901	
49,08	8,488	131,22	497,60	-5,901	
49,10	8,488	135,10	497,37	-5,901	
49,12	8,488	139,22	497,18	-5,901	
49,14	8,488	142,99	497,01	-5,901	
49,16	8,488	146,03	496,82	-5,901	
49,18	8,488	148,66	496,61	-5,901	
49,20	8,488	151,53	496,41	-5,901	
49,22	8,488	154,61	496,21	-5,901	
49,24	8,488	157,25	496,01	-5,900	
49,26	8,488	160,04	495,81	-5,900	
49,28	8,488	162,69	495,62	-5,900	
49,30	8,488	165,08	495,43	-5,900	
49,32	8,488	167,27	495,23	-5,900	
49,34	8,488	169,97	495,01	-5,901	
49,36	8,488	172,65	494,80	-5,900	
49,38	8,488	175,05	494,59	-5,900	
49,40	8,488	177,27	494,37	-5,900	
49,42	8,488	179,51	494,15	-5,900	
49,44	8,488	181,82	493,93	-5,900	
49,46	8,488	184,12	493,71	-5,900	
49,48	8,488	186,39	493,49	-5,900	
49,50	8,488	188,65	493,25	-5,900	
49,52	8,488	190,38	492,98	-5,900	
49,54	8,488	192,12	492,72	-5,900	
49,56	8,488	193,65	492,46	-5,900	
49,58	8,488	195,40	492,20	-5,901	
49,60	8,488	196,98	491,95	-5,901	
49,62	8,488	198,74	491,68	-5,901	
49,64	8,488	200,33	491,41	-5,901	
49,66	8,488	202,09	491,14	-5,901	
49,68	8,488	203,64	490,87	-5,901	
49,70	8,488	205,42	490,59	-5,901	
49,72	8,488	207,03	490,30	-5,901	
49,74	8,488	208,80	490,02	-5,901	
49,76	8,488	210,27	489,74	-5,901	
49,78	8,488	211,49	489,46	-5,901	
49,80	8,488	213,07	489,17	-5,901	
49,82	8,488	214,02	488,90	-5,901	
49,84	8,488	214,82	488,63	-5,901	
49,86	8,488	216,30	488,36	-5,901	
49,88	8,488	217,47	488,08	-5,901	
49,90	8,488	218,99	487,77	-5,901	
49,92	8,488	220,37	487,46	-5,901	
49,94	8,488	220,91	487,15	-5,901	
49,96	8,488	221,60	486,85	-5,901	
49,98	8,488	223,08	486,54	-5,901	
50,00	8,488	224,25	486,24	-5,901	
50,02	8,488	225,80	485,96	-5,901	
50,04	8,488	227,31	485,69	-5,901	
50,06	8,488	229,08	485,40	-5,901	
50,08	8,488	230,57	485,08	-5,901	
50,10	8,488	231,14	484,77	-5,901	
50,12	8,488	231,76	484,46	-5,901	
50,14	8,488	233,21	484,14	-5,902	
50,16	8,488	234,17	483,81	-5,902	
50,18	8,488	235,04	483,49	-5,902	
50,20	8,488	236,59	483,17	-5,902	
50,22	8,488	237,57	482,85	-5,902	
50,24	8,488	237,81	482,53	-5,902	
50,26	8,488	238,41	482,21	-5,902	
50,28	8,488	239,96	481,87	-5,902	
50,30	8,488	240,98	481,51	-5,902	
50,32	8,488	241,30	481,15	-5,902	
50,34	8,488	241,27	480,80	-5,902	
50,36	8,488	241,84	480,47	-5,902	
50,38	8,488	243,31	480,15	-5,903	
50,40	8,488	244,31	479,85	-5,903	
50,42	8,488	244,61	479,53	-5,903	
50,44	8,488	244,60	479,22	-5,903	
50,46	8,488	244,56	478,90	-5,903	
50,48	8,488	244,70	478,57	-5,903	
50,50	8,488	245,89	478,25	-5,903	
50,52	8,488	247,25	477,93	-5,903	
50,54	8,488	247,88	477,61	-5,903	
50,56	8,488	248,00	477,30	-5,903	
50,58	8,488	247,90	476,99	-5,904	
50,60	8,488	247,85	476,68	-5,904	
50,62	8,488	248,46	476,35	-5,904	
50,64	8,488	249,99	476,02	-5,904	
50,66	8,488	251,00	475,69	-5,904	
50,68	8,488	251,23	475,37	-5,904	
50,70	8,488	251,22	475,05	-5,904	
50,72	8,488	251,20	474,72	-5,904	
50,74	8,488	251,32	474,39	-5,904	
50,76	8,488	252,55	474,06	-5,904	
50,78	8,488	253,97	473,74	-5,904	
50,80	8,488	254,62	473,43	-5,905	
50,82	8,488	254,69	473,12	-5,905	
50,84	8,488	254,65	472,80	-5,905	
50,86	8,488	254,65	472,48	-5,905	
50,88	8,488	254,67	472,16	-5,905	
50,90	8,488	255,22	471,86	-5,905	
50,92	8,488	256,71	471,55	-5,905	
50,94	8,488	257,73	471,23	-5,905	
50,96	8,488	258,01	470,91	-5,905	
50,98	8,488	258,01	470,59	-5,905	
51,00	8,488	257,98	470,27	-5,905	
51,02	8,488	257,97	469,95	-5,906	
51,04	8,488	258,05	469,64	-5,906	
51,06	8,488	258,20	469,32	-5,906	
51,08	8,488	259,26	469,01	-5,906	
51,10	8,488	260,60	468,69	-5,906	
51,12	8,488	261,29	468,36	-5,906	
51,14	8,488	261,42	468,01	-5,906	
51,16	8,488	261,39	467,67	-5,906	
51,18	8,488	261,38	467,33	-5,906	
51,20	8,488	261,34	466,98	-5,907	
51,22	8,488	261,52	466,61	-5,907	
51,24	8,488	262,79	466,23	-5,907	
51,26	8,488	264,19	465,85	-5,907	
51,28	8,488	264,80	465,51	-5,907	
51,30	8,488	264,89	465,18	-5,907	
51,32	8,488	264,85	464,86	-5,907	
51,34	8,488	264,78	464,54	-5,907	
51,36	8,488	264,76	464,20	-5,907	
51,38	8,488	264,78	463,87	-5,907	
51,40	8,488	264,87	463,54	-5,907	
51,42	8,488	264,88	463,22	-5,908	
51,44	8,488	264,81	462,90	-5,908	
51,46	8,488	264,80	462,59	-5,908	
51,48	8,488	265,33	462,28	-5,908	
51,50	8,488	266,82	461,95	-5,908	
51,52	8,488	267,88	461,63	-5,908	
51,54	8,488	268,19	461,32	-5,908	
51,56	8,488	268,17	461,00	-5,908	
51,58	8,488	268,11	460,68	-5,908	
51,60	8,488	268,08	460,35	-5,909	
51,62	8,488	268,10	460,00	-5,909	
51,64	8,488	268,15	459,63	-5,909	
51,66	8,488	268,11	459,29	-5,909	
51,68	8,488	268,70	458,97	-5,909	
51,70	8,488	270,26	458,66	-5,909	
51,72	8,488	271,28	458,37	-5,909	
51,74	8,488	271,51	458,07	-5,909	
51,76	8,488	271,43	457,78	-5,909	
51,78	8,488	271,39	457,46	-5,909	
51,80	8,488	271,42	457,13	-5,910	
51,82	8,488	271,42	456,81	-5,910	
51,84	8,488	271,40	456,49	-5,910	
51,86	8,488	271,46	456,17	-5,910	
51,88	8,488	271,49	455,85	-5,910	
51,90	8,488	271,47	455,54	-5,910	
51,92	8,488	271,44	455,22	-5,910	
51,94	8,488	271,38	454,89	-5,910	
51,96	8,488	271,91	454,58	-5,910	
51,98	8,488	273,42	454,26	-5,911	
52,00	8,488	274,50	453,94	-5,911	
52,02	8,488	274,78	453,61	-5,911	
52,04	8,488	274,76	453,29	-5,911	
52,06	8,488	274,76	452,99	-5,911	
52,08	8,488	274,81	452,68	-5,911	
52,10	8,488	274,90	452,36	-5,911	
52,12	8,488	274,90	452,02	-5,911	
52,14	8,488	274,86	451,70	-5,911	
52,16	8,488	274,87	451,39	-5,911	
52,18	8,488	274,85	451,08	-5,912	
52,20	8,488	274,79	450,77	-5,912	
52,22	8,488	274,78	450,46	-5,912	
52,24	8,488	274,90	450,16	-5,912	
52,26	8,488	276,03	449,84	-5,912	
52,28	8,488	277,44	449,54	-5,912	
52,30	8,488	278,11	449,25	-5,912	
52,32	8,488	278,22	448,95	-5,912	
52,34	8,488	278,14	448,65	-5,913	
52,36	8,488	278,10	448,35	-5,913	
52,38	8,488	278,14	448,04	-5,913	
52,40	8,488	278,22	447,73	-5,913	
52,42	8,488	278,21	447,41	-5,913	
52,44	8,488	278,20	447,08	-5,913	
52,46	8,488	278,30	446,76	-5,913	
52,48	8,488	278,31	446,45	-5,913	
52,50	8,488	278,27	446,16	-5,913	
52,52	8,488	278,28	445,86	-5,913	
52,54	8,488	278,27	445,57	-5,914	
52,56	8,488	278,26	445,28	-5,914	
52,58	8,488	278,27	444,99	-5,914	
52,60	8,488	278,88	444,70	-5,914	
52,62	8,488	280,40	444,40	-5,914	
52,64	8,488	281,43	444,10	-5,914	
52,66	8,488	281,75	443,81	-5,914	
52,68	8,488	281,79	443,53	-5,914	
52,70	8,488	281,73	443,24	-5,914	
52,72	8,488	281,61	442,93	-5,914	
52,74	8,488	281,56	442,61	-5,914	
52,76	8,488	281,59	442,27	-5,915	
52,78	8,488	281,61	441,97	-5,915	
52,80	8,488	281,62	441,66	-5,915	
52,82	8,488	281,65	441,33	-5,915	
52,84	8,488	281,65	441,01	-5,915	
52,86	8,488	281,58	440,68	-5,915	
52,88	8,488	281,54	440,37	-5,915	
52,90	8,488	281,59	440,07	-5,915	
52,92	8,488	281,66	439,78	-5,916	
52,94	8,488	281,68	439,50	-5,916	
52,96	8,488	281,66	439,22	-5,916	
52,98	8,488	281,65	438,94	-5,916	
53,00	8,488	281,68	438,64	-5,916	
53,02	8,488	281,69	438,34	-5,916	
53,04	8,488	281,68	438,03	-5,916	
53,06	8,488	281,67	437,73	-5,917	
53,08	8,488	281,65	437,44	-5,917	
53,10	8,488	282,21	437,15	-5,917	
53,12	8,488	283,61	436,86	-5,917	
53,14	8,488	283,47	436,56	-5,917	
53,16	8,488	282,32	436,26	-5,918	
53,18	8,488	281,69	435,99	-5,918	
53,20	8,488	281,63	435,72	-5,918	
53,22	8,488	281,80	435,43	-5,918	
53,24	8,488	282,97	435,15	-5,919	
53,26	8,488	284,41	434,86	-5,919	
53,28	8,488	285,05	434,56	-5,919	
53,30	8,488	285,11	434,26	-5,919	
53,32	8,488	285,09	433,98	-5,919	
53,34	8,488	285,08	433,71	-5,919	
53,36	8,488	285,05	433,42	-5,920	
53,38	8,488	285,02	433,12	-5,920	
53,40	8,488	284,99	432,79	-5,920	
53,42	8,488	284,99	432,47	-5,920	
53,44	8,488	285,01	432,14	-5,920	
53,46	8,488	285,00	431,82	-5,919	
53,48	8,488	284,99	431,52	-5,919	
53,50	8,488	285,04	431,21	-5,919	
53,52	8,488	285,04	430,91	-5,919	
53,54	8,488	285,07	430,61	-5,918	
53,56	8,488	285,11	430,31	-5,918	
53,58	8,488	285,14	430,03	-5,918	
53,60	8,488	285,10	429,75	-5,918	
53,62	8,488	285,03	429,49	-5,919	
53,64	8,488	284,97	429,22	-5,920	
53,66	8,488	284,96	428,94	-5,921	
53,68	8,488	284,97	428,67	-5,923	
53,70	8,488	284,97	428,39	-5,924	
53,72	8,488	284,92	428,10	-5,925	
53,74	8,488	284,88	427,79	-5,926	
53,76	8,488	284,88	427,48	-5,927	
53,78	8,488	284,89	427,18	-5,927	
53,80	8,488	284,85	426,88	-5,927	
53,82	8,488	284,82	426,59	-5,927	
53,84	8,488	284,85	426,31	-5,927	
53,86	8,488	284,88	426,05	-5,926	
53,88	8,488	284,89	425,77	-5,925	
53,90	8,488	284,97	425,49	-5,924	
53,92	8,488	285,02	425,21	-5,923	
53,94	8,488	285,10	424,91	-5,923	
53,96	8,488	286,27	424,61	-5,923	
53,98	8,488	287,71	424,33	-5,923	
54,00	8,488	288,32	424,05	-5,925	
54,02	8,488	288,43	423,77	-5,925	
54,04	8,488	288,38	423,49	-5,926	
54,06	8,488	288,37	423,23	-5,927	
54,08	8,488	288,40	422,96	-5,928	
54,10	8,488	288,37	422,70	-5,928	
54,12	8,488	288,33	422,43	-5,929	
54,14	8,488	288,39	422,16	-5,929	
54,16	8,488	288,45	421,89	-5,930	
54,18	8,488	288,40	421,62	-5,930	
54,20	8,488	288,36	421,36	-5,929	
54,22	8,488	288,34	421,08	-5,927	
54,24	8,488	288,36	420,81	-5,925	
54,26	8,488	288,38	420,56	-5,925	
54,28	8,488	288,41	420,29	-5,925	
54,30	8,488	288,43	420,01	-5,926	
54,32	8,488	288,46	419,76	-5,927	
54,34	8,488	288,41	419,50	-5,929	
54,36	8,488	288,41	419,23	-5,929	
54,38	8,488	288,39	418,96	-5,929	
54,40	8,488	288,35	418,69	-5,929	
54,42	8,488	288,35	418,42	-5,929	
54,44	8,488	288,37	418,15	-5,929	
54,46	8,488	288,39	417,87	-5,928	
54,48	8,488	287,85	417,59	-5,927	
54,50	8,488	286,49	417,31	-5,927	
54,52	8,488	286,61	417,04	-5,927	
54,54	8,488	287,64	416,77	-5,925	
54,56	8,488	288,17	416,51	-5,925	
54,58	8,488	288,31	416,26	-5,925	
54,60	8,488	288,30	416,01	-5,925	
54,62	8,488	288,25	415,73	-5,927	
54,64	8,488	288,24	415,46	-5,928	
54,66	8,488	288,23	415,20	-5,930	
54,68	8,488	288,23	414,94	-5,931	
54,70	8,488	288,25	414,70	-5,931	
54,72	8,488	288,25	414,45	-5,931	
54,74	8,488	288,22	414,21	-5,930	
54,76	8,488	288,18	413,96	-5,930	
54,78	8,488	288,18	413,71	-5,930	
54,80	8,488	288,26	413,47	-5,930	
54,82	8,488	288,27	413,23	-5,929	
54,84	8,488	288,24	412,99	-5,924	
54,86	8,488	288,25	412,74	-5,891	
54,88	8,488	288,25	412,48	-5,836	
54,90	8,488	288,24	412,22	-5,783	
54,92	8,488	288,29	411,97	-5,681	
54,94	8,488	288,30	411,72	-5,522	
54,96	8,488	288,23	411,46	-5,326	
54,98	8,488	288,19	411,21	-5,105	
55,00	8,488	288,18	410,96	-4,889	
55,02	8,488	288,15	410,72	-4,644	
55,04	8,488	288,12	410,48	-4,425	
55,06	8,488	288,17	410,22	-4,218	
55,08	8,488	288,23	409,96	-4,027	
55,10	8,488	288,20	409,70	-3,869	
55,12	8,488	288,13	409,45	-3,701	
55,14	8,488	288,13	409,19	-3,536	
55,16	8,488	288,16	408,91	-3,371	
55,18	8,488	288,18	408,65	-3,229	
55,20	8,488	288,14	408,40	-3,038	
55,22	8,488	288,14	408,15	-2,801	
55,24	8,488	288,18	407,90	-2,547	
55,26	8,488	288,16	407,65	-2,296	
55,28	8,488	288,14	407,39	-2,069	
55,30	8,488	288,13	407,15	-1,861	
55,32	8,488	288,14	406,91	-1,716	
55,34	8,488	288,21	406,66	-1,597	
55,36	8,488	288,22	406,41	-1,495	
55,38	8,488	288,23	406,16	-1,431	
55,40	8,488	288,24	405,91	-1,366	
55,42	8,488	288,19	405,64	-1,310	
55,44	8,488	288,12	405,40	-1,276	
55,46	8,488	288,02	405,17	-1,240	
55,48	8,488	288,06	404,95	-1,212	
55,50	8,488	288,13	404,72	-1,193	
55,52	8,488	288,13	404,47	-1,174	
55,54	8,488	288,13	404,22	-1,157	
55,56	8,488	288,15	403,99	-1,132	
55,58	8,488	288,06	403,76	-1,106	
55,60	8,488	288,00	403,52	-1,093	
55,62	8,488	288,04	403,27	-1,079	
55,64	8,488	288,07	403,00	-1,050	
55,66	8,488	288,04	402,73	-0,9962	
55,68	8,488	288,00	402,47	-0,9105	
55,70	8,488	287,98	402,21	-0,8345	
55,72	8,488	288,05	401,95	-0,7529	
55,74	8,488	288,13	401,70	-0,6728	
55,76	8,488	288,12	401,45	-0,5906	
55,78	8,488	288,11	401,19	-0,4695	
55,80	8,488	288,11	400,94	-0,3545	
55,82	8,488	288,09	400,69	-0,2068	
55,84	8,488	288,08	400,41	-0,07544	
55,86	8,488	288,13	400,15	-0,02046	
55,88	8,488	288,19	399,89	-0,01224	
55,90	8,488	288,18	399,64	-0,01417	
55,92	8,488	288,07	399,36	-0,01498	
55,94	8,488	288,05	399,08	-0,01480	
55,96	8,488	288,13	398,81	-0,01463	
55,98	8,488	288,15	398,55	-0,01455	
56,00	8,488	288,13	398,25	-0,01448	
56,02	8,488	288,17	397,93	-0,01444	
56,04	8,488	288,18	397,63	-0,01451	
56,06	8,488	288,02	397,35	-0,01459	
56,08	8,488	286,85	397,08	-0,01464	
56,10	8,488	285,46	396,83	-0,01466	
56,12	8,488	284,92	396,56	-0,01461	
56,14	8,488	285,86	396,28	-0,01450	
56,16	8,488	286,30	396,03	-0,01441	
56,18	8,488	286,70	395,80	-0,01439	
56,20	8,488	287,12	395,59	-0,01447	
56,22	8,488	286,19	395,36	-0,01468	
56,24	8,488	285,28	395,13	-0,01480	
56,26	8,488	284,98	394,89	-0,01480	
56,28	8,488	284,92	394,63	-0,01469	
56,30	8,488	284,89	394,38	-0,01450	
56,32	8,488	284,86	394,13	-0,01433	
56,34	8,488	284,86	393,89	-0,01426	
56,36	8,488	284,89	393,65	-0,01433	
56,38	8,488	284,99	393,40	-0,01452	
56,40	8,488	285,01	393,15	-0,01462	
56,42	8,488	285,00	392,92	-0,01465	
56,44	8,488	284,94	392,67	-0,01460	
56,46	8,488	284,93	392,42	-0,01446	
56,48	8,488	284,94	392,17	-0,01433	
56,50	8,488	284,87	391,94	-0,01436	
56,52	8,488	284,85	391,71	-0,01440	
56,54	8,488	284,86	391,47	-0,01441	
56,56	8,488	284,88	391,25	-0,01451	
56,58	8,488	284,90	391,04	-0,01456	
56,60	8,488	284,86	390,81	-0,01448	
56,62	8,488	284,88	390,57	-0,01438	
56,64	8,488	284,89	390,34	-0,01427	
56,66	8,488	284,93	390,11	-0,01423	
56,68	8,488	284,98	389,89	-0,01432	
56,70	8,488	284,98	389,70	-0,01447	
56,72	8,488	284,94	389,48	-0,01453	
56,74	8,488	284,98	389,26	-0,01445	
56,76	8,488	284,95	389,04	-0,01440	
56,78	8,488	283,81	388,81	-0,01438	
56,80	8,488	282,34	388,57	-0,01431	
56,82	8,488	281,69	388,34	-0,01424	
56,84	8,488	281,53	388,12	-0,01434	
56,86	8,488	281,51	387,91	-0,01448	
56,88	8,488	281,51	387,69	-0,01452	
56,90	8,488	281,48	387,46	-0,01445	
56,92	8,488	281,47	387,24	-0,01431	
56,94	8,488	281,55	387,02	-0,01419	
56,96	8,488	281,60	386,78	-0,01412	
56,98	8,488	281,62	386,55	-0,01411	
57,00	8,488	281,64	386,34	-0,01421	
57,02	8,488	281,61	386,13	-0,01432	
57,04	8,488	281,61	385,93	-0,01439	
57,06	8,488	281,60	385,71	-0,01438	
57,08	8,488	281,55	385,47	-0,01421	
57,10	8,488	281,51	385,24	-0,01411	
57,12	8,488	281,54	385,02	-0,01415	
57,14	8,488	281,53	384,82	-0,01419	
57,16	8,488	281,49	384,61	-0,01428	
57,18	8,488	281,53	384,40	-0,01437	
57,20	8,488	281,58	384,18	-0,01437	
57,22	8,488	281,63	383,98	-0,01433	
57,24	8,488	281,66	383,79	-0,01419	
57,26	8,488	281,61	383,58	-0,01406	
57,28	8,488	281,53	383,37	-0,01405	
57,30	8,488	281,53	383,17	-0,01415	
57,32	8,488	281,48	382,97	-0,01433	
57,34	8,488	281,42	382,78	-0,01440	
57,36	8,488	281,46	382,56	-0,01432	
57,38	8,488	281,47	382,34	-0,01416	
57,40	8,488	281,47	382,13	-0,01402	
57,42	8,488	281,51	381,92	-0,01394	
57,44	8,488	281,49	381,68	-0,01392	
57,46	8,488	281,54	381,45	-0,01393	
57,48	8,488	281,59	381,23	-0,01398	
57,50	8,488	281,55	381,00	-0,01405	
57,52	8,488	281,56	380,77	-0,01414	
57,54	8,488	281,06	380,55	-0,01409	
57,56	8,488	279,54	380,34	-0,01395	
57,58	8,488	278,39	380,13	-0,01383	
57,60	8,488	278,06	379,90	-0,01385	
57,62	8,488	278,13	379,66	-0,01393	
57,64	8,488	278,16	379,44	-0,01405	
57,66	8,488	278,17	379,22	-0,01414	
57,68	8,488	278,21	378,98	-0,01411	
57,70	8,488	278,21	378,76	-0,01402	
57,72	8,488	278,22	378,53	-0,01395	
57,74	8,488	278,25	378,29	-0,01382	
57,76	8,488	278,25	378,05	-0,01382	
57,78	8,488	278,19	377,83	-0,01394	
57,80	8,488	278,21	377,63	-0,01398	
57,82	8,488	278,30	377,45	-0,01398	
57,84	8,488	278,27	377,24	-0,01399	
57,86	8,488	278,18	377,01	-0,01393	
57,88	8,488	278,15	376,78	-0,01351	
57,90	8,488	278,16	376,58	-0,01142	
57,92	8,488	278,20	376,36	-0,00870	
57,94	8,488	278,24	376,14	-0,00617	
57,96	8,488	278,25	375,92	-0,00450	
57,98	8,488	278,31	375,70	-0,00346	
58,00	8,488	278,31	375,46	-0,00272	
58,02	8,488	278,24	375,23	-0,00215	
58,04	8,488	278,19	375,01	-0,00169	
58,06	8,488	278,18	374,75	-0,00120	
58,08	8,488	278,20	374,51	-0,00049	
58,10	8,488	278,21	374,29	0,00024	
58,12	8,488	278,11	374,08	0,00075	
58,14	8,488	276,95	373,86	0,00115	
58,16	8,488	275,51	373,64	0,00173	
58,18	8,488	274,89	373,45	0,00225	
58,20	8,488	274,82	373,26	0,00248	
58,22	8,488	274,88	373,05	0,00235	
58,24	8,488	274,85	372,84	0,00199	
58,26	8,488	274,78	372,63	0,00160	
58,28	8,488	274,76	372,42	0,00137	
58,30	8,488	274,81	372,20	0,00135	
58,32	8,488	274,87	372,00	0,00141	
58,34	8,488	274,84	371,83	0,00152	
58,36	8,488	274,77	371,64	0,00167	
58,38	8,488	274,77	371,45	0,00177	
58,40	8,488	274,80	371,26	0,00195	
58,42	8,488	274,82	371,04	0,00213	
58,44	8,488	274,83	370,84	0,00219	
58,46	8,488	274,83	370,63	0,00225	
58,48	8,488	274,87	370,44	0,00238	
58,50	8,488	274,81	370,23	0,00271	
58,52	8,488	274,74	370,05	0,00322	
58,54	8,488	274,73	369,87	0,00376	
58,56	8,488	274,75	369,68	0,00416	
58,58	8,488	274,34	369,46	0,00454	
58,60	8,488	273,44	369,24	0,00499	
58,62	8,488	272,28	369,06	0,00552	
58,64	8,488	271,52	368,87	0,00613	
58,66	8,488	271,33	368,67	0,00677	
58,68	8,488	271,39	368,47	0,00726	