Zeit  1 - Standardmessrate [s]	ZwickWeg [mm]	ZwickKraft [N]	Pyrometer [°C]	Maytec [mm]
0	-0,9443	149,86	150,09	0,04887	
0,02000	-0,9443	149,87	150,09	0,04869	
0,04000	-0,9443	149,83	150,09	0,04861	
0,06000	-0,9443	149,77	150,09	0,04856	
0,08000	-0,9443	149,79	150,09	0,04862	
0,1000	-0,9443	149,81	150,09	0,04876	
0,1200	-0,9443	149,81	150,09	0,04883	
0,1400	-0,9443	149,88	150,09	0,04880	
0,1600	-0,9443	149,94	150,09	0,04879	
0,1800	-0,9443	149,89	150,09	0,04868	
0,2000	-0,9443	149,87	150,09	0,04856	
0,2200	-0,9443	149,81	150,09	0,04856	
0,2400	-0,9443	149,79	150,09	0,04868	
0,2600	-0,9443	149,81	150,09	0,04881	
0,2800	-0,9443	149,82	150,09	0,04887	
0,3000	-0,9443	149,88	150,09	0,04884	
0,3200	-0,9443	149,95	150,09	0,04875	
0,3400	-0,9443	149,95	150,09	0,04862	
0,3600	-0,9443	149,96	150,09	0,04857	
0,3800	-0,9443	149,95	150,09	0,04870	
0,4000	-0,9443	149,91	150,09	0,04884	
0,4200	-0,9443	149,87	150,09	0,04886	
0,4400	-0,9443	149,84	150,09	0,04882	
0,4600	-0,9443	149,83	150,09	0,04878	
0,4800	-0,9443	149,85	150,09	0,04867	
0,5000	-0,9443	149,91	150,09	0,04856	
0,5200	-0,9443	149,88	150,09	0,04856	
0,5400	-0,9443	149,81	150,09	0,04862	
0,5600	-0,9443	149,83	150,09	0,04869	
0,5800	-0,9443	149,87	150,09	0,04871	
0,6000	-0,9443	149,88	150,09	0,04876	
0,6200	-0,9443	149,94	150,09	0,04871	
0,6400	-0,9443	150,00	150,09	0,04861	
0,6600	-0,9443	149,98	150,09	0,04860	
0,6800	-0,9443	149,94	150,09	0,04867	
0,7000	-0,9443	149,90	150,09	0,04873	
0,7200	-0,9443	149,80	150,09	0,04878	
0,7400	-0,9443	149,76	150,09	0,04883	
0,7600	-0,9443	149,78	150,09	0,04886	
0,7800	-0,9443	149,79	150,09	0,04876	
0,8000	-0,9443	149,82	150,09	0,04864	
0,8200	-0,9443	149,85	150,09	0,04858	
0,8400	-0,9443	149,78	150,09	0,04865	
0,8600	-0,9443	149,79	150,09	0,04883	
0,8800	-0,9443	149,81	150,09	0,04895	
0,9000	-0,9443	149,80	150,09	0,04888	
0,9200	-0,9443	149,88	150,09	0,04875	
0,9400	-0,9443	149,90	150,09	0,04867	
0,9600	-0,9443	149,83	150,09	0,04859	
0,9800	-0,9443	149,78	150,09	0,04856	
1,000	-0,9443	149,83	150,09	0,04867	
1,020	-0,9443	149,87	150,09	0,04881	
1,040	-0,9443	149,89	150,09	0,04888	
1,060	-0,9443	149,85	150,09	0,04883	
1,080	-0,9443	149,86	150,09	0,04870	
1,100	-0,9443	149,87	150,09	0,04857	
1,120	-0,9443	149,88	150,09	0,04853	
1,140	-0,9443	149,85	150,09	0,04852	
1,160	-0,9443	149,83	150,09	0,04866	
1,180	-0,9443	149,83	150,09	0,04880	
1,200	-0,9443	149,77	150,09	0,04882	
1,220	-0,9443	149,82	150,09	0,04874	
1,240	-0,9443	149,90	150,09	0,04867	
1,260	-0,9443	149,90	150,09	0,04866	
1,280	-0,9443	149,90	150,09	0,04868	
1,300	-0,9443	149,91	150,09	0,04872	
1,320	-0,9443	149,93	150,09	0,04880	
1,340	-0,9443	149,89	150,09	0,04889	
1,360	-0,9443	149,85	150,09	0,04893	
1,380	-0,9443	149,90	150,09	0,04884	
1,400	-0,9443	149,95	150,09	0,04864	
1,420	-0,9443	149,97	150,09	0,04849	
1,440	-0,9443	149,84	150,09	0,04848	
1,460	-0,9443	149,78	150,09	0,04856	
1,480	-0,9443	149,84	150,09	0,04871	
1,500	-0,9443	149,84	150,09	0,04878	
1,520	-0,9443	149,85	150,09	0,04874	
1,540	-0,9443	149,87	150,09	0,04868	
1,560	-0,9443	149,89	150,09	0,04863	
1,580	-0,9443	149,92	150,09	0,04862	
1,600	-0,9443	149,90	150,09	0,04870	
1,620	-0,9443	149,91	150,09	0,04875	
1,640	-0,9443	149,97	150,09	0,04879	
1,660	-0,9443	149,97	150,09	0,04885	
1,680	-0,9443	149,92	150,09	0,04878	
1,700	-0,9443	149,94	150,09	0,04866	
1,720	-0,9443	149,95	150,09	0,04857	
1,740	-0,9443	149,93	150,09	0,04856	
1,760	-0,9443	149,86	150,09	0,04869	
1,780	-0,9443	149,76	150,09	0,04880	
1,800	-0,9443	149,73	150,09	0,04885	
1,820	-0,9443	149,74	150,09	0,04889	
1,840	-0,9443	149,74	150,09	0,04880	
1,860	-0,9443	149,76	150,09	0,04863	
1,880	-0,9443	149,80	150,09	0,04852	
1,900	-0,9443	149,85	150,09	0,04852	
1,920	-0,9443	149,88	150,09	0,04867	
1,940	-0,9443	149,88	150,09	0,04879	
1,960	-0,9443	149,85	150,09	0,04887	
1,980	-0,9443	149,79	150,09	0,04886	
2,000	-0,9443	149,72	150,09	0,04875	
2,020	-0,9443	149,73	150,09	0,04864	
2,040	-0,9443	149,75	150,09	0,04860	
2,060	-0,9443	149,80	150,09	0,04870	
2,080	-0,9443	149,80	150,09	0,04877	
2,100	-0,9443	149,81	150,09	0,04880	
2,120	-0,9443	149,90	150,09	0,04881	
2,140	-0,9443	149,89	150,09	0,04870	
2,160	-0,9443	149,85	150,09	0,04856	
2,180	-0,9443	149,89	150,09	0,04856	
2,200	-0,9443	149,90	150,09	0,04865	
2,220	-0,9443	149,92	150,09	0,04873	
2,240	-0,9443	149,94	150,09	0,04884	
2,260	-0,9443	149,97	150,09	0,04888	
2,280	-0,9443	149,97	150,09	0,04876	
2,300	-0,9443	149,98	150,09	0,04864	
2,320	-0,9443	150,02	150,09	0,04861	
2,340	-0,9443	150,00	150,09	0,04860	
2,360	-0,9443	149,93	150,09	0,04858	
2,380	-0,9443	149,91	150,09	0,04869	
2,400	-0,9443	149,87	150,09	0,04877	
2,420	-0,9443	149,87	150,09	0,04882	
2,440	-0,9443	149,94	150,09	0,04880	
2,460	-0,9443	149,95	150,09	0,04870	
2,480	-0,9443	149,88	150,09	0,04859	
2,500	-0,9443	149,82	150,09	0,04857	
2,520	-0,9443	149,84	150,09	0,04869	
2,540	-0,9443	149,89	150,09	0,04880	
2,560	-0,9443	149,94	150,09	0,04883	
2,580	-0,9443	149,96	150,09	0,04884	
2,600	-0,9443	149,95	150,09	0,04876	
2,620	-0,9443	149,96	150,09	0,04863	
2,640	-0,9443	149,94	150,09	0,04852	
2,660	-0,9443	149,93	150,09	0,04851	
2,680	-0,9443	149,92	150,09	0,04866	
2,700	-0,9443	149,91	150,09	0,04881	
2,720	-0,9443	149,91	150,09	0,04885	
2,740	-0,9443	149,92	150,09	0,04883	
2,760	-0,9443	149,92	150,09	0,04869	
2,780	-0,9443	149,89	150,09	0,04850	
2,800	-0,9443	149,83	150,09	0,04845	
2,820	-0,9443	149,83	150,09	0,04858	
2,840	-0,9443	149,84	150,09	0,04872	
2,860	-0,9443	149,82	150,09	0,04882	
2,880	-0,9443	149,79	150,09	0,04887	
2,900	-0,9443	149,74	150,09	0,04881	
2,920	-0,9443	149,77	150,09	0,04869	
2,940	-0,9443	149,80	150,09	0,04862	
2,960	-0,9443	149,80	150,09	0,04854	
2,980	-0,9443	149,77	150,09	0,04863	
3,000	-0,9443	149,73	150,09	0,04871	
3,020	-0,9443	149,72	150,09	0,04878	
3,040	-0,9443	149,78	150,09	0,04886	
3,060	-0,9443	149,79	150,09	0,04878	
3,080	-0,9443	149,80	150,09	0,04867	
3,100	-0,9443	149,86	150,09	0,04863	
3,120	-0,9443	149,87	150,09	0,04862	
3,140	-0,9443	149,86	150,09	0,04873	
3,160	-0,9443	149,92	150,09	0,04880	
3,180	-0,9443	149,92	150,09	0,04879	
3,200	-0,9443	149,90	150,09	0,04869	
3,220	-0,9443	149,98	150,09	0,04858	
3,240	-0,9443	149,98	150,09	0,04857	
3,260	-0,9443	149,92	150,09	0,04864	
3,280	-0,9443	149,86	150,09	0,04871	
3,300	-0,9443	149,87	150,09	0,04880	
3,320	-0,9443	149,96	150,09	0,04878	
3,340	-0,9443	149,98	150,09	0,04875	
3,360	-0,9443	149,99	150,09	0,04872	
3,380	-0,9443	149,98	150,09	0,04861	
3,400	-0,9443	149,99	150,09	0,04853	
3,420	-0,9443	149,93	150,09	0,04857	
3,440	-0,9443	149,97	150,09	0,04867	
3,460	-0,9443	149,98	150,09	0,04879	
3,480	-0,9443	149,95	150,09	0,04883	
3,500	-0,9443	149,96	150,09	0,04872	
3,520	-0,9443	149,97	150,09	0,04861	
3,540	-0,9443	149,98	150,09	0,04853	
3,560	-0,9443	149,96	150,09	0,04859	
3,580	-0,9443	149,98	150,09	0,04875	
3,600	-0,9443	149,97	150,09	0,04880	
3,620	-0,9443	150,02	150,09	0,04880	
3,640	-0,9443	150,02	150,09	0,04874	
3,660	-0,9443	150,00	150,09	0,04864	
3,680	-0,9443	149,98	150,09	0,04858	
3,700	-0,9443	149,95	150,09	0,04855	
3,720	-0,9443	149,93	150,09	0,04865	
3,740	-0,9443	149,91	150,09	0,04883	
3,760	-0,9442	149,87	150,09	0,04888	
3,780	-0,9442	149,90	150,09	0,04886	
3,800	-0,9443	149,92	150,09	0,04877	
3,820	-0,9443	149,91	150,09	0,04864	
3,840	-0,9443	149,93	150,09	0,04853	
3,860	-0,9443	149,93	150,09	0,04857	
3,880	-0,9443	149,91	150,09	0,04870	
3,900	-0,9443	149,90	150,09	0,04883	
3,920	-0,9443	149,88	150,09	0,04884	
3,940	-0,9443	149,85	150,09	0,04872	
3,960	-0,9443	149,87	150,09	0,04860	
3,980	-0,9443	149,88	150,09	0,04851	
4,000	-0,9443	149,86	150,09	0,04850	
4,020	-0,9443	149,90	150,09	0,04854	
4,040	-0,9443	149,97	150,09	0,04863	
4,060	-0,9443	149,93	150,09	0,04869	
4,080	-0,9443	149,89	150,09	0,04871	
4,100	-0,9443	149,86	150,09	0,04862	
4,120	-0,9443	149,86	150,09	0,04856	
4,140	-0,9443	149,85	150,09	0,04856	
4,160	-0,9443	149,85	150,09	0,04855	
4,180	-0,9443	149,88	150,09	0,04860	
4,200	-0,9443	149,93	150,09	0,04874	
4,220	-0,9443	150,02	150,09	0,04885	
4,240	-0,9443	150,05	150,09	0,04883	
4,260	-0,9443	149,98	150,09	0,04867	
4,280	-0,9443	149,97	150,09	0,04852	
4,300	-0,9443	149,99	150,09	0,04852	
4,320	-0,9443	149,95	150,09	0,04867	
4,340	-0,9443	149,93	150,09	0,04878	
4,360	-0,9443	149,91	150,09	0,04889	
4,380	-0,9443	149,91	150,09	0,04886	
4,400	-0,9443	149,94	150,09	0,04871	
4,420	-0,9443	149,95	150,09	0,04859	
4,440	-0,9443	149,94	150,09	0,04856	
4,460	-0,9443	149,96	150,09	0,04865	
4,480	-0,9443	149,93	150,09	0,04875	
4,500	-0,9443	149,95	150,09	0,04884	
4,520	-0,9443	149,96	150,09	0,04886	
4,540	-0,9443	149,94	150,09	0,04879	
4,560	-0,9443	149,90	150,09	0,04864	
4,580	-0,9443	149,87	150,09	0,04863	
4,600	-0,9443	149,88	150,09	0,04870	
4,620	-0,9443	149,90	150,09	0,04877	
4,640	-0,9443	149,92	150,09	0,04880	
4,660	-0,9443	149,90	150,09	0,04878	
4,680	-0,9443	149,94	150,09	0,04875	
4,700	-0,9443	149,99	150,09	0,04868	
4,720	-0,9443	149,93	150,09	0,04857	
4,740	-0,9443	149,83	150,09	0,04854	
4,760	-0,9443	149,89	150,09	0,04863	
4,780	-0,9443	149,96	150,09	0,04878	
4,800	-0,9443	149,97	150,09	0,04883	
4,820	-0,9443	149,94	150,09	0,04882	
4,840	-0,9443	149,93	150,09	0,04873	
4,860	-0,9443	149,96	150,09	0,04859	
4,880	-0,9443	150,01	150,09	0,04849	
4,900	-0,9443	150,03	150,09	0,04852	
4,920	-0,9443	149,99	150,09	0,04863	
4,940	-0,9443	149,95	150,09	0,04875	
4,960	-0,9443	149,89	150,09	0,04883	
4,980	-0,9443	149,78	150,09	0,04878	
5,000	-0,9443	149,81	150,09	0,04866	
5,020	-0,9443	149,82	150,09	0,04856	
5,040	-0,9443	149,86	150,09	0,04859	
5,060	-0,9443	149,92	150,09	0,04865	
5,080	-0,9443	149,97	150,09	0,04870	
5,100	-0,9443	149,99	150,09	0,04876	
5,120	-0,9443	149,97	150,09	0,04878	
5,140	-0,9443	149,96	150,09	0,04873	
5,160	-0,9443	149,99	150,09	0,04871	
5,180	-0,9443	150,00	150,09	0,04865	
5,200	-0,9443	149,91	150,09	0,04863	
5,220	-0,9443	149,84	150,09	0,04871	
5,240	-0,9443	149,82	150,09	0,04883	
5,260	-0,9443	149,86	150,09	0,04883	
5,280	-0,9443	149,91	150,09	0,04876	
5,300	-0,9443	149,94	150,09	0,04869	
5,320	-0,9443	149,92	150,09	0,04862	
5,340	-0,9443	149,95	150,09	0,04865	
5,360	-0,9443	150,02	150,09	0,04870	
5,380	-0,9443	150,01	150,09	0,04872	
5,400	-0,9443	149,95	150,09	0,04878	
5,420	-0,9443	149,94	150,09	0,04880	
5,440	-0,9443	149,88	150,09	0,04875	
5,460	-0,9443	149,83	150,09	0,04868	
5,480	-0,9443	149,80	150,09	0,04854	
5,500	-0,9443	149,78	150,09	0,04847	
5,520	-0,9443	149,79	150,09	0,04858	
5,540	-0,9443	149,77	150,09	0,04877	
5,560	-0,9443	149,73	150,09	0,04881	
5,580	-0,9443	149,76	150,09	0,04877	
5,600	-0,9443	149,84	150,09	0,04871	
5,620	-0,9443	149,90	150,09	0,04860	
5,640	-0,9443	149,88	150,09	0,04853	
5,660	-0,9443	149,80	150,09	0,04855	
5,680	-0,9443	149,76	150,09	0,04865	
5,700	-0,9443	149,82	150,09	0,04872	
5,720	-0,9443	149,87	150,09	0,04874	
5,740	-0,9443	149,84	150,09	0,04876	
5,760	-0,9443	149,75	150,09	0,04863	
5,780	-0,9443	149,76	150,09	0,04854	
5,800	-0,9443	149,85	150,09	0,04851	
5,820	-0,9443	149,88	150,09	0,04853	
5,840	-0,9443	149,86	150,09	0,04861	
5,860	-0,9443	149,84	150,09	0,04872	
5,880	-0,9443	149,82	150,09	0,04880	
5,900	-0,9443	149,84	150,09	0,04874	
5,920	-0,9443	149,85	150,09	0,04863	
5,940	-0,9443	149,86	150,09	0,04853	
5,960	-0,9443	149,87	150,09	0,04858	
5,980	-0,9443	149,84	150,09	0,04864	
6,000	-0,9443	149,84	150,09	0,04873	
6,020	-0,9443	149,81	150,09	0,04881	
6,040	-0,9443	149,77	150,09	0,04879	
6,060	-0,9443	149,81	150,09	0,04871	
6,080	-0,9443	149,83	150,09	0,04866	
6,100	-0,9443	149,77	150,09	0,04864	
6,120	-0,9443	149,69	150,09	0,04863	
6,140	-0,9443	149,62	150,09	0,04861	
6,160	-0,9443	149,70	150,09	0,04867	
6,180	-0,9443	149,78	150,09	0,04880	
6,200	-0,9443	149,79	150,09	0,04883	
6,220	-0,9443	149,80	150,09	0,04870	
6,240	-0,9443	149,85	150,09	0,04856	
6,260	-0,9443	149,91	150,09	0,04857	
6,280	-0,9443	149,85	150,09	0,04861	
6,300	-0,9443	149,81	150,09	0,04869	
6,320	-0,9443	149,80	150,09	0,04877	
6,340	-0,9443	149,86	150,09	0,04887	
6,360	-0,9443	149,83	150,09	0,04880	
6,380	-0,9443	149,84	150,09	0,04863	
6,400	-0,9443	149,90	150,09	0,04860	
6,420	-0,9443	149,90	150,09	0,04864	
6,440	-0,9443	149,92	150,09	0,04868	
6,460	-0,9443	149,90	150,09	0,04873	
6,480	-0,9443	149,94	150,09	0,04875	
6,500	-0,9443	149,97	150,09	0,04875	
6,520	-0,9443	149,90	150,09	0,04866	
6,540	-0,9443	149,84	150,09	0,04861	
6,560	-0,9443	149,88	150,09	0,04861	
6,580	-0,9443	149,89	150,09	0,04857	
6,600	-0,9443	149,88	150,09	0,04859	
6,620	-0,9443	149,89	150,09	0,04871	
6,640	-0,9443	149,90	150,09	0,04883	
6,660	-0,9443	149,90	150,09	0,04882	
6,680	-0,9443	149,88	150,09	0,04865	
6,700	-0,9443	149,91	150,09	0,04859	
6,720	-0,9443	149,89	150,09	0,04860	
6,740	-0,9443	149,88	150,09	0,04862	
6,760	-0,9443	149,88	150,09	0,04873	
6,780	-0,9443	149,85	150,09	0,04877	
6,800	-0,9443	149,90	150,09	0,04873	
6,820	-0,9443	149,91	150,09	0,04868	
6,840	-0,9443	149,90	150,09	0,04861	
6,860	-0,9443	149,95	150,09	0,04855	
6,880	-0,9443	149,94	150,09	0,04861	
6,900	-0,9443	149,90	150,09	0,04873	
6,920	-0,9443	149,87	150,09	0,04879	
6,940	-0,9443	149,82	150,09	0,04882	
6,960	-0,9443	149,83	150,09	0,04881	
6,980	-0,9443	149,88	150,09	0,04867	
7,000	-0,9443	149,86	150,09	0,04855	
7,020	-0,9443	149,87	150,09	0,04848	
7,040	-0,9443	149,93	150,09	0,04851	
7,060	-0,9443	149,86	150,09	0,04859	
7,080	-0,9443	149,81	150,09	0,04868	
7,100	-0,9443	149,76	150,09	0,04882	
7,120	-0,9443	149,75	150,09	0,04883	
7,140	-0,9443	149,77	150,09	0,04868	
7,160	-0,9443	149,82	150,09	0,04855	
7,180	-0,9443	149,80	150,09	0,04848	
7,200	-0,9443	149,74	150,09	0,04852	
7,220	-0,9443	149,69	150,09	0,04871	
7,240	-0,9443	149,71	150,09	0,04885	
7,260	-0,9443	149,76	150,09	0,04881	
7,280	-0,9443	149,78	150,09	0,04869	
7,300	-0,9443	149,80	150,09	0,04858	
7,320	-0,9443	149,84	150,09	0,04850	
7,340	-0,9443	149,87	150,09	0,04852	
7,360	-0,9443	149,86	150,09	0,04859	
7,380	-0,9443	149,80	150,09	0,04869	
7,400	-0,9443	149,81	150,09	0,04870	
7,420	-0,9443	149,88	150,09	0,04870	
7,440	-0,9443	149,86	150,09	0,04873	
7,460	-0,9443	149,80	150,09	0,04865	
7,480	-0,9443	149,76	150,09	0,04859	
7,500	-0,9443	149,74	150,09	0,04860	
7,520	-0,9443	149,75	150,09	0,04869	
7,540	-0,9443	149,77	150,09	0,04880	
7,560	-0,9443	149,85	150,09	0,04885	
7,580	-0,9443	149,95	150,09	0,04879	
7,600	-0,9443	149,93	150,09	0,04864	
7,620	-0,9443	149,90	150,09	0,04851	
7,640	-0,9443	149,83	150,09	0,04852	
7,660	-0,9443	149,80	150,09	0,04861	
7,680	-0,9443	149,81	150,09	0,04869	
7,700	-0,9443	149,81	150,09	0,04878	
7,720	-0,9443	149,79	150,09	0,04879	
7,740	-0,9443	149,77	150,09	0,04873	
7,760	-0,9443	149,78	150,09	0,04868	
7,780	-0,9443	149,81	150,09	0,04858	
7,800	-0,9443	149,82	150,09	0,04854	
7,820	-0,9443	149,79	150,09	0,04858	
7,840	-0,9443	149,79	150,09	0,04871	
7,860	-0,9443	149,81	150,09	0,04879	
7,880	-0,9443	149,85	150,09	0,04882	
7,900	-0,9443	149,88	150,09	0,04873	
7,920	-0,9443	149,92	150,09	0,04860	
7,940	-0,9443	149,89	150,09	0,04854	
7,960	-0,9443	149,85	150,09	0,04855	
7,980	-0,9443	149,83	150,09	0,04862	
8,000	-0,9443	149,85	150,09	0,04870	
8,020	-0,9443	149,93	150,09	0,04873	
8,040	-0,9443	149,95	150,09	0,04869	
8,060	-0,9443	149,90	150,09	0,04856	
8,080	-0,9443	149,86	150,09	0,04848	
8,100	-0,9443	149,86	150,09	0,04852	
8,120	-0,9443	149,91	150,09	0,04860	
8,140	-0,9443	149,96	150,09	0,04877	
8,160	-0,9443	150,02	150,09	0,04877	
8,180	-0,9443	150,07	150,09	0,04867	
8,200	-0,9443	150,10	150,09	0,04859	
8,220	-0,9443	150,05	150,09	0,04854	
8,240	-0,9443	149,98	150,09	0,04850	
8,260	-0,9443	149,97	150,09	0,04850	
8,280	-0,9443	149,96	150,09	0,04860	
8,300	-0,9443	149,91	150,09	0,04871	
8,320	-0,9443	149,93	150,09	0,04879	
8,340	-0,9443	149,93	150,09	0,04880	
8,360	-0,9443	149,93	150,09	0,04870	
8,380	-0,9443	149,94	150,09	0,04862	
8,400	-0,9443	149,96	150,09	0,04859	
8,420	-0,9443	149,98	150,09	0,04858	
8,440	-0,9443	149,96	150,09	0,04868	
8,460	-0,9443	150,00	150,09	0,04879	
8,480	-0,9443	149,96	150,09	0,04884	
8,500	-0,9443	149,90	150,09	0,04876	
8,520	-0,9443	149,88	150,09	0,04864	
8,540	-0,9443	149,86	150,09	0,04857	
8,560	-0,9443	149,82	150,09	0,04856	
8,580	-0,9443	149,85	150,09	0,04868	
8,600	-0,9443	149,89	150,09	0,04875	
8,620	-0,9443	149,89	150,09	0,04874	
8,640	-0,9443	149,94	150,09	0,04876	
8,660	-0,9443	149,99	150,09	0,04874	
8,680	-0,9443	149,98	150,09	0,04865	
8,700	-0,9443	149,96	150,09	0,04863	
8,720	-0,9443	149,94	150,09	0,04873	
8,740	-0,9443	149,99	150,09	0,04876	
8,760	-0,9443	150,05	150,09	0,04879	
8,780	-0,9443	150,03	150,09	0,04880	
8,800	-0,9443	149,98	150,09	0,04868	
8,820	-0,9443	149,91	150,09	0,04860	
8,840	-0,9443	149,83	150,09	0,04854	
8,860	-0,9443	149,78	150,09	0,04861	
8,880	-0,9443	149,75	150,09	0,04876	
8,900	-0,9443	149,77	150,09	0,04889	
8,920	-0,9443	149,79	150,09	0,04896	
8,940	-0,9443	149,82	150,09	0,04885	
8,960	-0,9443	149,89	150,09	0,04871	
8,980	-0,9443	149,85	150,09	0,04865	
9,000	-0,9443	149,81	150,09	0,04855	
9,020	-0,9443	149,85	150,09	0,04856	
9,040	-0,9443	149,92	150,09	0,04867	
9,060	-0,9443	149,95	150,09	0,04874	
9,080	-0,9443	149,94	150,09	0,04878	
9,100	-0,9443	149,89	150,09	0,04871	
9,120	-0,9443	149,80	150,09	0,04859	
9,140	-0,9443	149,73	150,09	0,04854	
9,160	-0,9443	149,77	150,09	0,04853	
9,180	-0,9443	149,80	150,09	0,04864	
9,200	-0,9443	149,80	150,09	0,04873	
9,220	-0,9443	149,75	150,09	0,04878	
9,240	-0,9443	149,67	150,09	0,04877	
9,260	-0,9443	149,62	150,09	0,04869	
9,280	-0,9443	149,67	150,09	0,04859	
9,300	-0,9443	149,73	150,09	0,04854	
9,320	-0,9443	149,79	150,09	0,04856	
9,340	-0,9443	149,82	150,09	0,04869	
9,360	-0,9443	149,85	150,09	0,04882	
9,380	-0,9443	149,85	150,09	0,04884	
9,400	-0,9443	149,87	150,09	0,04873	
9,420	-0,9443	149,94	150,09	0,04863	
9,440	-0,9443	149,97	150,09	0,04855	
9,460	-0,9443	149,92	150,09	0,04858	
9,480	-0,9443	149,94	150,09	0,04862	
9,500	-0,9443	150,03	150,09	0,04869	
9,520	-0,9443	149,96	150,09	0,04874	
9,540	-0,9443	149,91	150,09	0,04871	
9,560	-0,9443	149,92	150,09	0,04861	
9,580	-0,9443	149,89	150,09	0,04851	
9,600	-0,9443	149,90	150,09	0,04852	
9,620	-0,9443	149,91	150,09	0,04859	
9,640	-0,9443	149,88	150,09	0,04868	
9,660	-0,9443	149,81	150,09	0,04875	
9,680	-0,9443	149,72	150,09	0,04881	
9,700	-0,9443	149,76	150,09	0,04876	
9,720	-0,9443	149,84	150,09	0,04862	
9,740	-0,9443	149,78	150,09	0,04852	
9,760	-0,9443	149,71	150,09	0,04845	
9,780	-0,9443	149,78	150,09	0,04851	
9,800	-0,9443	149,79	150,09	0,04866	
9,820	-0,9443	149,82	150,09	0,04875	
9,840	-0,9443	149,85	150,09	0,04875	
9,860	-0,9443	149,88	150,09	0,04870	
9,880	-0,9443	149,94	150,09	0,04856	
9,900	-0,9443	150,02	150,09	0,04850	
9,920	-0,9443	149,99	150,09	0,04852	
9,940	-0,9443	149,90	150,09	0,04864	
9,960	-0,9443	149,91	150,09	0,04878	
9,980	-0,9443	149,91	150,09	0,04875	
10,00	-0,9443	149,87	150,09	0,04862	
10,02	-0,9443	149,97	150,09	0,04859	
10,04	-0,9443	150,01	150,09	0,04862	
10,06	-0,9443	149,87	150,09	0,04865	
10,08	-0,9443	149,81	150,09	0,04865	
10,10	-0,9443	149,83	150,09	0,04871	
10,12	-0,9443	149,86	150,09	0,04876	
10,14	-0,9443	149,87	150,09	0,04872	
10,16	-0,9443	149,91	150,09	0,04860	
10,18	-0,9443	149,96	150,09	0,04848	
10,20	-0,9443	149,97	150,09	0,04845	
10,22	-0,9443	149,93	150,09	0,04853	
10,24	-0,9443	149,87	150,09	0,04862	
10,26	-0,9443	149,88	150,09	0,04870	
10,28	-0,9443	149,95	150,09	0,04876	
10,30	-0,9443	149,95	150,09	0,04872	
10,32	-0,9443	149,94	150,09	0,04866	
10,34	-0,9443	149,94	150,09	0,04859	
10,36	-0,9443	149,88	150,09	0,04855	
10,38	-0,9443	149,84	150,09	0,04859	
10,40	-0,9443	149,88	150,09	0,04866	
10,42	-0,9443	149,93	150,09	0,04876	
10,44	-0,9443	149,90	150,09	0,04880	
10,46	-0,9443	149,87	150,09	0,04872	
10,48	-0,9443	149,92	150,09	0,04863	
10,50	-0,9443	149,95	150,09	0,04855	
10,52	-0,9443	149,92	150,09	0,04855	
10,54	-0,9443	149,95	150,09	0,04868	
10,56	-0,9443	149,96	150,09	0,04883	
10,58	-0,9443	149,96	150,09	0,04886	
10,60	-0,9443	150,00	150,09	0,04878	
10,62	-0,9443	150,02	150,09	0,04863	
10,64	-0,9443	149,95	150,09	0,04851	
10,66	-0,9443	149,91	150,09	0,04853	
10,68	-0,9443	149,90	150,09	0,04861	
10,70	-0,9443	149,88	150,09	0,04865	
10,72	-0,9443	149,85	150,09	0,04869	
10,74	-0,9443	149,85	150,09	0,04875	
10,76	-0,9443	149,93	150,09	0,04867	
10,78	-0,9443	149,99	150,09	0,04855	
10,80	-0,9443	149,99	150,09	0,04851	
10,82	-0,9443	150,01	150,09	0,04856	
10,84	-0,9443	150,00	150,09	0,04869	
10,86	-0,9443	149,96	150,09	0,04876	
10,88	-0,9443	149,96	150,09	0,04880	
10,90	-0,9443	149,95	150,09	0,04877	
10,92	-0,9443	149,98	150,09	0,04862	
10,94	-0,9443	149,98	150,09	0,04847	
10,96	-0,9443	149,94	150,09	0,04850	
10,98	-0,9443	149,97	150,09	0,04863	
11,00	-0,9443	150,03	150,09	0,04874	
11,02	-0,9443	150,00	150,09	0,04879	
11,04	-0,9443	149,93	150,09	0,04876	
11,06	-0,9443	149,91	150,09	0,04866	
11,08	-0,9443	149,88	150,09	0,04855	
11,10	-0,9443	149,89	150,09	0,04846	
11,12	-0,9443	149,90	150,09	0,04848	
11,14	-0,9443	149,83	150,09	0,04860	
11,16	-0,9443	149,81	150,09	0,04869	
11,18	-0,9443	149,89	150,09	0,04876	
11,20	-0,9443	149,94	150,09	0,04879	
11,22	-0,9443	149,98	150,09	0,04870	
11,24	-0,9443	149,98	150,09	0,04859	
11,26	-0,9443	149,97	150,09	0,04857	
11,28	-0,9443	149,98	150,09	0,04860	
11,30	-0,9443	149,95	150,09	0,04862	
11,32	-0,9443	149,84	150,09	0,04868	
11,34	-0,9443	149,81	150,09	0,04875	
11,36	-0,9443	149,80	150,09	0,04871	
11,38	-0,9443	149,75	150,09	0,04861	
11,40	-0,9443	149,72	150,09	0,04852	
11,42	-0,9443	149,72	150,09	0,04853	
11,44	-0,9443	149,76	150,09	0,04855	
11,46	-0,9443	149,83	150,09	0,04867	
11,48	-0,9443	149,89	150,09	0,04876	
11,50	-0,9443	149,90	150,09	0,04880	
11,52	-0,9443	149,89	150,09	0,04867	
11,54	-0,9443	149,88	150,09	0,04854	
11,56	-0,9443	149,80	150,09	0,04852	
11,58	-0,9443	149,78	150,09	0,04859	
11,60	-0,9443	149,83	150,09	0,04863	
11,62	-0,9443	149,90	150,09	0,04871	
11,64	-0,9443	149,88	150,09	0,04880	
11,66	-0,9443	149,80	150,09	0,04881	
11,68	-0,9443	149,79	150,09	0,04867	
11,70	-0,9443	149,85	150,09	0,04850	
11,72	-0,9443	149,86	150,09	0,04843	
11,74	-0,9443	149,76	150,09	0,04854	
11,76	-0,9443	149,70	150,09	0,04871	
11,78	-0,9443	149,79	150,09	0,04878	
11,80	-0,9443	149,88	150,09	0,04878	
11,82	-0,9443	149,89	150,09	0,04875	
11,84	-0,9443	149,93	150,09	0,04862	
11,86	-0,9443	149,99	150,09	0,04851	
11,88	-0,9443	149,99	150,09	0,04852	
11,90	-0,9443	149,95	150,09	0,04864	
11,92	-0,9443	149,87	150,09	0,04874	
11,94	-0,9443	149,81	150,09	0,04881	
11,96	-0,9443	149,83	150,09	0,04878	
11,98	-0,9443	149,89	150,09	0,04862	
12,00	-0,9443	149,90	150,09	0,04851	
12,02	-0,9443	149,93	150,09	0,04851	
12,04	-0,9443	149,92	150,09	0,04852	
12,06	-0,9443	149,91	150,09	0,04863	
12,08	-0,9443	149,91	150,09	0,04870	
12,10	-0,9443	149,90	150,09	0,04871	
12,12	-0,9443	149,89	150,09	0,04869	
12,14	-0,9443	149,92	150,09	0,04855	
12,16	-0,9443	149,96	150,09	0,04848	
12,18	-0,9443	149,94	150,09	0,04849	
12,20	-0,9443	149,90	150,09	0,04858	
12,22	-0,9443	149,93	150,09	0,04868	
12,24	-0,9443	149,98	150,09	0,04878	
12,26	-0,9443	149,97	150,09	0,04876	
12,28	-0,9443	149,95	150,09	0,04865	
12,30	-0,9443	149,92	150,09	0,04849	
12,32	-0,9443	149,94	150,09	0,04848	
12,34	-0,9443	149,90	150,09	0,04853	
12,36	-0,9443	149,88	150,09	0,04866	
12,38	-0,9443	149,87	150,09	0,04877	
12,40	-0,9443	149,84	150,09	0,04873	
12,42	-0,9443	149,85	150,09	0,04863	
12,44	-0,9443	149,85	150,09	0,04850	
12,46	-0,9443	149,85	150,09	0,04846	
12,48	-0,9443	149,86	150,09	0,04856	
12,50	-0,9443	149,85	150,09	0,04868	
12,52	-0,9443	149,87	150,09	0,04877	
12,54	-0,9443	149,92	150,09	0,04879	
12,56	-0,9443	149,85	150,09	0,04876	
12,58	-0,9443	149,76	150,09	0,04865	
12,60	-0,9443	149,73	150,09	0,04856	
12,62	-0,9443	149,78	150,09	0,04855	
12,64	-0,9443	149,84	150,09	0,04865	
12,66	-0,9443	149,87	150,09	0,04875	
12,68	-0,9443	149,88	150,09	0,04878	
12,70	-0,9443	149,89	150,09	0,04875	
12,72	-0,9443	149,93	150,09	0,04872	
12,74	-0,9443	149,95	150,09	0,04862	
12,76	-0,9443	149,93	150,09	0,04852	
12,78	-0,9443	149,87	150,09	0,04853	
12,80	-0,9443	149,89	150,09	0,04858	
12,82	-0,9443	149,93	150,09	0,04872	
12,84	-0,9443	149,97	150,09	0,04882	
12,86	-0,9443	149,91	150,09	0,04883	
12,88	-0,9443	149,86	150,09	0,04877	
12,90	-0,9443	149,88	150,09	0,04863	
12,92	-0,9443	149,97	150,09	0,04849	
12,94	-0,9443	150,03	150,09	0,04850	
12,96	-0,9443	150,05	150,09	0,04861	
12,98	-0,9443	150,08	150,09	0,04872	
13,00	-0,9443	150,14	150,09	0,04878	
13,02	-0,9443	150,10	150,09	0,04878	
13,04	-0,9443	150,02	150,09	0,04871	
13,06	-0,9443	149,98	150,09	0,04858	
13,08	-0,9443	149,98	150,09	0,04853	
13,10	-0,9443	150,03	150,09	0,04857	
13,12	-0,9443	150,02	150,09	0,04861	
13,14	-0,9443	149,97	150,09	0,04868	
13,16	-0,9443	150,01	150,09	0,04873	
13,18	-0,9443	150,07	150,09	0,04867	
13,20	-0,9443	150,08	150,09	0,04857	
13,22	-0,9443	150,10	150,09	0,04849	
13,24	-0,9443	150,12	150,09	0,04848	
13,26	-0,9443	150,12	150,09	0,04858	
13,28	-0,9443	150,12	150,09	0,04871	
13,30	-0,9443	150,12	150,09	0,04878	
13,32	-0,9443	150,15	150,09	0,04881	
13,34	-0,9443	150,16	150,09	0,04876	
13,36	-0,9443	150,14	150,09	0,04862	
13,38	-0,9443	150,07	150,09	0,04854	
13,40	-0,9443	150,05	150,09	0,04857	
13,42	-0,9443	150,08	150,09	0,04866	
13,44	-0,9443	150,09	150,09	0,04871	
13,46	-0,9443	150,04	150,09	0,04874	
13,48	-0,9443	149,98	150,09	0,04874	
13,50	-0,9443	149,96	150,09	0,04866	
13,52	-0,9443	149,95	150,09	0,04858	
13,54	-0,9443	149,99	150,09	0,04853	
13,56	-0,9442	150,05	150,09	0,04855	
13,58	-0,9442	150,06	150,09	0,04865	
13,60	-0,9443	150,08	150,09	0,04879	
13,62	-0,9443	150,06	150,09	0,04887	
13,64	-0,9443	150,08	150,09	0,04884	
13,66	-0,9443	150,05	150,09	0,04869	
13,68	-0,9443	150,06	150,09	0,04847	
13,70	-0,9443	150,06	150,09	0,04843	
13,72	-0,9443	150,08	150,09	0,04852	
13,74	-0,9443	150,08	150,09	0,04862	
13,76	-0,9443	150,11	150,09	0,04873	
13,78	-0,9443	150,18	150,09	0,04877	
13,80	-0,9443	150,15	150,09	0,04870	
13,82	-0,9443	150,09	150,09	0,04862	
13,84	-0,9443	150,03	150,09	0,04856	
13,86	-0,9443	149,97	150,09	0,04858	
13,88	-0,9443	149,93	150,09	0,04863	
13,90	-0,9443	149,99	150,09	0,04868	
13,92	-0,9443	150,03	150,09	0,04874	
13,94	-0,9443	150,05	150,09	0,04866	
13,96	-0,9443	150,10	150,09	0,04858	
13,98	-0,9443	150,05	150,09	0,04857	
14,00	-0,9443	149,99	150,09	0,04855	
14,02	-0,9443	149,91	150,09	0,04855	
14,04	-0,9443	149,88	150,09	0,04872	
14,06	-0,9443	149,89	150,09	0,04880	
14,08	-0,9443	149,87	150,09	0,04869	
14,10	-0,9443	149,90	150,09	0,04857	
14,12	-0,9443	150,02	150,09	0,04851	
14,14	-0,9443	150,00	150,09	0,04849	
14,16	-0,9443	149,90	150,09	0,04858	
14,18	-0,9443	149,90	150,09	0,04865	
14,20	-0,9443	149,90	150,09	0,04872	
14,22	-0,9443	149,89	150,09	0,04876	
14,24	-0,9443	149,90	150,09	0,04872	
14,26	-0,9443	149,93	150,09	0,04863	
14,28	-0,9443	149,93	150,09	0,04852	
14,30	-0,9443	149,93	150,09	0,04853	
14,32	-0,9443	149,95	150,09	0,04862	
14,34	-0,9443	149,99	150,09	0,04874	
14,36	-0,9443	150,03	150,09	0,04879	
14,38	-0,9443	150,03	150,09	0,04876	
14,40	-0,9443	150,00	150,09	0,04870	
14,42	-0,9443	149,96	150,09	0,04860	
14,44	-0,9443	149,98	150,09	0,04853	
14,46	-0,9443	150,03	150,09	0,04858	
14,48	-0,9443	150,05	150,09	0,04863	
14,50	-0,9443	149,99	150,09	0,04871	
14,52	-0,9443	149,98	150,09	0,04881	
14,54	-0,9443	150,00	150,09	0,04883	
14,56	-0,9443	150,01	150,09	0,04869	
14,58	-0,9443	149,96	150,09	0,04856	
14,60	-0,9443	149,94	150,09	0,04852	
14,62	-0,9443	149,97	150,09	0,04855	
14,64	-0,9443	149,99	150,09	0,04865	
14,66	-0,9443	149,97	150,09	0,04873	
14,68	-0,9443	149,91	150,09	0,04874	
14,70	-0,9443	149,93	150,09	0,04870	
14,72	-0,9443	149,96	150,09	0,04859	
14,74	-0,9442	149,88	150,09	0,04849	
14,76	-0,9442	149,87	150,09	0,04851	
14,78	-0,9442	149,95	150,09	0,04858	
14,80	-0,9442	149,99	150,09	0,04870	
14,82	-0,9443	150,00	150,09	0,04880	
14,84	-0,9443	149,98	150,09	0,04880	
14,86	-0,9443	150,03	150,09	0,04868	
14,88	-0,9443	150,08	150,09	0,04860	
14,90	-0,9443	149,97	150,09	0,04862	
14,92	-0,9443	149,90	150,09	0,04868	
14,94	-0,9443	149,92	150,09	0,04872	
14,96	-0,9443	149,92	150,09	0,04872	
14,98	-0,9443	149,95	150,09	0,04877	
15,00	-0,9443	149,97	150,09	0,04873	
15,02	-0,9443	150,00	150,09	0,04860	
15,04	-0,9443	149,97	150,09	0,04850	
15,06	-0,9443	149,93	150,09	0,04852	
15,08	-0,9443	149,96	150,09	0,04860	
15,10	-0,9443	149,99	150,09	0,04869	
15,12	-0,9443	149,98	150,09	0,04881	
15,14	-0,9443	150,01	150,09	0,04886	
15,16	-0,9443	150,04	150,09	0,04874	
15,18	-0,9443	150,03	150,09	0,04853	
15,20	-0,9443	149,98	150,09	0,04843	
15,22	-0,9443	149,98	150,09	0,04849	
15,24	-0,9443	149,98	150,09	0,04859	
15,26	-0,9443	149,97	150,09	0,04870	
15,28	-0,9443	149,93	150,09	0,04880	
15,30	-0,9443	149,86	150,09	0,04882	
15,32	-0,9443	149,78	150,09	0,04871	
15,34	-0,9443	149,77	150,09	0,04853	
15,36	-0,9443	149,83	150,09	0,04849	
15,38	-0,9443	149,93	150,09	0,04851	
15,40	-0,9442	149,99	150,09	0,04857	
15,42	-0,9442	149,94	150,09	0,04865	
15,44	-0,9442	149,88	150,09	0,04871	
15,46	-0,9442	149,88	150,09	0,04871	
15,48	-0,9443	149,94	150,09	0,04858	
15,50	-0,9443	149,95	150,09	0,04848	
15,52	-0,9443	149,97	150,09	0,04847	
15,54	-0,9443	150,03	150,09	0,04854	
15,56	-0,9443	150,01	150,09	0,04874	
15,58	-0,9443	149,94	150,09	0,04882	
15,60	-0,9443	149,92	150,09	0,04878	
15,62	-0,9443	149,90	150,09	0,04869	
15,64	-0,9443	149,86	150,09	0,04861	
15,66	-0,9443	149,85	150,09	0,04856	
15,68	-0,9443	149,83	150,09	0,04854	
15,70	-0,9443	149,83	150,09	0,04866	
15,72	-0,9443	149,86	150,09	0,04881	
15,74	-0,9443	150,00	150,09	0,04882	
15,76	-0,9443	150,04	150,09	0,04875	
15,78	-0,9443	150,04	150,09	0,04867	
15,80	-0,9443	150,01	150,09	0,04855	
15,82	-0,9443	149,99	150,09	0,04847	
15,84	-0,9443	150,00	150,09	0,04850	
15,86	-0,9443	149,99	150,09	0,04862	
15,88	-0,9443	149,93	150,09	0,04874	
15,90	-0,9443	149,82	150,09	0,04878	
15,92	-0,9443	149,81	150,09	0,04871	
15,94	-0,9443	149,84	150,09	0,04856	
15,96	-0,9443	149,83	150,09	0,04848	
15,98	-0,9443	149,80	150,09	0,04851	
16,00	-0,9443	149,79	150,09	0,04861	
16,02	-0,9443	149,85	150,09	0,04871	
16,04	-0,9443	149,96	150,09	0,04873	
16,06	-0,9443	150,08	150,09	0,04874	
16,08	-0,9443	150,15	150,09	0,04872	
16,10	-0,9443	150,08	150,09	0,04863	
16,12	-0,9443	149,99	150,09	0,04853	
16,14	-0,9443	149,97	150,09	0,04856	
16,16	-0,9443	149,94	150,09	0,04864	
16,18	-0,9443	149,93	150,09	0,04875	
16,20	-0,9443	149,97	150,09	0,04877	
16,22	-0,9443	150,00	150,09	0,04877	
16,24	-0,9443	150,02	150,09	0,04873	
16,26	-0,9443	150,01	150,09	0,04862	
16,28	-0,9443	149,96	150,09	0,04854	
16,30	-0,9443	149,96	150,09	0,04854	
16,32	-0,9443	149,97	150,09	0,04858	
16,34	-0,9443	149,95	150,09	0,04868	
16,36	-0,9443	149,97	150,09	0,04872	
16,38	-0,9443	149,97	150,09	0,04868	
16,40	-0,9443	149,99	150,09	0,04859	
16,42	-0,9443	149,94	150,09	0,04849	
16,44	-0,9443	149,96	150,09	0,04849	
16,46	-0,9443	149,99	150,09	0,04854	
16,48	-0,9443	149,94	150,09	0,04858	
16,50	-0,9443	149,89	150,09	0,04869	
16,52	-0,9443	149,92	150,09	0,04874	
16,54	-0,9443	149,96	150,09	0,04867	
16,56	-0,9443	149,90	150,09	0,04852	
16,58	-0,9443	149,88	150,09	0,04843	
16,60	-0,9443	149,90	150,09	0,04845	
16,62	-0,9443	149,89	150,09	0,04859	
16,64	-0,9443	149,89	150,09	0,04873	
16,66	-0,9443	149,95	150,09	0,04876	
16,68	-0,9443	150,02	150,09	0,04877	
16,70	-0,9443	150,06	150,09	0,04868	
16,72	-0,9443	150,00	150,09	0,04856	
16,74	-0,9443	149,98	150,09	0,04854	
16,76	-0,9443	149,94	150,09	0,04853	
16,78	-0,9443	149,90	150,09	0,04858	
16,80	-0,9442	149,92	150,09	0,04867	
16,82	-0,9442	149,96	150,09	0,04875	
16,84	-0,9442	149,94	150,09	0,04873	
16,86	-0,9443	149,91	150,09	0,04859	
16,88	-0,9443	149,92	150,09	0,04850	
16,90	-0,9443	149,97	150,09	0,04852	
16,92	-0,9443	150,00	150,09	0,04860	
16,94	-0,9443	150,00	150,09	0,04873	
16,96	-0,9443	150,00	150,09	0,04883	
16,98	-0,9442	150,05	150,09	0,04880	
17,00	-0,9443	150,05	150,09	0,04867	
17,02	-0,9443	149,99	150,09	0,04858	
17,04	-0,9443	149,93	150,09	0,04859	
17,06	-0,9443	149,97	150,09	0,04862	
17,08	-0,9443	149,98	150,09	0,04870	
17,10	-0,9443	149,98	150,09	0,04874	
17,12	-0,9443	149,97	150,09	0,04879	
17,14	-0,9443	150,00	150,09	0,04880	
17,16	-0,9443	149,99	150,09	0,04872	
17,18	-0,9443	149,97	150,09	0,04857	
17,20	-0,9443	149,97	150,09	0,04856	
17,22	-0,9443	149,92	150,09	0,04865	
17,24	-0,9443	149,90	150,09	0,04873	
17,26	-0,9443	149,91	150,09	0,04875	
17,28	-0,9443	149,90	150,09	0,04876	
17,30	-0,9443	149,93	150,09	0,04867	
17,32	-0,9443	149,95	150,09	0,04860	
17,34	-0,9443	149,92	150,09	0,04857	
17,36	-0,9443	149,91	150,09	0,04857	
17,38	-0,9443	149,97	150,09	0,04864	
17,40	-0,9443	149,99	150,09	0,04872	
17,42	-0,9443	149,90	150,09	0,04882	
17,44	-0,9443	149,86	150,09	0,04880	
17,46	-0,9443	149,85	150,09	0,04869	
17,48	-0,9443	149,85	150,09	0,04859	
17,50	-0,9443	149,89	150,09	0,04855	
17,52	-0,9442	149,91	150,09	0,04860	
17,54	-0,9443	149,88	150,09	0,04867	
17,56	-0,9443	149,83	150,09	0,04871	
17,58	-0,9443	149,82	150,09	0,04869	
17,60	-0,9443	149,86	150,09	0,04868	
17,62	-0,9443	149,88	150,09	0,04862	
17,64	-0,9443	149,92	150,09	0,04854	
17,66	-0,9443	149,93	150,09	0,04854	
17,68	-0,9443	149,94	150,09	0,04866	
17,70	-0,9443	149,94	150,09	0,04873	
17,72	-0,9442	150,01	150,09	0,04876	
17,74	-0,9442	149,98	150,09	0,04872	
17,76	-0,9442	149,88	150,09	0,04858	
17,78	-0,9442	149,86	150,09	0,04847	
17,80	-0,9442	149,89	150,09	0,04845	
17,82	-0,9442	149,91	150,09	0,04858	
17,84	-0,9443	149,90	150,09	0,04876	
17,86	-0,9443	149,85	150,09	0,04883	
17,88	-0,9443	149,85	150,09	0,04885	
17,90	-0,9443	149,92	150,09	0,04876	
17,92	-0,9443	149,96	150,09	0,04860	
17,94	-0,9443	149,96	150,09	0,04851	
17,96	-0,9443	149,97	150,09	0,04854	
17,98	-0,9443	149,87	150,09	0,04865	
18,00	-0,9443	149,78	150,09	0,04875	
18,02	-0,9443	149,79	150,09	0,04878	
18,04	-0,9443	149,81	150,09	0,04880	
18,06	-0,9442	149,86	150,09	0,04873	
18,08	-0,9443	149,87	150,09	0,04861	
18,10	-0,9443	149,83	150,09	0,04854	
18,12	-0,9443	149,81	150,09	0,04855	
18,14	-0,9443	149,83	150,09	0,04859	
18,16	-0,9443	149,88	150,09	0,04868	
18,18	-0,9443	149,90	150,09	0,04873	
18,20	-0,9443	149,89	150,09	0,04868	
18,22	-0,9443	149,84	150,09	0,04856	
18,24	-0,9443	149,84	150,09	0,04845	
18,26	-0,9443	149,85	150,09	0,04844	
18,28	-0,9443	149,88	150,09	0,04851	
18,30	-0,9443	149,91	150,09	0,04863	
18,32	-0,9443	149,96	150,09	0,04872	
18,34	-0,9443	149,99	150,09	0,04877	
18,36	-0,9443	149,98	150,09	0,04870	
18,38	-0,9443	149,91	150,09	0,04859	
18,40	-0,9443	149,87	150,09	0,04847	
18,42	-0,9443	149,96	150,09	0,04850	
18,44	-0,9443	150,06	150,09	0,04865	
18,46	-0,9443	150,02	150,09	0,04877	
18,48	-0,9443	149,94	150,09	0,04879	
18,50	-0,9443	149,95	150,09	0,04872	
18,52	-0,9443	149,96	150,09	0,04862	
18,54	-0,9443	149,92	150,09	0,04854	
18,56	-0,9443	149,90	150,09	0,04856	
18,58	-0,9443	149,94	150,09	0,04863	
18,60	-0,9443	149,95	150,09	0,04864	
18,62	-0,9443	149,92	150,09	0,04872	
18,64	-0,9443	149,90	150,09	0,04879	
18,66	-0,9443	149,98	150,09	0,04875	
18,68	-0,9443	149,96	150,09	0,04865	
18,70	-0,9443	149,86	150,09	0,04859	
18,72	-0,9443	149,84	150,09	0,04863	
18,74	-0,9443	149,95	150,09	0,04873	
18,76	-0,9443	149,93	150,09	0,04876	
18,78	-0,9443	149,83	150,09	0,04881	
18,80	-0,9443	149,78	150,09	0,04879	
18,82	-0,9443	149,78	150,09	0,04869	
18,84	-0,9443	149,77	150,09	0,04862	
18,86	-0,9443	149,81	150,09	0,04863	
18,88	-0,9443	149,86	150,09	0,04865	
18,90	-0,9443	149,91	150,09	0,04867	
18,92	-0,9443	149,97	150,09	0,04872	
18,94	-0,9443	149,96	150,09	0,04873	
18,96	-0,9443	149,92	150,09	0,04865	
18,98	-0,9443	149,93	150,09	0,04856	
19,00	-0,9443	149,99	150,09	0,04850	
19,02	-0,9443	150,00	150,09	0,04855	
19,04	-0,9443	149,98	150,09	0,04860	
19,06	-0,9443	150,00	150,09	0,04866	
19,08	-0,9443	150,03	150,09	0,04872	
19,10	-0,9443	150,03	150,09	0,04870	
19,12	-0,9443	149,95	150,09	0,04855	
19,14	-0,9443	149,96	150,09	0,04845	
19,16	-0,9443	150,04	150,09	0,04848	
19,18	-0,9443	150,08	150,09	0,04864	
19,20	-0,9443	150,07	150,09	0,04879	
19,22	-0,9443	150,01	150,09	0,04885	
19,24	-0,9443	149,92	150,09	0,04876	
19,26	-0,9443	149,91	150,09	0,04866	
19,28	-0,9443	150,03	150,09	0,04860	
19,30	-0,9443	150,06	150,09	0,04854	
19,32	-0,9443	150,09	150,09	0,04847	
19,34	-0,9443	150,09	150,09	0,04849	
19,36	-0,9443	150,02	150,09	0,04862	
19,38	-0,9443	150,00	150,09	0,04871	
19,40	-0,9443	150,03	150,09	0,04872	
19,42	-0,9443	150,04	150,09	0,04861	
19,44	-0,9443	150,01	150,09	0,04857	
19,46	-0,9443	150,01	150,09	0,04850	
19,48	-0,9443	150,09	150,09	0,04847	
19,50	-0,9443	150,19	150,09	0,04859	
19,52	-0,9443	150,25	150,09	0,04873	
19,54	-0,9443	150,21	150,09	0,04873	
19,56	-0,9443	150,20	150,09	0,04865	
19,58	-0,9443	150,19	150,09	0,04858	
19,60	-0,9443	150,10	150,09	0,04852	
19,62	-0,9443	150,07	150,09	0,04855	
19,64	-0,9443	150,04	150,09	0,04860	
19,66	-0,9443	150,04	150,09	0,04866	
19,68	-0,9443	150,10	150,09	0,04873	
19,70	-0,9443	150,18	150,09	0,04874	
19,72	-0,9443	150,20	150,09	0,04865	
19,74	-0,9443	150,17	150,09	0,04854	
19,76	-0,9443	150,13	150,09	0,04846	
19,78	-0,9443	150,07	150,09	0,04849	
19,80	-0,9443	150,07	150,09	0,04861	
19,82	-0,9443	150,14	150,09	0,04869	
19,84	-0,9443	150,13	150,09	0,04871	
19,86	-0,9443	150,05	150,09	0,04874	
19,88	-0,9443	150,03	150,09	0,04861	
19,90	-0,9443	150,08	150,09	0,04849	
19,92	-0,9443	150,12	150,09	0,04851	
19,94	-0,9443	150,15	150,09	0,04861	
19,96	-0,9443	150,15	150,09	0,04865	
19,98	-0,9443	150,12	150,09	0,04873	
20,00	-0,9443	150,14	150,09	0,04885	
20,02	-0,9443	150,15	150,09	0,04879	
20,04	-0,9443	150,10	150,09	0,04862	
20,06	-0,9443	150,05	150,09	0,04851	
20,08	-0,9443	150,03	150,09	0,04855	
20,10	-0,9443	150,07	150,09	0,04867	
20,12	-0,9443	150,12	150,09	0,04875	
20,14	-0,9443	150,13	150,09	0,04877	
20,16	-0,9443	150,12	150,09	0,04875	
20,18	-0,9443	150,11	150,09	0,04869	
20,20	-0,9443	150,13	150,09	0,04866	
20,22	-0,9443	150,21	150,09	0,04859	
20,24	-0,9443	150,22	150,09	0,04856	
20,26	-0,9443	150,16	150,09	0,04863	
20,28	-0,9443	150,16	150,09	0,04871	
20,30	-0,9443	150,18	150,09	0,04873	
20,32	-0,9443	150,16	150,09	0,04870	
20,34	-0,9443	150,12	150,09	0,04861	
20,36	-0,9443	150,07	150,09	0,04858	
20,38	-0,9443	150,03	150,09	0,04860	
20,40	-0,9443	150,03	150,09	0,04866	
20,42	-0,9443	150,08	150,09	0,04876	
20,44	-0,9443	150,12	150,09	0,04882	
20,46	-0,9443	150,15	150,09	0,04878	
20,48	-0,9443	150,18	150,09	0,04865	
20,50	-0,9443	150,18	150,09	0,04856	
20,52	-0,9443	150,21	150,09	0,04854	
20,54	-0,9443	150,21	150,09	0,04856	
20,56	-0,9443	150,16	150,09	0,04867	
20,58	-0,9443	150,16	150,09	0,04881	
20,60	-0,9443	150,16	150,09	0,04881	
20,62	-0,9443	150,12	150,09	0,04875	
20,64	-0,9443	150,08	150,09	0,04862	
20,66	-0,9443	150,01	150,09	0,04856	
20,68	-0,9443	149,95	150,09	0,04854	
20,70	-0,9443	149,92	150,09	0,04857	
20,72	-0,9443	149,94	150,09	0,04869	
20,74	-0,9443	149,97	150,09	0,04879	
20,76	-0,9443	149,98	150,09	0,04877	
20,78	-0,9443	149,94	150,09	0,04868	
20,80	-0,9443	149,94	150,09	0,04865	
20,82	-0,9443	149,97	150,09	0,04861	
20,84	-0,9443	149,96	150,09	0,04864	
20,86	-0,9443	149,92	150,09	0,04866	
20,88	-0,9443	149,99	150,09	0,04869	
20,90	-0,9443	150,07	150,09	0,04878	
20,92	-0,9443	150,04	150,09	0,04875	
20,94	-0,9443	150,03	150,09	0,04861	
20,96	-0,9443	150,07	150,09	0,04850	
20,98	-0,9443	150,11	150,09	0,04851	
21,00	-0,9443	150,12	150,09	0,04859	
21,02	-0,9443	150,12	150,09	0,04869	
21,04	-0,9443	150,15	150,09	0,04877	
21,06	-0,9443	150,14	150,09	0,04882	
21,08	-0,9443	150,09	150,09	0,04876	
21,10	-0,9443	150,02	150,09	0,04863	
21,12	-0,9443	150,01	150,09	0,04859	
21,14	-0,9443	150,04	150,09	0,04863	
21,16	-0,9443	150,08	150,09	0,04867	
21,18	-0,9443	150,05	150,09	0,04879	
21,20	-0,9443	149,99	150,09	0,04886	
21,22	-0,9443	150,02	150,09	0,04885	
21,24	-0,9443	150,09	150,09	0,04875	
21,26	-0,9443	150,13	150,09	0,04866	
21,28	-0,9443	150,08	150,09	0,04864	
21,30	-0,9443	150,04	150,09	0,04866	
21,32	-0,9443	150,05	150,09	0,04868	
21,34	-0,9443	150,01	150,09	0,04870	
21,36	-0,9443	150,02	150,09	0,04872	
21,38	-0,9443	150,06	150,09	0,04867	
21,40	-0,9443	150,02	150,09	0,04859	
21,42	-0,9443	150,02	150,09	0,04852	
21,44	-0,9443	150,03	150,09	0,04857	
21,46	-0,9443	149,97	150,09	0,04863	
21,48	-0,9443	149,94	150,09	0,04872	
21,50	-0,9443	149,96	150,09	0,04881	
21,52	-0,9443	149,98	150,09	0,04884	
21,54	-0,9443	149,97	150,09	0,04874	
21,56	-0,9443	150,02	150,09	0,04859	
21,58	-0,9443	150,09	150,09	0,04852	
21,60	-0,9443	150,11	150,09	0,04854	
21,62	-0,9443	150,16	150,09	0,04863	
21,64	-0,9443	150,15	150,09	0,04875	
21,66	-0,9443	150,10	150,09	0,04877	
21,68	-0,9443	150,09	150,09	0,04876	
21,70	-0,9443	150,11	150,09	0,04870	
21,72	-0,9443	150,09	150,09	0,04862	
21,74	-0,9443	150,08	150,09	0,04862	
21,76	-0,9443	150,07	150,09	0,04867	
21,78	-0,9443	150,08	150,09	0,04874	
21,80	-0,9443	150,11	150,09	0,04880	
21,82	-0,9443	150,13	150,09	0,04879	
21,84	-0,9443	150,10	150,09	0,04880	
21,86	-0,9443	150,10	150,09	0,04874	
21,88	-0,9443	150,14	150,09	0,04863	
21,90	-0,9443	150,23	150,09	0,04857	
21,92	-0,9443	150,25	150,09	0,04861	
21,94	-0,9443	150,14	150,09	0,04875	
21,96	-0,9443	150,05	150,09	0,04885	
21,98	-0,9443	150,08	150,09	0,04882	
22,00	-0,9443	150,10	150,09	0,04874	
22,02	-0,9443	150,08	150,09	0,04861	
22,04	-0,9443	150,05	150,09	0,04852	
22,06	-0,9443	150,08	150,09	0,04853	
22,08	-0,9443	150,08	150,09	0,04868	
22,10	-0,9443	150,04	150,09	0,04879	
22,12	-0,9443	150,03	150,09	0,04875	
22,14	-0,9443	150,08	150,09	0,04872	
22,16	-0,9443	150,11	150,09	0,04866	
22,18	-0,9443	150,09	150,09	0,04861	
22,20	-0,9443	150,06	150,09	0,04857	
22,22	-0,9443	150,07	150,09	0,04854	
22,24	-0,9443	150,05	150,09	0,04861	
22,26	-0,9443	150,02	150,09	0,04871	
22,28	-0,9443	150,01	150,09	0,04875	
22,30	-0,9443	150,04	150,09	0,04877	
22,32	-0,9443	150,11	150,09	0,04867	
22,34	-0,9443	150,16	150,09	0,04856	
22,36	-0,9443	150,11	150,09	0,04856	
22,38	-0,9443	150,02	150,09	0,04867	
22,40	-0,9443	150,04	150,09	0,04875	
22,42	-0,9443	150,06	150,09	0,04880	
22,44	-0,9443	149,98	150,09	0,04883	
22,46	-0,9443	149,97	150,09	0,04878	
22,48	-0,9443	149,99	150,09	0,04865	
22,50	-0,9443	150,00	150,09	0,04854	
22,52	-0,9443	150,05	150,09	0,04855	
22,54	-0,9443	150,11	150,09	0,04863	
22,56	-0,9443	150,15	150,09	0,04870	
22,58	-0,9443	150,12	150,09	0,04870	
22,60	-0,9443	150,13	150,09	0,04870	
22,62	-0,9443	150,17	150,09	0,04867	
22,64	-0,9443	150,14	150,09	0,04859	
22,66	-0,9443	150,10	150,09	0,04855	
22,68	-0,9443	150,14	150,09	0,04859	
22,70	-0,9443	150,20	150,09	0,04869	
22,72	-0,9443	150,20	150,09	0,04875	
22,74	-0,9446	151,75	150,14	0,04870	
22,76	-0,9446	148,01	150,15	0,04794	
22,78	-0,9440	113,60	150,04	0,04747	
22,80	-0,9440	68,46	150,04	0,04760	
22,82	-0,9442	30,85	150,08	0,04778	
22,84	-0,9431	4,937	150,09	0,04795	
22,86	-0,9389	-6,205	150,09	0,04808	
22,88	-0,9327	17,17	150,09	0,04814	
22,90	-0,9273	60,59	150,09	0,04815	
22,92	-0,9236	101,04	150,09	0,04807	
22,94	-0,9217	129,52	150,09	0,04791	
22,96	-0,9209	146,82	150,09	0,04793	
22,98	-0,9208	155,81	150,09	0,04806	
23,00	-0,9208	159,41	150,09	0,04820	
23,02	-0,9210	160,25	150,09	0,04829	
23,04	-0,9213	159,80	150,09	0,04828	
23,06	-0,9214	158,27	150,09	0,04817	
23,08	-0,9217	157,15	150,09	0,04798	
23,10	-0,9219	156,76	150,09	0,04796	
23,12	-0,9221	155,77	150,09	0,04801	
23,14	-0,9223	154,28	150,09	0,04812	
23,16	-0,9226	153,50	150,09	0,04820	
23,18	-0,9228	153,48	150,09	0,04826	
23,20	-0,9228	153,59	150,09	0,04829	
23,22	-0,9228	153,48	150,09	0,04818	
23,24	-0,9229	152,38	150,09	0,04808	
23,26	-0,9232	150,94	150,09	0,04810	
23,28	-0,9234	150,31	150,09	0,04818	
23,30	-0,9235	150,20	150,09	0,04827	
23,32	-0,9235	150,22	150,09	0,04831	
23,34	-0,9235	150,17	150,09	0,04834	
23,36	-0,9235	150,17	150,09	0,04830	
23,38	-0,9235	150,16	150,09	0,04822	
23,40	-0,9235	150,09	150,09	0,04812	
23,42	-0,9235	150,05	150,09	0,04809	
23,44	-0,9235	150,15	150,09	0,04814	
23,46	-0,9235	150,15	150,09	0,04825	
23,48	-0,9235	150,13	150,09	0,04843	
23,50	-0,9235	150,17	150,09	0,04843	
23,52	-0,9235	150,15	150,09	0,04831	
23,54	-0,9235	150,15	150,09	0,04816	
23,56	-0,9235	150,14	150,09	0,04812	
23,58	-0,9235	150,14	150,09	0,04816	
23,60	-0,9235	150,09	150,09	0,04822	
23,62	-0,9235	150,12	150,09	0,04831	
23,64	-0,9235	150,11	150,09	0,04834	
23,66	-0,9239	150,10	150,09	0,04828	
23,68	-0,9241	150,13	150,09	0,04817	
23,70	-0,9242	150,09	150,09	0,04812	
23,72	-0,9242	150,10	150,09	0,04814	
23,74	-0,9242	150,11	150,09	0,04819	
23,76	-0,9242	150,09	150,09	0,04829	
23,78	-0,9242	150,07	150,09	0,04836	
23,80	-0,9242	150,10	150,09	0,04841	
23,82	-0,9242	150,05	150,09	0,04837	
23,84	-0,9242	150,00	150,09	0,04823	
23,86	-0,9242	150,10	150,09	0,04815	
23,88	-0,9242	150,17	150,09	0,04815	
23,90	-0,9242	150,16	150,09	0,04825	
23,92	-0,9242	150,17	150,09	0,04833	
23,94	-0,9241	150,18	150,09	0,04836	
23,96	-0,9241	150,16	150,09	0,04835	
23,98	-0,9241	150,12	150,09	0,04831	
24,00	-0,9241	150,05	150,09	0,04822	
24,02	-0,9241	149,95	150,09	0,04819	
24,04	-0,9241	149,98	150,09	0,04823	
24,06	-0,9241	150,05	150,09	0,04830	
24,08	-0,9241	150,06	150,09	0,04839	
24,10	-0,9241	150,06	150,09	0,04845	
24,12	-0,9241	150,08	150,09	0,04843	
24,14	-0,9243	150,07	150,09	0,04832	
24,16	-0,9246	150,09	150,09	0,04820	
24,18	-0,9248	150,19	150,09	0,04824	
24,20	-0,9248	150,23	150,09	0,04831	
24,22	-0,9248	150,27	150,09	0,04832	
24,24	-0,9248	150,31	150,09	0,04832	
24,26	-0,9248	150,29	150,09	0,04837	
24,28	-0,9248	150,17	150,09	0,04836	
24,30	-0,9248	150,13	150,09	0,04822	
24,32	-0,9248	150,11	150,09	0,04818	
24,34	-0,9248	150,11	150,09	0,04828	
24,36	-0,9248	150,08	150,09	0,04839	
24,38	-0,9248	150,06	150,09	0,04845	
24,40	-0,9248	150,16	150,09	0,04847	
24,42	-0,9248	150,16	150,09	0,04841	
24,44	-0,9248	150,15	150,09	0,04828	
24,46	-0,9248	150,20	150,09	0,04823	
24,48	-0,9248	150,15	150,09	0,04825	
24,50	-0,9248	150,02	150,09	0,04830	
24,52	-0,9248	149,96	150,09	0,04838	
24,54	-0,9248	149,97	150,09	0,04845	
24,56	-0,9248	149,99	150,09	0,04846	
24,58	-0,9248	150,02	150,09	0,04837	
24,60	-0,9248	150,05	150,09	0,04827	
24,62	-0,9248	150,06	150,09	0,04828	
24,64	-0,9248	150,03	150,09	0,04833	
24,66	-0,9248	150,08	150,09	0,04841	
24,68	-0,9248	150,02	150,09	0,04849	
24,70	-0,9248	150,02	150,09	0,04850	
24,72	-0,9248	150,07	150,09	0,04841	
24,74	-0,9248	150,05	150,09	0,04837	
24,76	-0,9248	149,99	150,09	0,04832	
24,78	-0,9248	149,94	150,09	0,04828	
24,80	-0,9248	149,92	150,09	0,04835	
24,82	-0,9248	149,98	150,09	0,04842	
24,84	-0,9248	150,09	150,09	0,04851	
24,86	-0,9248	150,04	150,09	0,04855	
24,88	-0,9248	150,01	150,09	0,04848	
24,90	-0,9248	150,11	150,09	0,04835	
24,92	-0,9250	150,15	150,09	0,04823	
24,94	-0,9253	150,22	150,09	0,04830	
24,96	-0,9255	150,18	150,09	0,04837	
24,98	-0,9255	150,09	150,09	0,04846	
25,00	-0,9255	150,06	150,09	0,04855	
25,02	-0,9255	150,08	150,09	0,04853	
25,04	-0,9255	150,16	150,09	0,04842	
25,06	-0,9255	150,17	150,09	0,04831	
25,08	-0,9255	150,17	150,09	0,04828	
25,10	-0,9255	150,16	150,09	0,04834	
25,12	-0,9255	150,19	150,09	0,04848	
25,14	-0,9255	150,21	150,09	0,04862	
25,16	-0,9255	150,16	150,09	0,04867	
25,18	-0,9255	150,13	150,09	0,04859	
25,20	-0,9255	150,15	150,09	0,04847	
25,22	-0,9255	150,17	150,09	0,04837	
25,24	-0,9255	150,14	150,09	0,04834	
25,26	-0,9255	150,13	150,09	0,04833	
25,28	-0,9255	150,10	150,09	0,04841	
25,30	-0,9255	150,03	150,09	0,04854	
25,32	-0,9255	150,10	150,09	0,04846	
25,34	-0,9255	150,19	150,09	0,04835	
25,36	-0,9255	150,17	150,09	0,04826	
25,38	-0,9255	150,13	150,09	0,04826	
25,40	-0,9255	150,16	150,09	0,04835	
25,42	-0,9255	150,13	150,09	0,04848	
25,44	-0,9255	150,06	150,09	0,04864	
25,46	-0,9255	149,99	150,09	0,04866	
25,48	-0,9255	150,00	150,09	0,04848	
25,50	-0,9255	150,02	150,09	0,04833	
25,52	-0,9255	150,03	150,09	0,04830	
25,54	-0,9255	150,01	150,09	0,04832	
25,56	-0,9255	150,03	150,09	0,04837	
25,58	-0,9255	150,09	150,09	0,04848	
25,60	-0,9255	150,14	150,09	0,04857	
25,62	-0,9254	150,08	150,09	0,04855	
25,64	-0,9255	150,06	150,09	0,04843	
25,66	-0,9255	150,08	150,09	0,04831	
25,68	-0,9255	150,02	150,09	0,04833	
25,70	-0,9255	150,00	150,09	0,04836	
25,72	-0,9255	150,02	150,09	0,04847	
25,74	-0,9255	149,97	150,09	0,04855	
25,76	-0,9255	149,92	150,09	0,04856	
25,78	-0,9255	149,89	150,09	0,04853	
25,80	-0,9255	150,01	150,09	0,04842	
25,82	-0,9255	150,01	150,09	0,04834	
25,84	-0,9255	149,93	150,09	0,04832	
25,86	-0,9255	149,96	150,09	0,04832	
25,88	-0,9255	149,95	150,09	0,04844	
25,90	-0,9255	149,96	150,09	0,04859	
25,92	-0,9258	149,99	150,09	0,04863	
25,94	-0,9261	150,01	150,09	0,04858	
25,96	-0,9262	149,96	150,09	0,04845	
25,98	-0,9262	149,99	150,09	0,04829	
26,00	-0,9262	150,10	150,09	0,04832	
26,02	-0,9262	150,15	150,09	0,04844	
26,04	-0,9262	150,14	150,09	0,04852	
26,06	-0,9262	150,11	150,09	0,04856	
26,08	-0,9262	150,05	150,09	0,04863	
26,10	-0,9262	150,08	150,09	0,04858	
26,12	-0,9262	150,10	150,09	0,04839	
26,14	-0,9262	150,05	150,09	0,04828	
26,16	-0,9261	150,02	150,09	0,04830	
26,18	-0,9261	150,10	150,09	0,04842	
26,20	-0,9262	150,06	150,09	0,04857	
26,22	-0,9262	149,12	150,09	0,04869	
26,24	-0,9261	148,60	150,09	0,04864	
26,26	-0,9261	149,36	150,09	0,04847	
26,28	-0,9261	149,94	150,09	0,04831	
26,30	-0,9261	150,06	150,09	0,04830	
26,32	-0,9262	150,06	150,09	0,04838	
26,34	-0,9262	149,98	150,09	0,04842	
26,36	-0,9262	149,96	150,09	0,04853	
26,38	-0,9262	150,01	150,09	0,04867	
26,40	-0,9261	150,05	150,09	0,04866	
26,42	-0,9262	150,10	150,09	0,04854	
26,44	-0,9262	150,11	150,09	0,04839	
26,46	-0,9262	150,11	150,09	0,04831	
26,48	-0,9262	150,12	150,09	0,04837	
26,50	-0,9262	150,06	150,09	0,04852	
26,52	-0,9262	150,08	150,09	0,04860	
26,54	-0,9262	150,13	150,09	0,04857	
26,56	-0,9262	150,05	150,09	0,04845	
26,58	-0,9262	149,99	150,09	0,04833	
26,60	-0,9262	150,06	150,09	0,04837	
26,62	-0,9262	150,07	150,09	0,04853	
26,64	-0,9261	150,07	150,09	0,04861	
26,66	-0,9261	150,09	150,09	0,04867	
26,68	-0,9262	150,13	150,09	0,04865	
26,70	-0,9261	150,10	150,09	0,04859	
26,72	-0,9261	150,06	150,09	0,04847	
26,74	-0,9262	150,10	150,09	0,04832	
26,76	-0,9261	150,15	150,09	0,04826	
26,78	-0,9261	150,13	150,09	0,04832	
26,80	-0,9262	150,09	150,09	0,04845	
26,82	-0,9262	150,03	150,09	0,04857	
26,84	-0,9262	150,02	150,09	0,04861	
26,86	-0,9262	150,10	150,09	0,04853	
26,88	-0,9265	150,11	150,09	0,04842	
26,90	-0,9267	150,11	150,09	0,04833	
26,92	-0,9268	150,17	150,09	0,04837	
26,94	-0,9268	150,11	150,09	0,04846	
26,96	-0,9268	150,07	150,09	0,04852	
26,98	-0,9269	150,07	150,09	0,04863	
27,00	-0,9269	150,09	150,09	0,04864	
27,02	-0,9269	150,07	150,09	0,04854	
27,04	-0,9268	150,10	150,09	0,04842	
27,06	-0,9268	150,08	150,09	0,04835	
27,08	-0,9268	150,01	150,09	0,04837	
27,10	-0,9268	149,96	150,09	0,04850	
27,12	-0,9268	149,98	150,09	0,04859	
27,14	-0,9268	150,04	150,09	0,04861	
27,16	-0,9268	150,06	150,09	0,04848	
27,18	-0,9268	150,04	150,09	0,04836	
27,20	-0,9268	149,96	150,09	0,04839	
27,22	-0,9269	150,00	150,09	0,04843	
27,24	-0,9269	150,07	150,09	0,04846	
27,26	-0,9269	150,09	150,09	0,04851	
27,28	-0,9268	150,05	150,09	0,04856	
27,30	-0,9268	150,07	150,09	0,04850	
27,32	-0,9268	150,02	150,09	0,04839	
27,34	-0,9268	149,99	150,09	0,04838	
27,36	-0,9268	150,03	150,09	0,04842	
27,38	-0,9268	150,01	150,09	0,04847	
27,40	-0,9268	149,98	150,09	0,04851	
27,42	-0,9268	149,96	150,09	0,04858	
27,44	-0,9268	149,96	150,09	0,04863	
27,46	-0,9268	149,98	150,09	0,04855	
27,48	-0,9268	150,03	150,09	0,04846	
27,50	-0,9268	150,01	150,09	0,04840	
27,52	-0,9268	149,98	150,09	0,04834	
27,54	-0,9268	149,93	150,09	0,04843	
27,56	-0,9268	149,90	150,09	0,04860	
27,58	-0,9268	149,89	150,09	0,04870	
27,60	-0,9268	149,93	150,09	0,04867	
27,62	-0,9268	150,03	150,09	0,04851	
27,64	-0,9268	150,03	150,09	0,04843	
27,66	-0,9268	149,97	150,09	0,04844	
27,68	-0,9270	149,94	150,09	0,04847	
27,70	-0,9273	150,00	150,09	0,04853	
27,72	-0,9275	150,11	150,09	0,04863	
27,74	-0,9275	150,09	150,09	0,04869	
27,76	-0,9275	150,03	150,09	0,04867	
27,78	-0,9275	150,07	150,09	0,04856	
27,80	-0,9275	150,09	150,09	0,04843	
27,82	-0,9275	150,03	150,09	0,04842	
27,84	-0,9275	150,06	150,09	0,04845	
27,86	-0,9275	150,07	150,09	0,04851	
27,88	-0,9275	150,02	150,09	0,04863	
27,90	-0,9275	150,03	150,09	0,04865	
27,92	-0,9275	150,05	150,09	0,04858	
27,94	-0,9275	149,99	150,09	0,04845	
27,96	-0,9275	149,95	150,09	0,04837	
27,98	-0,9275	149,92	150,09	0,04840	
28,00	-0,9275	149,80	150,09	0,04843	
28,02	-0,9275	149,80	150,09	0,04851	
28,04	-0,9275	149,86	150,09	0,04862	
28,06	-0,9275	149,90	150,09	0,04866	
28,08	-0,9275	149,91	150,09	0,04857	
28,10	-0,9275	149,90	150,09	0,04842	
28,12	-0,9275	149,92	150,09	0,04837	
28,14	-0,9275	149,99	150,09	0,04845	
28,16	-0,9275	150,02	150,09	0,04862	
28,18	-0,9275	150,06	150,09	0,04871	
28,20	-0,9275	150,11	150,09	0,04868	
28,22	-0,9275	150,05	150,09	0,04865	
28,24	-0,9275	150,03	150,09	0,04860	
28,26	-0,9275	150,01	150,09	0,04850	
28,28	-0,9275	150,03	150,09	0,04846	
28,30	-0,9275	150,01	150,09	0,04850	
28,32	-0,9275	150,04	150,09	0,04862	
28,34	-0,9275	150,07	150,09	0,04868	
28,36	-0,9275	150,05	150,09	0,04866	
28,38	-0,9275	150,06	150,09	0,04854	
28,40	-0,9275	150,02	150,09	0,04844	
28,42	-0,9275	149,99	150,09	0,04845	
28,44	-0,9275	149,98	150,09	0,04846	
28,46	-0,9275	150,01	150,09	0,04853	
28,48	-0,9275	149,99	150,09	0,04867	
28,50	-0,9275	149,99	150,09	0,04870	
28,52	-0,9275	150,01	150,09	0,04868	
28,54	-0,9275	149,96	150,09	0,04855	
28,56	-0,9275	149,93	150,09	0,04842	
28,58	-0,9275	149,97	150,09	0,04840	
28,60	-0,9275	150,01	150,09	0,04847	
28,62	-0,9275	150,02	150,09	0,04859	
28,64	-0,9275	150,09	150,09	0,04867	
28,66	-0,9275	150,07	150,09	0,04873	
28,68	-0,9275	150,06	150,09	0,04869	
28,70	-0,9275	149,99	150,09	0,04853	
28,72	-0,9275	149,90	150,09	0,04843	
28,74	-0,9275	149,93	150,09	0,04843	
28,76	-0,9275	150,03	150,09	0,04848	
28,78	-0,9275	150,05	150,09	0,04861	
28,80	-0,9275	150,04	150,09	0,04869	
28,82	-0,9275	149,96	150,09	0,04868	
28,84	-0,9275	149,88	150,09	0,04862	
28,86	-0,9275	149,92	150,09	0,04858	
28,88	-0,9275	149,98	150,09	0,04853	
28,90	-0,9275	149,95	150,09	0,04851	
28,92	-0,9275	150,00	150,09	0,04855	
28,94	-0,9277	150,04	150,09	0,04864	
28,96	-0,9280	149,99	150,09	0,04869	
28,98	-0,9281	149,96	150,09	0,04864	
29,00	-0,9282	150,00	150,09	0,04857	
29,02	-0,9282	150,03	150,09	0,04852	
29,04	-0,9281	150,02	150,09	0,04853	
29,06	-0,9282	150,03	150,09	0,04850	
29,08	-0,9282	149,96	150,09	0,04851	
29,10	-0,9281	149,90	150,09	0,04861	
29,12	-0,9281	149,95	150,09	0,04869	
29,14	-0,9281	149,96	150,09	0,04868	
29,16	-0,9282	149,94	150,09	0,04859	
29,18	-0,9281	149,93	150,09	0,04846	
29,20	-0,9282	149,92	150,09	0,04839	
29,22	-0,9281	149,90	150,09	0,04841	
29,24	-0,9281	149,92	150,09	0,04856	
29,26	-0,9282	149,93	150,09	0,04868	
29,28	-0,9282	149,99	150,09	0,04875	
29,30	-0,9282	150,00	150,09	0,04871	
29,32	-0,9282	150,03	150,09	0,04858	
29,34	-0,9282	150,01	150,10	0,04848	
29,36	-0,9282	149,90	150,10	0,04844	
29,38	-0,9282	149,87	150,10	0,04855	
29,40	-0,9281	149,87	150,10	0,04865	
29,42	-0,9281	149,92	150,10	0,04868	
29,44	-0,9281	149,90	150,10	0,04868	
29,46	-0,9281	149,82	150,10	0,04857	
29,48	-0,9282	149,90	150,10	0,04849	
29,50	-0,9282	149,95	150,10	0,04846	
29,52	-0,9282	149,91	150,09	0,04848	
29,54	-0,9282	149,94	150,09	0,04857	
29,56	-0,9282	149,94	150,09	0,04865	
29,58	-0,9282	149,90	150,09	0,04869	
29,60	-0,9282	149,95	150,09	0,04862	
29,62	-0,9282	149,94	150,09	0,04854	
29,64	-0,9282	149,92	150,09	0,04849	
29,66	-0,9282	149,95	150,09	0,04850	
29,68	-0,9282	149,94	150,09	0,04850	
29,70	-0,9282	149,88	150,09	0,04854	
29,72	-0,9282	149,94	150,09	0,04862	
29,74	-0,9282	149,99	150,09	0,04866	
29,76	-0,9282	149,96	150,09	0,04863	
29,78	-0,9282	149,88	150,09	0,04848	
29,80	-0,9282	149,93	150,09	0,04841	
29,82	-0,9282	149,98	150,09	0,04848	
29,84	-0,9282	149,89	150,09	0,04861	
29,86	-0,9282	149,91	150,09	0,04868	
29,88	-0,9281	149,91	150,09	0,04867	
29,90	-0,9281	149,93	150,09	0,04868	
29,92	-0,9282	149,95	150,09	0,04865	
29,94	-0,9282	149,91	150,09	0,04854	
29,96	-0,9281	149,83	150,09	0,04846	
29,98	-0,9282	149,84	150,09	0,04843	
30,00	-0,9282	149,94	150,09	0,04850	
30,02	-0,9282	149,84	150,09	0,04864	
30,04	-0,9282	149,76	150,09	0,04871	
30,06	-0,9282	149,85	150,09	0,04870	
30,08	-0,9282	149,90	150,09	0,04860	
30,10	-0,9282	149,95	150,09	0,04848	
30,12	-0,9282	150,03	150,09	0,04847	
30,14	-0,9282	150,01	150,09	0,04853	
30,16	-0,9282	149,92	150,09	0,04860	
30,18	-0,9282	149,86	150,09	0,04870	
30,20	-0,9282	149,86	150,09	0,04873	
30,22	-0,9282	149,91	150,09	0,04868	
30,24	-0,9282	149,94	150,09	0,04854	
30,26	-0,9282	149,97	150,09	0,04838	
30,28	-0,9282	149,99	150,09	0,04836	
30,30	-0,9282	149,93	150,09	0,04841	
30,32	-0,9282	149,95	150,09	0,04844	
30,34	-0,9282	150,03	150,09	0,04855	
30,36	-0,9282	150,06	150,09	0,04862	
30,38	-0,9282	150,02	150,09	0,04856	
30,40	-0,9282	150,00	150,09	0,04849	
30,42	-0,9285	149,97	150,09	0,04842	
30,44	-0,9287	149,92	150,09	0,04842	
30,46	-0,9288	149,91	150,09	0,04852	
30,48	-0,9288	149,89	150,09	0,04857	
30,50	-0,9288	149,84	150,09	0,04861	
30,52	-0,9288	149,89	150,09	0,04863	
30,54	-0,9288	149,98	150,09	0,04859	
30,56	-0,9288	149,94	150,09	0,04855	
30,58	-0,9288	149,93	150,09	0,04850	
30,60	-0,9288	149,96	150,10	0,04847	
30,62	-0,9288	149,94	150,10	0,04851	
30,64	-0,9288	149,95	150,10	0,04861	
30,66	-0,9288	150,01	150,10	0,04871	
30,68	-0,9288	149,67	150,10	0,04871	
30,70	-0,9288	149,14	150,10	0,04867	
30,72	-0,9288	149,44	150,10	0,04861	
30,74	-0,9288	149,51	150,10	0,04850	
30,76	-0,9288	148,57	150,09	0,04845	
30,78	-0,9288	148,86	150,09	0,04857	
30,80	-0,9288	149,68	150,09	0,04867	
30,82	-0,9288	150,07	150,09	0,04873	
30,84	-0,9288	150,10	150,09	0,04871	
30,86	-0,9288	150,02	150,09	0,04858	
30,88	-0,9288	150,05	150,09	0,04846	
30,90	-0,9288	150,06	150,09	0,04841	
30,92	-0,9290	150,66	150,11	0,04844	
30,94	-0,9291	149,61	150,13	0,04844	
30,96	-0,9290	140,50	150,11	0,04843	
30,98	-0,9289	127,42	150,10	0,04849	
31,00	-0,9289	114,90	150,10	0,04860	
31,02	-0,9286	102,52	150,10	0,04865	
31,04	-0,9277	90,86	150,10	0,04854	
31,06	-0,9262	85,32	150,09	0,04840	
31,08	-0,9246	83,71	150,09	0,04836	
31,10	-0,9230	83,14	150,09	0,04842	
31,12	-0,9213	83,82	150,09	0,04850	
31,14	-0,9196	86,12	150,09	0,04863	
31,16	-0,9180	89,64	150,09	0,04869	
31,18	-0,9163	93,88	150,09	0,04864	
31,20	-0,9146	97,74	150,09	0,04859	
31,22	-0,9131	100,88	150,09	0,04854	
31,24	-0,9119	102,47	150,09	0,04853	
31,26	-0,9109	101,98	150,09	0,04855	
31,28	-0,9097	100,46	150,09	0,04860	
31,30	-0,9084	99,61	150,09	0,04867	
31,32	-0,9070	99,39	150,09	0,04874	
31,34	-0,9058	98,54	150,09	0,04870	
31,36	-0,9048	97,08	150,09	0,04853	
31,38	-0,9036	96,31	150,09	0,04839	
31,40	-0,9023	96,14	150,09	0,04840	
31,42	-0,9010	96,10	150,09	0,04846	
31,44	-0,8996	96,08	150,09	0,04858	
31,46	-0,8983	96,08	150,09	0,04873	
31,48	-0,8970	96,09	150,09	0,04873	
31,50	-0,8956	96,13	150,09	0,04860	
31,52	-0,8943	96,15	150,09	0,04850	
31,54	-0,8929	96,14	150,09	0,04852	
31,56	-0,8916	96,13	150,09	0,04855	
31,58	-0,8903	96,16	150,09	0,04859	
31,60	-0,8889	96,16	150,09	0,04868	
31,62	-0,8876	96,16	150,09	0,04871	
31,64	-0,8862	96,21	150,09	0,04870	
31,66	-0,8849	96,24	150,09	0,04873	
31,68	-0,8835	96,27	150,09	0,04928	
31,70	-0,8821	96,22	150,09	0,04985	
31,72	-0,8805	96,23	150,09	0,05016	
31,74	-0,8789	96,24	150,09	0,05028	
31,76	-0,8775	96,27	150,09	0,05036	
31,78	-0,8761	96,27	150,09	0,05038	
31,80	-0,8748	96,24	150,09	0,05031	
31,82	-0,8735	96,21	150,09	0,05020	
31,84	-0,8721	96,19	150,09	0,05014	
31,86	-0,8708	95,86	150,09	0,05014	
31,88	-0,8694	94,44	150,09	0,05028	
31,90	-0,8681	93,22	150,09	0,05001	
31,92	-0,8667	92,81	150,09	0,04928	
31,94	-0,8654	92,74	150,09	0,04882	
31,96	-0,8640	92,78	150,09	0,04863	
31,98	-0,8624	92,81	150,09	0,04854	
32,00	-0,8608	92,84	150,09	0,04856	
32,02	-0,8594	92,92	150,09	0,04859	
32,04	-0,8580	92,93	150,09	0,04875	
32,06	-0,8567	92,85	150,09	0,04884	
32,08	-0,8553	92,77	150,09	0,04881	
32,10	-0,8540	92,80	150,09	0,04874	
32,12	-0,8527	92,80	150,09	0,04858	
32,14	-0,8513	92,83	150,09	0,04847	
32,16	-0,8496	92,87	150,09	0,04850	
32,18	-0,8480	92,86	150,09	0,04859	
32,20	-0,8466	92,84	150,09	0,04869	
32,22	-0,8453	92,88	150,09	0,04874	
32,24	-0,8439	92,90	150,09	0,04871	
32,26	-0,8425	92,85	150,09	0,04873	
32,28	-0,8409	92,86	150,09	0,04862	
32,30	-0,8393	92,90	150,09	0,04850	
32,32	-0,8379	92,91	150,09	0,04850	
32,34	-0,8365	92,92	150,09	0,04860	
32,36	-0,8352	92,94	150,09	0,04870	
32,38	-0,8338	92,96	150,09	0,04873	
32,40	-0,8322	92,65	150,09	0,04874	
32,42	-0,8306	91,23	150,09	0,04867	
32,44	-0,8291	89,99	150,09	0,04858	
32,46	-0,8278	89,55	150,09	0,04852	
32,48	-0,8263	89,49	150,09	0,04860	
32,50	-0,8246	89,47	150,09	0,04874	
32,52	-0,8231	89,44	150,09	0,04881	
32,54	-0,8217	89,45	150,09	0,04878	
32,56	-0,8204	89,53	150,09	0,04876	
32,58	-0,8187	89,62	150,09	0,04863	
32,60	-0,8172	89,67	150,09	0,04853	
32,62	-0,8157	89,63	150,09	0,04852	
32,64	-0,8140	89,60	150,09	0,04860	
32,66	-0,8124	89,58	150,09	0,04871	
32,68	-0,8109	89,46	150,09	0,04880	
32,70	-0,8093	89,45	150,09	0,04880	
32,72	-0,8077	89,48	150,09	0,04874	
32,74	-0,8063	89,51	150,09	0,04858	
32,76	-0,8049	89,59	150,09	0,04840	
32,78	-0,8033	89,59	150,09	0,04840	
32,80	-0,8017	89,52	150,09	0,04853	
32,82	-0,8003	89,45	150,09	0,04869	
32,84	-0,7987	89,44	150,09	0,04876	
32,86	-0,7971	89,47	150,09	0,04874	
32,88	-0,7956	89,52	150,09	0,04863	
32,90	-0,7940	89,58	150,09	0,04847	
32,92	-0,7924	88,73	150,09	0,04840	
32,94	-0,7909	87,20	150,09	0,04851	
32,96	-0,7893	86,38	150,09	0,04867	
32,98	-0,7877	86,16	150,09	0,04875	
33,00	-0,7861	86,20	150,29	0,04871	
33,02	-0,7845	86,28	151,48	0,04866	
33,04	-0,7829	86,33	153,13	0,04854	
33,06	-0,7813	86,34	154,30	0,04846	
33,08	-0,7797	86,36	155,03	0,04850	
33,10	-0,7781	86,40	155,92	0,04864	
33,12	-0,7764	86,43	157,05	0,04879	
33,14	-0,7748	86,42	158,78	0,04879	
33,16	-0,7732	86,29	160,83	0,04879	
33,18	-0,7716	86,25	162,75	0,04876	
33,20	-0,7700	86,29	164,45	0,04868	
33,22	-0,7684	86,34	165,78	0,04858	
33,24	-0,7668	86,33	167,27	0,04857	
33,26	-0,7652	86,08	169,00	0,04867	
33,28	-0,7635	85,55	170,39	0,04881	
33,30	-0,7618	85,80	171,55	0,04890	
33,32	-0,7601	85,90	172,56	0,04888	
33,34	-0,7585	84,62	173,50	0,04874	
33,36	-0,7568	84,16	174,54	0,04867	
33,38	-0,7551	84,30	175,96	0,04857	
33,40	-0,7535	83,59	177,55	0,04854	
33,42	-0,7518	82,93	179,25	0,04865	
33,44	-0,7501	82,72	180,90	0,04881	
33,46	-0,7484	82,75	182,51	0,04888	
33,48	-0,7467	82,77	183,94	0,04882	
33,50	-0,7450	82,75	185,29	0,04868	
33,52	-0,7433	82,75	186,74	0,04857	
33,54	-0,7415	82,77	188,27	0,04855	
33,56	-0,7398	82,77	189,66	0,04861	
33,58	-0,7381	82,81	191,05	0,04868	
33,60	-0,7365	82,83	192,46	0,04880	
33,62	-0,7348	82,55	193,75	0,04885	
33,64	-0,7330	81,14	195,13	0,04877	
33,66	-0,7313	79,88	196,57	0,04859	
33,68	-0,7296	79,49	198,02	0,04851	
33,70	-0,7279	79,50	199,46	0,04851	
33,72	-0,7261	79,53	200,90	0,04859	
33,74	-0,7243	79,54	202,33	0,04869	
33,76	-0,7225	79,55	203,67	0,04876	
33,78	-0,7207	79,51	204,95	0,04875	
33,80	-0,7189	79,49	206,28	0,04867	
33,82	-0,7172	79,51	207,76	0,04858	
33,84	-0,7154	79,47	209,28	0,04853	
33,86	-0,7136	79,44	210,73	0,04861	
33,88	-0,7118	79,37	212,09	0,04875	
33,90	-0,7100	79,36	213,47	0,04882	
33,92	-0,7082	79,40	214,83	0,04885	
33,94	-0,7064	79,47	216,20	0,04878	
33,96	-0,7046	79,49	217,63	0,04866	
33,98	-0,7028	79,48	219,06	0,04854	
34,00	-0,7011	79,48	220,52	0,04850	
34,02	-0,6993	79,49	221,94	0,04861	
34,04	-0,6975	79,52	223,36	0,04877	
34,06	-0,6957	79,51	224,82	0,04887	
34,08	-0,6939	79,45	226,28	0,04884	
34,10	-0,6921	79,40	227,73	0,04865	
34,12	-0,6902	79,36	229,15	0,04857	
34,14	-0,6883	78,55	230,56	0,04859	
34,16	-0,6865	77,09	232,00	0,04868	
34,18	-0,6845	76,28	233,51	0,04873	
34,20	-0,6827	76,12	235,00	0,04880	
34,22	-0,6809	76,13	236,42	0,04883	
34,24	-0,6790	76,12	237,79	0,04875	
34,26	-0,6771	76,07	239,19	0,04862	
34,28	-0,6751	76,08	240,64	0,04858	
34,30	-0,6732	76,66	242,06	0,04857	
34,32	-0,6713	76,82	243,48	0,04867	
34,34	-0,6695	76,40	244,95	0,04878	
34,36	-0,6677	76,12	246,45	0,04880	
34,38	-0,6659	76,09	247,96	0,04874	
34,40	-0,6639	75,82	249,45	0,04865	
34,42	-0,6621	74,44	250,92	0,04856	
34,44	-0,6602	73,15	252,39	0,04852	
34,46	-0,6583	72,70	253,83	0,04858	
34,48	-0,6563	72,69	255,27	0,04873	
34,50	-0,6544	72,68	256,74	0,04886	
34,52	-0,6525	72,60	258,23	0,04889	
34,54	-0,6505	72,53	260,29	0,04883	
34,56	-0,6485	72,54	264,65	0,04870	
34,58	-0,6465	72,59	268,85	0,04861	
34,60	-0,6445	72,70	271,49	0,04856	
34,62	-0,6425	72,77	273,12	0,04861	
34,64	-0,6406	72,68	274,44	0,04869	
34,66	-0,6387	72,60	275,95	0,04875	
34,68	-0,6367	72,60	277,57	0,04873	
34,70	-0,6347	72,70	279,03	0,04868	
34,72	-0,6327	72,82	280,43	0,04865	
34,74	-0,6306	72,26	281,80	0,04862	
34,76	-0,6285	73,51	282,81	0,04859	
34,78	-0,6266	81,96	283,30	0,04865	
34,80	-0,6247	95,16	283,40	0,04866	
34,82	-0,6228	109,11	283,31	0,04861	
34,84	-0,6212	119,61	283,48	0,04855	
34,86	-0,6202	125,03	284,01	0,04845	
34,88	-0,6198	122,42	284,79	0,04837	
34,90	-0,6194	116,19	285,58	0,04840	
34,92	-0,6187	112,50	286,17	0,04855	
34,94	-0,6176	113,06	286,75	0,04866	
34,96	-0,6166	116,61	287,37	0,04871	
34,98	-0,6157	119,70	288,13	0,04868	
35,00	-0,6149	119,97	288,90	0,04856	
35,02	-0,6144	118,32	289,53	0,04844	
35,04	-0,6140	114,79	290,16	0,04838	
35,06	-0,6133	110,49	290,89	0,04843	
35,08	-0,6125	108,25	291,58	0,04863	
35,10	-0,6116	106,58	292,34	0,04871	
35,12	-0,6108	104,89	293,06	0,04868	
35,14	-0,6100	104,60	293,67	0,04862	
35,16	-0,6092	105,80	294,22	0,04851	
35,18	-0,6082	104,48	295,03	0,04842	
35,20	-0,6074	102,06	295,89	0,04844	
35,22	-0,6068	103,30	296,37	0,04856	
35,24	-0,6061	104,48	296,93	0,04867	
35,26	-0,6051	101,89	297,81	0,04875	
35,28	-0,6042	99,25	298,65	0,04875	
35,30	-0,6034	99,89	299,20	0,04863	
35,32	-0,6029	101,00	299,61	0,04851	
35,34	-0,6020	98,74	300,36	0,04853	
35,36	-0,6010	94,85	301,39	0,04854	
35,38	-0,6002	93,41	302,15	0,04858	
35,40	-0,5997	94,43	302,55	0,04867	
35,42	-0,5991	92,72	303,04	0,04871	
35,44	-0,5981	89,22	303,86	0,04869	
35,46	-0,5971	87,41	304,79	0,04850	
35,48	-0,5965	86,37	305,43	0,04836	
35,50	-0,5960	84,20	305,93	0,04843	
35,52	-0,5952	80,38	306,64	0,04863	
35,54	-0,5944	79,42	307,37	0,04878	
35,56	-0,5936	81,65	307,98	0,04883	
35,58	-0,5929	82,74	308,60	0,04882	
35,60	-0,5921	80,69	309,35	0,04872	
35,62	-0,5913	78,93	310,11	0,04861	
35,64	-0,5906	79,37	310,80	0,04851	
35,66	-0,5899	80,99	311,38	0,04844	
35,68	-0,5891	81,64	311,97	0,04852	
35,70	-0,5883	80,94	312,76	0,04862	
35,72	-0,5875	79,88	313,65	0,04867	
35,74	-0,5869	79,62	314,32	0,04868	
35,76	-0,5863	81,13	314,79	0,04859	
35,78	-0,5855	81,06	315,41	0,04852	
35,80	-0,5846	79,98	316,23	0,04847	
35,82	-0,5839	80,83	316,91	0,04849	
35,84	-0,5833	82,34	317,38	0,04860	
35,86	-0,5827	80,63	318,09	0,04875	
35,88	-0,5818	76,15	319,20	0,04880	
35,90	-0,5812	74,94	320,02	0,04863	
35,92	-0,5807	77,98	320,34	0,04846	
35,94	-0,5800	79,61	320,77	0,04845	
35,96	-0,5791	77,67	321,64	0,04847	
35,98	-0,5782	76,14	322,59	0,04854	
36,00	-0,5776	76,24	323,24	0,04859	
36,02	-0,5772	75,84	323,65	0,04859	
36,04	-0,5765	72,87	324,33	0,04864	
36,06	-0,5756	70,01	325,33	0,04861	
36,08	-0,5749	71,11	326,06	0,04852	
36,10	-0,5746	74,14	326,43	0,04847	
36,12	-0,5740	73,49	327,00	0,04848	
36,14	-0,5730	68,95	327,99	0,04860	
36,16	-0,5722	68,53	328,82	0,04875	
36,18	-0,5717	70,54	329,29	0,04879	
36,20	-0,5712	69,66	329,77	0,04871	
36,22	-0,5704	65,83	330,57	0,04859	
36,24	-0,5695	64,87	331,44	0,04847	
36,26	-0,5688	67,54	332,01	0,04846	
36,28	-0,5682	68,80	332,48	0,04853	
36,30	-0,5675	66,69	333,26	0,04858	
36,32	-0,5667	63,67	334,19	0,04862	
36,34	-0,5661	64,51	334,88	0,04869	
36,36	-0,5655	65,81	335,34	0,04868	
36,38	-0,5649	64,32	335,94	0,04856	
36,40	-0,5641	61,41	336,83	0,04848	
36,42	-0,5634	60,81	337,64	0,04858	
36,44	-0,5629	62,18	338,12	0,04876	
36,46	-0,5625	62,42	338,59	0,04883	
36,48	-0,5617	59,30	339,44	0,04885	
36,50	-0,5608	56,49	340,41	0,04874	
36,52	-0,5602	56,91	341,10	0,04857	
36,54	-0,5598	57,43	341,57	0,04849	
36,56	-0,5591	56,23	342,15	0,04849	
36,58	-0,5581	55,00	342,97	0,04855	
36,60	-0,5574	55,99	343,71	0,04867	
36,62	-0,5568	57,80	344,21	0,04872	
36,64	-0,5562	57,79	344,80	0,04869	
36,66	-0,5554	54,55	345,73	0,04861	
36,68	-0,5547	52,30	346,64	0,04855	
36,70	-0,5542	54,03	347,15	0,04851	
36,72	-0,5538	55,18	347,54	0,04849	
36,74	-0,5530	52,63	348,30	0,04856	
36,76	-0,5522	49,51	349,31	0,04864	
36,78	-0,5516	49,18	350,04	0,04870	
36,80	-0,5512	50,20	350,46	0,04867	
36,82	-0,5507	48,49	351,01	0,04856	
36,84	-0,5500	44,48	351,87	0,04852	
36,86	-0,5493	43,30	352,68	0,04851	
36,88	-0,5489	43,99	353,23	0,04856	
36,90	-0,5484	42,32	353,77	0,04867	
36,92	-0,5477	37,85	354,56	0,04883	
36,94	-0,5470	35,79	355,34	0,04892	
36,96	-0,5466	36,67	355,96	0,04882	
36,98	-0,5460	36,22	356,54	0,04863	
37,00	-0,5453	33,48	357,27	0,04852	
37,02	-0,5446	32,04	357,99	0,04856	
37,04	-0,5442	33,58	358,61	0,04861	
37,06	-0,5436	33,10	359,31	0,04864	
37,08	-0,5430	31,39	360,01	0,04873	
37,10	-0,5424	32,15	360,62	0,04875	
37,12	-0,5418	33,10	361,25	0,04866	
37,14	-0,5412	31,00	362,04	0,04853	
37,16	-0,5406	28,73	362,80	0,04856	
37,18	-0,5400	30,25	363,35	0,04858	
37,20	-0,5394	31,29	364,00	0,04863	
37,22	-0,5386	29,25	364,93	0,04873	
37,24	-0,5380	28,90	365,74	0,04868	
37,26	-0,5376	31,91	366,16	0,04860	
37,28	-0,5371	33,74	366,65	0,04850	
37,30	-0,5363	31,63	367,56	0,04844	
37,32	-0,5355	30,76	368,53	0,04849	
37,34	-0,5351	32,82	369,16	0,04855	
37,36	-0,5346	34,62	369,58	0,04860	
37,38	-0,5340	34,10	370,20	0,04867	
37,40	-0,5332	33,44	371,00	0,04868	
37,42	-0,5327	35,09	371,72	0,04859	
37,44	-0,5322	35,83	372,33	0,04855	
37,46	-0,5316	33,79	373,02	0,04854	
37,48	-0,5309	32,27	373,72	0,04859	
37,50	-0,5305	35,10	374,31	0,04866	
37,52	-0,5299	37,82	375,00	0,04879	
37,54	-0,5293	36,81	375,78	0,04887	
37,56	-0,5288	35,66	376,49	0,04874	
37,58	-0,5283	36,84	377,11	0,04853	
37,60	-0,5277	36,48	377,79	0,04840	
37,62	-0,5272	35,42	378,51	0,04844	
37,64	-0,5266	36,32	379,14	0,04858	
37,66	-0,5260	37,45	379,79	0,04872	
37,68	-0,5254	36,35	380,56	0,04876	
37,70	-0,5248	36,21	381,26	0,04878	
37,72	-0,5242	38,62	381,90	0,04877	
37,74	-0,5237	38,89	382,61	0,04865	
37,76	-0,5232	37,99	383,28	0,04856	
37,78	-0,5226	38,59	383,97	0,04856	
37,80	-0,5221	38,83	384,68	0,04866	
37,82	-0,5215	38,86	385,30	0,04883	
37,84	-0,5209	39,60	385,97	0,04889	
37,86	-0,5203	39,23	386,71	0,04883	
37,88	-0,5198	39,12	387,39	0,04870	
37,90	-0,5193	40,25	388,07	0,04857	
37,92	-0,5187	39,73	388,78	0,04850	
37,94	-0,5182	39,87	389,41	0,04851	
37,96	-0,5177	41,30	390,08	0,04864	
37,98	-0,5171	41,64	390,82	0,04878	
38,00	-0,5166	41,95	391,50	0,04882	
38,02	-0,5161	42,83	392,17	0,04878	
38,04	-0,5155	42,69	392,86	0,04868	
38,06	-0,5150	42,88	393,52	0,04857	
38,08	-0,5145	43,50	394,26	0,04858	
38,10	-0,5139	43,12	394,96	0,04868	
38,12	-0,5134	44,29	395,57	0,04874	
38,14	-0,5129	45,27	396,21	0,04880	
38,16	-0,5123	44,56	396,91	0,04880	
38,18	-0,5117	44,62	397,64	0,04868	
38,20	-0,5112	45,87	398,36	0,04860	
38,22	-0,5108	46,31	399,02	0,04855	
38,24	-0,5104	46,59	399,67	0,04855	
38,26	-0,5098	45,80	400,46	0,04864	
38,28	-0,5092	44,91	401,18	0,04874	
38,30	-0,5088	46,97	401,76	0,04877	
38,32	-0,5083	48,03	402,39	0,04870	
38,34	-0,5077	47,01	403,11	0,04860	
38,36	-0,5072	46,44	403,84	0,04852	
38,38	-0,5067	47,29	404,52	0,04851	
38,40	-0,5061	47,60	405,15	0,04857	
38,42	-0,5056	47,55	405,84	0,04865	
38,44	-0,5050	47,71	406,58	0,04880	
38,46	-0,5045	48,95	407,21	0,04890	
38,48	-0,5041	49,91	407,85	0,04880	
38,50	-0,5036	48,64	408,62	0,04867	
38,52	-0,5031	48,17	409,34	0,04862	
38,54	-0,5027	49,31	410,01	0,04866	
38,56	-0,5022	49,34	410,68	0,04868	
38,58	-0,5017	49,01	411,33	0,04872	
38,60	-0,5012	49,61	412,02	0,04880	
38,62	-0,5007	49,94	412,73	0,04881	
38,64	-0,5003	49,73	413,38	0,04877	
38,66	-0,4998	49,91	414,05	0,04861	
38,68	-0,4993	49,92	414,76	0,04852	
38,70	-0,4987	50,41	415,45	0,04856	
38,72	-0,4982	51,68	416,13	0,04863	
38,74	-0,4978	51,94	416,80	0,04877	
38,76	-0,4973	51,93	417,49	0,04880	
38,78	-0,4967	53,03	418,21	0,04870	
38,80	-0,4962	53,74	418,91	0,04855	
38,82	-0,4958	54,34	419,54	0,04849	
38,84	-0,4953	54,77	420,22	0,04850	
38,86	-0,4948	54,89	420,94	0,04857	
38,88	-0,4943	55,57	421,63	0,04871	
38,90	-0,4938	56,58	422,30	0,04880	
38,92	-0,4933	56,36	422,99	0,04881	
38,94	-0,4928	55,75	423,68	0,04868	
38,96	-0,4924	56,42	424,36	0,04858	
38,98	-0,4919	57,11	425,05	0,04855	
39,00	-0,4915	57,40	425,72	0,04856	
39,02	-0,4911	58,21	426,36	0,04865	
39,04	-0,4906	58,98	427,05	0,04874	
39,06	-0,4899	58,73	427,78	0,04885	
39,08	-0,4895	59,33	428,45	0,04887	
39,10	-0,4890	59,88	429,13	0,04874	
39,12	-0,4886	59,07	429,84	0,04863	
39,14	-0,4882	59,38	430,50	0,04858	
39,16	-0,4877	59,80	431,18	0,04862	
39,18	-0,4872	59,12	431,86	0,04874	
39,20	-0,4868	59,22	432,54	0,04884	
39,22	-0,4864	59,06	433,27	0,04888	
39,24	-0,4859	58,02	433,98	0,04882	
39,26	-0,4855	58,25	434,63	0,04867	
39,28	-0,4850	58,75	435,29	0,04859	
39,30	-0,4846	58,22	435,95	0,04862	
39,32	-0,4841	58,93	436,62	0,04869	
39,34	-0,4837	59,91	437,31	0,04874	
39,36	-0,4832	59,79	438,02	0,04881	
39,38	-0,4826	59,71	438,72	0,04883	
39,40	-0,4821	60,72	439,40	0,04877	
39,42	-0,4816	61,33	440,10	0,04870	
39,44	-0,4812	61,55	440,79	0,04866	
39,46	-0,4808	61,79	441,43	0,04863	
39,48	-0,4803	61,65	442,11	0,04870	
39,50	-0,4798	61,56	442,79	0,04880	
39,52	-0,4794	61,88	443,43	0,04882	
39,54	-0,4789	61,42	444,18	0,04879	
39,56	-0,4785	60,07	444,93	0,04873	
39,58	-0,4781	61,00	445,55	0,04864	
39,60	-0,4777	62,00	446,19	0,04851	
39,62	-0,4771	61,13	446,93	0,04849	
39,64	-0,4767	60,65	447,64	0,04862	
39,66	-0,4763	61,70	448,27	0,04880	
39,68	-0,4758	61,73	448,93	0,04889	
39,70	-0,4753	60,86	449,65	0,04888	
39,72	-0,4749	61,28	450,34	0,04876	
39,74	-0,4745	62,15	451,04	0,04864	
39,76	-0,4740	62,10	451,74	0,04863	
39,78	-0,4736	62,02	452,40	0,04865	
39,80	-0,4732	62,34	453,06	0,04871	
39,82	-0,4727	62,07	453,76	0,04876	
39,84	-0,4722	61,94	454,45	0,04878	
39,86	-0,4718	62,44	455,10	0,04875	
39,88	-0,4714	62,24	455,80	0,04866	
39,90	-0,4709	61,74	456,52	0,04858	
39,92	-0,4704	61,62	457,20	0,04861	
39,94	-0,4700	61,68	457,86	0,04867	
39,96	-0,4696	61,30	458,58	0,04880	
39,98	-0,4691	60,98	459,26	0,04883	
40,00	-0,4687	61,86	459,93	0,04877	
40,02	-0,4682	61,86	460,61	0,04872	
40,04	-0,4678	61,32	461,28	0,04868	
40,06	-0,4673	62,20	461,96	0,04871	
40,08	-0,4669	62,61	462,66	0,04873	
40,10	-0,4665	62,43	463,35	0,04876	
40,12	-0,4660	62,53	464,03	0,04883	
40,14	-0,4655	62,13	464,74	0,04883	
40,16	-0,4651	62,09	465,41	0,04870	
40,18	-0,4646	62,43	466,07	0,04859	
40,20	-0,4642	62,18	466,75	0,04853	
40,22	-0,4638	61,84	467,44	0,04853	
40,24	-0,4633	61,65	468,11	0,04864	
40,26	-0,4629	61,67	468,78	0,04879	
40,28	-0,4624	61,70	469,47	0,04889	
40,30	-0,4621	61,56	470,20	0,04886	
40,32	-0,4617	60,89	470,90	0,04870	
40,34	-0,4613	60,66	471,54	0,04858	
40,36	-0,4608	60,51	472,20	0,04858	
40,38	-0,4604	60,45	472,89	0,04864	
40,40	-0,4599	60,54	473,59	0,04860	
40,42	-0,4595	60,58	474,27	0,04864	
40,44	-0,4590	59,85	474,95	0,04874	
40,46	-0,4586	58,24	475,65	0,04876	
40,48	-0,4582	57,86	476,32	0,04867	
40,50	-0,4577	57,70	477,02	0,04855	
40,52	-0,4572	57,08	477,70	0,04850	
40,54	-0,4568	57,03	478,32	0,04858	
40,56	-0,4563	56,41	479,08	0,04865	
40,58	-0,4558	54,58	479,86	0,04869	
40,60	-0,4554	55,35	480,47	0,04873	
40,62	-0,4550	56,26	481,12	0,04866	
40,64	-0,4545	55,05	481,84	0,04853	
40,66	-0,4540	55,26	482,49	0,04853	
40,68	-0,4535	56,10	483,16	0,04853	
40,70	-0,4531	54,81	483,87	0,04849	
40,72	-0,4527	53,59	484,55	0,04857	
40,74	-0,4522	54,04	485,24	0,04870	
40,76	-0,4517	54,17	485,93	0,04872	
40,78	-0,4512	54,23	486,59	0,04864	
40,80	-0,4508	54,61	487,27	0,04849	
40,82	-0,4503	54,22	487,98	0,04853	
40,84	-0,4499	53,90	488,67	0,04860	
40,86	-0,4495	53,82	489,33	0,04866	
40,88	-0,4490	53,29	490,00	0,04875	
40,90	-0,4485	52,95	490,68	0,04883	
40,92	-0,4480	52,94	491,35	0,04880	
40,94	-0,4474	52,77	492,09	0,04864	
40,96	-0,4469	52,15	492,81	0,04854	
40,98	-0,4465	51,97	493,45	0,04854	
41,00	-0,4461	51,45	494,17	0,04857	
41,02	-0,4455	50,68	494,86	0,04863	
41,04	-0,4450	51,73	495,47	0,04870	
41,06	-0,4445	52,20	496,16	0,04875	
41,08	-0,4441	51,22	496,87	0,04872	
41,10	-0,4436	50,92	497,55	0,04856	
41,12	-0,4432	51,23	498,24	0,04849	
41,14	-0,4426	51,03	498,92	0,04856	
41,16	-0,4421	50,88	499,58	0,04867	
41,18	-0,4416	50,42	500,34	0,04876	
41,20	-0,4411	50,55	501,01	0,04883	
41,22	-0,4407	52,14	501,61	0,04886	
41,24	-0,4402	51,53	502,39	0,04876	
41,26	-0,4396	49,63	503,11	0,04859	
41,28	-0,4392	50,72	503,72	0,04855	
41,30	-0,4387	51,02	504,45	0,04857	
41,32	-0,4382	49,72	505,13	0,04861	
41,34	-0,4377	50,75	505,74	0,04873	
41,36	-0,4371	51,13	506,44	0,04882	
41,38	-0,4366	49,83	507,14	0,04879	
41,40	-0,4362	50,13	507,81	0,04864	
41,42	-0,4358	50,33	508,51	0,04852	
41,44	-0,4352	49,47	509,20	0,04851	
41,46	-0,4347	49,50	509,87	0,04858	
41,48	-0,4342	50,04	510,56	0,04869	
41,50	-0,4337	49,86	511,24	0,04873	
41,52	-0,4333	49,76	511,90	0,04873	
41,54	-0,4328	50,13	512,59	0,04871	
41,56	-0,4323	50,36	513,27	0,04868	
41,58	-0,4318	50,57	513,93	0,04861	
41,60	-0,4313	50,46	514,62	0,04857	
41,62	-0,4308	49,68	515,38	0,04867	
41,64	-0,4302	50,20	516,04	0,04874	
41,66	-0,4298	51,18	516,68	0,04880	
41,68	-0,4293	49,33	517,45	0,04878	
41,70	-0,4288	48,05	518,10	0,04870	
41,72	-0,4283	49,49	518,70	0,04860	
41,74	-0,4277	48,60	519,49	0,04850	
41,76	-0,4273	47,33	520,18	0,04853	
41,78	-0,4269	48,97	520,82	0,04861	
41,80	-0,4263	48,26	521,58	0,04867	
41,82	-0,4258	45,94	522,21	0,04873	
41,84	-0,4252	46,37	522,84	0,04871	
41,86	-0,4246	46,42	523,60	0,04865	
41,88	-0,4241	45,51	524,23	0,04858	
41,90	-0,4236	45,70	524,90	0,04850	
41,92	-0,4230	44,20	525,69	0,04856	
41,94	-0,4225	43,59	526,30	0,04866	
41,96	-0,4220	45,15	526,96	0,04877	
41,98	-0,4213	44,12	527,74	0,04879	
42,00	-0,4209	43,62	528,36	0,04871	
42,02	-0,4204	44,37	529,05	0,04858	
42,04	-0,4197	41,97	529,81	0,04849	
42,06	-0,4193	41,30	530,38	0,04849	
42,08	-0,4187	42,64	531,06	0,04855	
42,10	-0,4181	40,77	531,84	0,04865	
42,12	-0,4177	40,59	532,43	0,04874	
42,14	-0,4171	41,73	533,14	0,04878	
42,16	-0,4165	39,80	533,90	0,04869	
42,18	-0,4160	39,05	534,51	0,04855	
42,20	-0,4154	39,69	535,26	0,04849	
42,22	-0,4147	38,72	535,97	0,04854	
42,24	-0,4142	39,46	536,51	0,04866	
42,26	-0,4136	40,43	537,25	0,04873	
42,28	-0,4130	38,15	538,00	0,04881	
42,30	-0,4126	38,28	538,59	0,04878	
42,32	-0,4120	38,40	539,34	0,04862	
42,34	-0,4114	36,03	540,05	0,04849	
42,36	-0,4108	36,08	540,65	0,04848	
42,38	-0,4102	35,84	541,41	0,04857	
42,40	-0,4096	33,86	542,06	0,04864	
42,42	-0,4091	35,74	542,62	0,04874	
42,44	-0,4085	36,05	543,42	0,04878	
42,46	-0,4079	33,94	544,11	0,04866	
42,48	-0,4074	34,93	544,69	0,04849	
42,50	-0,4067	33,84	545,50	0,04850	
42,52	-0,4060	30,95	546,19	0,04861	
42,54	-0,4054	31,39	546,80	0,04870	
42,56	-0,4048	30,83	547,57	0,04875	
42,58	-0,4043	28,93	548,17	0,04874	
42,60	-0,4037	29,41	548,76	0,04871	
42,62	-0,4030	27,82	549,61	0,04865	
42,64	-0,4023	25,55	550,30	0,04849	
42,66	-0,4018	26,58	550,89	0,04846	
42,68	-0,4012	25,46	551,63	0,04854	
42,70	-0,4007	23,64	552,29	0,04866	
42,72	-0,4000	23,88	552,96	0,04876	
42,74	-0,3993	22,84	553,69	0,04878	
42,76	-0,3987	21,75	554,23	0,04867	
42,78	-0,3980	22,31	554,92	0,04852	
42,80	-0,3972	19,97	555,85	0,04847	
42,82	-0,3966	17,76	556,54	0,04850	
42,84	-0,3961	17,86	557,13	0,04862	
42,86	-0,3956	15,94	557,75	0,04873	
42,88	-0,3950	13,95	558,33	0,04873	
42,90	-0,3943	13,68	559,09	0,04865	
42,92	-0,3935	12,15	559,86	0,04859	
42,94	-0,3930	11,52	560,43	0,04858	
42,96	-0,3922	11,18	561,18	0,04859	
42,98	-0,3913	8,533	561,99	0,04861	
43,00	-0,3907	8,553	562,56	0,04867	
43,02	-0,3899	8,143	563,27	0,04872	
43,04	-0,3892	4,611	564,01	0,04876	
43,06	-0,3886	3,920	564,56	0,04875	
43,08	-0,3879	4,155	565,30	0,04867	
43,10	-0,3872	1,401	566,05	0,04857	
43,12	-0,3866	1,214	566,61	0,04854	
43,14	-0,3859	0,6251	567,33	0,04860	
43,16	-0,3851	-2,364	568,04	0,04865	
43,18	-0,3843	-2,615	568,63	0,04870	
43,20	-0,3835	-3,872	569,42	0,04874	
43,22	-0,3828	-7,803	570,14	0,04866	
43,24	-0,3823	-7,926	570,70	0,04855	
43,26	-0,3815	-8,328	571,48	0,04852	
43,28	-0,3807	-11,64	572,21	0,04853	
43,30	-0,3799	-12,96	572,81	0,04859	
43,32	-0,3791	-14,01	573,49	0,04874	
43,34	-0,3782	-16,69	574,07	0,04877	
43,36	-0,3774	-17,60	574,70	0,04880	
43,38	-0,3765	-19,21	575,60	0,04874	
43,40	-0,3757	-22,09	576,35	0,04860	
43,42	-0,3749	-22,79	576,94	0,04855	
43,44	-0,3741	-24,09	577,61	0,04860	
43,46	-0,3733	-26,30	578,23	0,04862	
43,48	-0,3724	-26,95	578,85	0,04868	
43,50	-0,3715	-28,89	579,70	0,04869	
43,52	-0,3708	-31,54	580,43	0,04868	
43,54	-0,3700	-32,07	581,02	0,04866	
43,56	-0,3690	-34,28	581,70	0,04854	
43,58	-0,3682	-36,91	582,33	0,04847	
43,60	-0,3672	-37,53	583,03	0,04860	
43,62	-0,3663	-38,66	583,72	0,04873	
43,64	-0,3655	-40,50	584,21	0,04873	
43,66	-0,3645	-42,07	584,95	0,04873	
43,68	-0,3634	-45,84	586,10	0,04873	
43,70	-0,3625	-48,11	586,87	0,04862	
43,72	-0,3617	-46,50	587,10	0,04844	
43,74	-0,3607	-46,95	587,54	0,04848	
43,76	-0,3596	-51,57	588,66	0,04858	
43,78	-0,3585	-55,29	589,75	0,04864	
43,80	-0,3576	-54,77	590,11	0,04875	
43,82	-0,3569	-54,17	590,19	0,04885	
43,84	-0,3558	-57,11	590,90	0,04874	
43,86	-0,3546	-60,97	592,23	0,04859	
43,88	-0,3534	-62,75	593,20	0,04854	
43,90	-0,3526	-62,21	593,41	0,04856	
43,92	-0,3517	-63,50	593,76	0,04858	
43,94	-0,3504	-68,76	594,83	0,04859	
43,96	-0,3492	-71,69	595,81	0,04866	
43,98	-0,3482	-69,53	596,08	0,04870	
44,00	-0,3473	-69,94	596,24	0,04868	
44,02	-0,3463	-74,84	597,09	0,04858	
44,04	-0,3449	-78,51	598,45	0,04850	
44,06	-0,3437	-79,35	599,39	0,04857	
44,08	-0,3429	-78,39	599,66	0,04863	
44,10	-0,3418	-80,70	600,17	0,04867	
44,12	-0,3403	-84,88	601,11	0,04866	
44,14	-0,3391	-84,54	601,76	0,04858	
44,16	-0,3381	-81,49	602,13	0,04851	
44,18	-0,3370	-83,61	602,81	0,04858	
44,20	-0,3356	-88,49	603,75	0,04864	
44,22	-0,3344	-87,57	604,33	0,04871	
44,24	-0,3334	-84,49	604,84	0,04879	
44,26	-0,3322	-87,59	605,82	0,04880	
44,28	-0,3309	-90,01	606,69	0,04870	
44,30	-0,3298	-86,53	607,01	0,04861	
44,32	-0,3288	-83,45	607,34	0,04858	
44,34	-0,3276	-86,61	608,33	0,04857	
44,36	-0,3262	-90,04	609,58	0,04861	
44,38	-0,3250	-87,91	610,20	0,04867	
44,40	-0,3241	-84,27	610,31	0,04869	
44,42	-0,3230	-83,43	610,87	0,04871	
44,44	-0,3215	-84,93	612,09	0,04867	
44,46	-0,3202	-83,04	613,02	0,04857	
44,48	-0,3194	-77,50	613,24	0,04843	
44,50	-0,3183	-75,14	613,55	0,04838	
44,52	-0,3170	-78,59	614,60	0,04848	
44,54	-0,3158	-79,54	615,79	0,04864	
44,56	-0,3149	-74,23	616,30	0,04878	
44,58	-0,3141	-69,40	616,56	0,04872	
44,60	-0,3128	-70,86	617,33	0,04858	
44,62	-0,3114	-70,02	618,22	0,04848	
44,64	-0,3105	-62,99	618,81	0,04847	
44,66	-0,3094	-59,70	619,38	0,04847	
44,68	-0,3084	-59,88	619,93	0,04857	
44,70	-0,3074	-56,23	620,57	0,04865	
44,72	-0,3062	-51,45	621,46	0,04876	
44,74	-0,3052	-48,17	622,20	0,04876	
44,76	-0,3042	-43,64	622,80	0,04861	
44,78	-0,3032	-40,69	623,51	0,04848	
44,80	-0,3023	-37,86	624,12	0,04847	
44,82	-0,3015	-32,84	624,73	0,04855	
44,84	-0,3005	-30,21	625,57	0,04867	
44,86	-0,2996	-29,05	626,27	0,04873	
44,88	-0,2988	-24,99	626,88	0,04875	
44,90	-0,2978	-22,37	627,59	0,04866	
44,92	-0,2970	-20,87	628,22	0,04855	
44,94	-0,2963	-17,33	628,89	0,04853	
44,96	-0,2953	-15,35	629,66	0,04862	
44,98	-0,2945	-12,74	630,28	0,04866	
45,00	-0,2937	-8,631	630,97	0,04876	
45,02	-0,2929	-7,634	631,75	0,04875	
45,04	-0,2922	-5,124	632,32	0,04866	
45,06	-0,2914	-1,001	633,01	0,04860	
45,08	-0,2905	-0,4081	633,80	0,04857	
45,10	-0,2899	1,465	634,40	0,04856	
45,12	-0,2892	4,142	635,11	0,04862	
45,14	-0,2884	3,596	635,83	0,04873	
45,16	-0,2877	5,184	636,38	0,04880	
45,18	-0,2869	8,427	637,12	0,04881	
45,20	-0,2861	8,706	637,90	0,04868	
45,22	-0,2856	10,58	638,45	0,04854	
45,24	-0,2849	13,24	639,18	0,04847	
45,26	-0,2841	12,83	639,95	0,04853	
45,28	-0,2834	13,56	640,55	0,04865	
45,30	-0,2827	14,22	641,27	0,04874	
45,32	-0,2821	12,84	641,95	0,04876	
45,34	-0,2814	14,54	642,51	0,04868	
45,36	-0,2805	15,89	643,31	0,04859	
45,38	-0,2798	14,71	644,09	0,04854	
45,40	-0,2792	16,31	644,68	0,04856	
45,42	-0,2785	17,15	645,39	0,04861	
45,44	-0,2778	16,22	646,04	0,04870	
45,46	-0,2772	17,31	646,64	0,04880	
45,48	-0,2764	18,03	647,39	0,04880	
45,50	-0,2758	16,52	648,05	0,04868	
45,52	-0,2751	16,54	648,70	0,04856	
45,54	-0,2744	16,22	649,49	0,04853	
45,56	-0,2738	16,53	650,09	0,04859	
45,58	-0,2732	19,56	650,70	0,04870	
45,60	-0,2724	19,37	651,57	0,04872	
45,62	-0,2717	18,37	652,26	0,04872	
45,64	-0,2711	19,72	652,86	0,04861	
45,66	-0,2704	18,16	653,57	0,04853	
45,68	-0,2697	16,14	654,19	0,04852	
45,70	-0,2691	16,83	654,85	0,04853	
45,72	-0,2683	15,39	655,66	0,04861	
45,74	-0,2677	13,80	656,32	0,04866	
45,76	-0,2671	14,46	656,96	0,04870	
45,78	-0,2663	13,51	657,66	0,04871	
45,80	-0,2657	12,84	658,26	0,04867	
45,82	-0,2651	13,15	658,96	0,04858	
45,84	-0,2643	11,70	659,70	0,04850	
45,86	-0,2637	10,75	660,27	0,04856	
45,88	-0,2630	10,74	661,01	0,04867	
45,90	-0,2623	8,758	661,86	0,04873	
45,92	-0,2617	8,597	662,48	0,04876	
45,94	-0,2610	9,259	663,14	0,04874	
45,96	-0,2603	7,047	663,83	0,04858	
45,98	-0,2597	6,896	664,36	0,04846	
46,00	-0,2590	7,582	665,10	0,04845	
46,02	-0,2582	4,714	665,94	0,04852	
46,04	-0,2574	3,783	666,56	0,04864	
46,06	-0,2567	3,658	667,25	0,04873	
46,08	-0,2559	2,379	667,91	0,04874	
46,10	-0,2554	2,604	668,49	0,04866	
46,12	-0,2546	1,862	669,29	0,04857	
46,14	-0,2539	-1,530	670,07	0,04856	
46,16	-0,2531	-0,8933	670,63	0,04860	
46,18	-0,2523	-0,5245	671,35	0,04866	
46,20	-0,2516	-2,935	672,04	0,04876	
46,22	-0,2510	-2,618	672,63	0,04879	
46,24	-0,2502	-2,169	673,38	0,04875	
46,26	-0,2495	-4,673	674,07	0,04863	
46,28	-0,2487	-5,399	674,70	0,04853	
46,30	-0,2479	-6,507	675,45	0,04851	
46,32	-0,2472	-7,587	676,06	0,04859	
46,34	-0,2464	-5,967	676,66	0,04869	
46,36	-0,2455	-6,587	677,50	0,04872	
46,38	-0,2449	-8,527	678,20	0,04872	
46,40	-0,2441	-8,153	678,83	0,04871	
46,42	-0,2432	-9,540	679,59	0,04859	
46,44	-0,2425	-10,41	680,20	0,04845	
46,46	-0,2417	-8,734	680,83	0,04843	
46,48	-0,2408	-10,19	681,68	0,04854	
46,50	-0,2402	-12,31	682,34	0,04866	
46,52	-0,2395	-10,80	682,93	0,04878	
46,54	-0,2386	-11,34	683,67	0,04880	
46,56	-0,2378	-12,93	684,34	0,04869	
46,58	-0,2370	-11,90	684,98	0,04859	
46,60	-0,2361	-12,57	685,68	0,04851	
46,62	-0,2354	-13,92	686,29	0,04852	
46,64	-0,2345	-13,71	687,02	0,04866	
46,66	-0,2337	-14,79	687,74	0,04875	
46,68	-0,2330	-14,93	688,26	0,04870	
46,70	-0,2322	-13,93	688,98	0,04864	
46,72	-0,2313	-16,22	689,97	0,04859	
46,74	-0,2305	-16,94	690,66	0,04851	
46,76	-0,2298	-15,17	691,08	0,04847	
46,78	-0,2291	-17,04	691,76	0,04850	
46,80	-0,2281	-21,29	692,66	0,04862	
46,82	-0,2273	-19,76	693,27	0,04876	
46,84	-0,2266	-16,89	693,84	0,04876	
46,86	-0,2257	-20,18	694,67	0,04863	
46,88	-0,2249	-21,98	695,37	0,04850	
46,90	-0,2240	-19,48	695,94	0,04842	
46,92	-0,2231	-20,37	696,63	0,04843	
46,94	-0,2224	-23,52	697,31	0,04855	
46,96	-0,2215	-22,53	697,93	0,04869	
46,98	-0,2206	-22,23	698,66	0,04881	
47,00	-0,2197	-23,86	699,38	0,04883	
47,02	-0,2188	-22,54	699,71	0,04868	
47,04	-0,2180	-17,71	699,68	0,04850	
47,06	-0,2173	-11,68	699,56	0,04848	
47,08	-0,2164	-6,167	699,56	0,04857	
47,10	-0,2154	-1,102	699,71	0,04864	
47,12	-0,2146	4,429	699,76	0,04871	
47,14	-0,2140	11,77	699,64	0,04870	
47,16	-0,2134	19,34	699,53	0,04856	
47,18	-0,2126	26,02	699,58	0,04846	
47,20	-0,2117	32,20	699,72	0,04846	
47,22	-0,2112	38,94	699,72	0,04857	
47,24	-0,2107	45,62	699,59	0,04872	
47,26	-0,2102	50,96	699,52	0,04881	
47,28	-0,2096	54,90	699,64	0,04883	
47,30	-0,2090	59,56	699,78	0,04872	
47,32	-0,2086	65,39	699,74	0,04852	
47,34	-0,2082	70,96	699,59	0,04844	
47,36	-0,2078	75,34	699,54	0,04846	
47,38	-0,2072	78,79	699,63	0,04853	
47,40	-0,2068	82,59	699,75	0,04868	
47,42	-0,2065	86,82	699,70	0,04879	
47,44	-0,2063	90,94	699,57	0,04875	
47,46	-0,2059	94,21	699,54	0,04864	
47,48	-0,2055	96,19	699,68	0,04856	
47,50	-0,2052	98,64	699,80	0,04849	
47,52	-0,2050	102,23	699,73	0,04851	
47,54	-0,2048	106,14	699,59	0,04860	
47,56	-0,2045	109,03	699,54	0,04871	
47,58	-0,2042	111,08	699,63	0,04876	
47,60	-0,2040	112,43	699,70	0,04870	
47,62	-0,2040	114,00	699,63	0,04860	
47,64	-0,2039	116,00	699,52	0,04851	
47,66	-0,2036	116,75	699,56	0,04847	
47,68	-0,2034	116,91	699,74	0,04857	
47,70	-0,2033	118,98	699,82	0,04868	
47,72	-0,2033	122,08	699,70	0,04874	
47,74	-0,2031	124,19	699,57	0,04880	
47,76	-0,2028	125,02	699,57	0,04873	
47,78	-0,2027	125,73	699,63	0,04855	
47,80	-0,2027	126,29	699,65	0,04846	
47,82	-0,2027	126,54	699,61	0,04849	
47,84	-0,2025	126,36	699,55	0,04864	
47,86	-0,2022	127,61	699,60	0,04878	
47,88	-0,2020	129,16	699,69	0,04881	
47,90	-0,2020	131,22	699,66	0,04868	
47,92	-0,2021	133,17	699,55	0,04853	
47,94	-0,2021	133,58	699,56	0,04849	
47,96	-0,2020	131,89	699,72	0,04855	
47,98	-0,2019	132,18	699,78	0,04863	
48,00	-0,2017	135,08	699,66	0,04875	
48,02	-0,2015	136,50	699,53	0,04883	
48,04	-0,2014	136,23	699,58	0,04882	
48,06	-0,2013	135,96	699,74	0,04870	
48,08	-0,2013	136,26	699,76	0,04854	
48,10	-0,2014	136,97	699,62	0,04849	
48,12	-0,2015	137,16	699,54	0,04857	
48,14	-0,2014	136,63	699,64	0,04867	
48,16	-0,2013	136,83	699,75	0,04871	
48,18	-0,2014	138,77	699,68	0,04877	
48,20	-0,2014	139,71	699,54	0,04879	
48,22	-0,2012	138,32	699,56	0,04878	
48,24	-0,2008	136,79	699,73	0,04870	
48,26	-0,2006	137,67	699,77	0,04864	
48,28	-0,2007	139,58	699,63	0,04863	
48,30	-0,2008	139,17	699,54	0,04875	
48,32	-0,2007	137,37	699,64	0,04888	
48,34	-0,2006	136,97	699,75	0,04890	
48,36	-0,2007	138,80	699,68	0,04881	
48,38	-0,2008	139,74	699,55	0,04861	
48,40	-0,2008	138,38	699,57	0,04851	
48,42	-0,2007	137,40	699,72	0,04860	
48,44	-0,2006	138,58	699,74	0,04870	
48,46	-0,2007	140,12	699,59	0,04875	
48,48	-0,2005	139,34	699,54	0,04876	
48,50	-0,2001	137,46	699,67	0,04876	
48,52	-0,2000	137,78	699,75	0,04867	
48,54	-0,2001	139,67	699,64	0,04859	
48,56	-0,2002	140,00	699,53	0,04852	
48,58	-0,2001	138,05	699,63	0,04853	
48,60	-0,2000	137,29	699,75	0,04863	
48,62	-0,2000	140,05	699,68	0,04875	
48,64	-0,2001	141,62	699,54	0,04881	
48,66	-0,2001	139,63	699,57	0,04872	
48,68	-0,2000	137,67	699,74	0,04861	
48,70	-0,2000	138,99	699,75	0,04857	
48,72	-0,2001	140,83	699,61	0,04862	
48,74	-0,2000	139,66	699,54	0,04870	
48,76	-0,1996	138,04	699,64	0,04878	
48,78	-0,1994	139,15	699,71	0,04883	
48,80	-0,1994	141,90	699,63	0,04882	
48,82	-0,1995	142,49	699,51	0,04870	
48,84	-0,1994	140,44	699,58	0,04861	
48,86	-0,1993	138,31	699,77	0,04864	
48,88	-0,1993	140,01	699,79	0,04878	
48,90	-0,1994	142,22	699,63	0,04889	
48,92	-0,1995	141,72	699,52	0,04885	
48,94	-0,1994	139,17	699,64	0,04877	
48,96	-0,1993	138,20	699,80	0,04868	
48,98	-0,1994	139,40	699,75	0,04861	
49,00	-0,1995	140,42	699,58	0,04857	
49,02	-0,1994	139,07	699,56	0,04860	
49,04	-0,1989	137,57	699,69	0,04870	
49,06	-0,1987	138,41	699,72	0,04879	
49,08	-0,1988	139,92	699,59	0,04885	
49,10	-0,1988	139,37	699,51	0,04882	
49,12	-0,1987	137,52	699,64	0,04867	
49,14	-0,1986	137,06	699,79	0,04856	
49,16	-0,1987	138,88	699,72	0,04856	
49,18	-0,1988	139,85	699,56	0,04866	
49,20	-0,1988	138,40	699,57	0,04872	
49,22	-0,1987	136,85	699,73	0,04875	
49,24	-0,1987	137,83	699,74	0,04878	
49,26	-0,1988	139,86	699,58	0,04868	
49,28	-0,1987	139,23	699,53	0,04861	
49,30	-0,1983	136,55	699,68	0,04858	
49,32	-0,1980	136,35	699,76	0,04855	
49,34	-0,1981	138,69	699,64	0,04863	
49,36	-0,1982	138,42	699,53	0,04867	
49,38	-0,1981	135,40	699,65	0,04856	
49,40	-0,1980	134,67	699,79	0,04808	
49,42	-0,1981	137,36	699,72	0,04642	
49,44	-0,1982	139,42	699,55	0,04487	
49,46	-0,1981	138,52	699,55	0,04432	
49,48	-0,1980	136,78	699,73	0,04438	
49,50	-0,1980	136,85	699,80	0,04448	
49,52	-0,1981	138,90	699,64	0,04455	
49,54	-0,1980	138,50	699,54	0,04458	
49,56	-0,1976	136,40	699,64	0,04449	
49,58	-0,1974	136,40	699,72	0,04434	
49,60	-0,1974	138,59	699,61	0,04427	
49,62	-0,1975	138,19	699,51	0,04431	
49,64	-0,1974	134,32	699,66	0,04433	
49,66	-0,1973	133,07	699,81	0,04440	
49,68	-0,1974	136,27	699,74	0,04444	
49,70	-0,1975	138,32	699,57	0,04438	
49,72	-0,1974	136,47	699,57	0,04432	
49,74	-0,1973	134,47	699,72	0,04419	
49,76	-0,1973	135,30	699,74	0,04417	
49,78	-0,1974	136,84	699,59	0,04426	
49,80	-0,1972	136,11	699,51	0,04436	
49,82	-0,1969	133,97	699,67	0,04445	
49,84	-0,1967	133,54	699,82	0,04448	
49,86	-0,1967	135,38	699,75	0,04440	
49,88	-0,1968	136,51	699,56	0,04425	
49,90	-0,1968	135,13	699,56	0,04412	
49,92	-0,1967	133,50	699,73	0,04414	
49,94	-0,1967	134,15	699,77	0,04428	
49,96	-0,1968	135,10	699,62	0,04433	
49,98	-0,1967	133,95	699,53	0,04435	
50,00	-0,1963	131,41	699,65	0,04443	
50,02	-0,1960	131,25	699,76	0,04433	
50,04	-0,1961	134,00	699,67	0,04408	
50,06	-0,1961	134,73	699,53	0,04397	
50,08	-0,1961	132,17	699,59	0,04405	
50,10	-0,1960	130,65	699,77	0,04421	
50,12	-0,1960	132,98	699,76	0,04429	
50,14	-0,1961	134,93	699,59	0,04435	
50,16	-0,1961	133,29	699,54	0,04437	
50,18	-0,1957	130,75	699,69	0,04427	
50,20	-0,1954	131,43	699,75	0,04420	
50,22	-0,1954	133,78	699,61	0,04419	
50,24	-0,1955	133,82	699,51	0,04426	
50,26	-0,1953	130,95	699,67	0,04434	
50,28	-0,1953	129,65	699,83	0,04436	
50,30	-0,1953	131,61	699,75	0,04429	
50,32	-0,1954	133,48	699,57	0,04406	
50,34	-0,1954	131,29	699,60	0,04397	
50,36	-0,1951	129,61	699,71	0,04401	
50,38	-0,1948	131,58	699,64	0,04395	
50,40	-0,1948	132,93	699,49	0,04401	
50,42	-0,1947	129,75	699,60	0,04413	
50,44	-0,1946	126,47	699,84	0,04399	
50,46	-0,1946	127,70	699,85	0,04370	
50,48	-0,1948	130,42	699,65	0,04367	
50,50	-0,1948	130,40	699,54	0,04364	
50,52	-0,1944	128,10	699,65	0,04355	
50,54	-0,1941	127,83	699,71	0,04376	
50,56	-0,1941	129,40	699,58	0,04396	
50,58	-0,1941	128,48	699,50	0,04352	
50,60	-0,1940	124,50	699,71	0,05656	
50,62	-0,1939	124,33	699,89	0,08206	
50,64	-0,1940	127,74	699,79	0,09786	
50,66	-0,1941	129,63	699,58	0,1026	
50,68	-0,1940	128,45	699,54	0,1031	
50,70	-0,1936	126,81	699,70	0,1035	
50,72	-0,1933	127,47	699,76	0,1040	
50,74	-0,1934	129,43	699,62	0,1040	
50,76	-0,1934	129,18	699,52	0,1033	
50,78	-0,1933	127,24	699,65	0,1030	
50,80	-0,1933	126,84	699,78	0,1028	
50,82	-0,1933	129,43	699,68	0,1021	
50,84	-0,1934	130,41	699,53	0,1015	
50,86	-0,1931	128,40	699,59	0,1012	
50,88	-0,1927	127,07	699,75	0,1007	
50,90	-0,1926	128,46	699,72	0,1002	
50,92	-0,1927	129,91	699,57	0,1002	
50,94	-0,1927	128,23	699,55	0,1004	
50,96	-0,1926	125,75	699,72	0,1009	
50,98	-0,1926	126,71	699,78	0,1019	
51,00	-0,1927	129,32	699,64	0,1030	
51,02	-0,1925	130,00	699,52	0,1035	
51,04	-0,1921	128,10	699,62	0,1035	
51,06	-0,1919	127,02	699,75	0,1033	
51,08	-0,1919	128,65	699,69	0,1029	
51,10	-0,1921	129,54	699,54	0,1021	
51,12	-0,1920	127,00	699,59	0,1015	
51,14	-0,1919	125,34	699,72	0,1011	
51,16	-0,1919	127,78	699,69	0,1007	
51,18	-0,1919	130,57	699,53	0,1002	
51,20	-0,1916	129,47	699,55	0,09994	
51,22	-0,1913	126,51	699,77	0,1001	
51,24	-0,1912	127,02	699,82	0,1003	
51,26	-0,1914	129,57	699,65	0,1007	
51,28	-0,1914	130,06	699,54	0,1015	
51,30	-0,1913	128,17	699,65	0,1023	
51,32	-0,1912	128,57	699,72	0,1034	
51,34	-0,1913	131,24	699,60	0,1041	
51,36	-0,1911	131,03	699,51	0,1040	
51,38	-0,1907	127,04	699,72	0,1027	
51,40	-0,1905	125,79	699,88	0,1016	
51,42	-0,1906	128,93	699,75	0,1013	
51,44	-0,1907	130,45	699,55	0,1012	
51,46	-0,1907	128,22	699,57	0,1009	
51,48	-0,1906	126,48	699,74	0,1006	
51,50	-0,1906	128,12	699,73	0,1002	
51,52	-0,1905	130,05	699,56	0,1001	
51,54	-0,1902	128,04	699,55	0,1003	
51,56	-0,1899	125,09	699,73	0,1004	
51,58	-0,1899	126,38	699,78	0,1008	
51,60	-0,1901	129,27	699,61	0,1015	
51,62	-0,1901	128,71	699,52	0,1023	
51,64	-0,1899	125,33	699,66	0,1027	
51,66	-0,1895	125,06	699,75	0,1029	
51,68	-0,1894	128,25	699,63	0,1028	
51,70	-0,1894	128,69	699,51	0,1023	
51,72	-0,1893	125,49	699,66	0,1017	
51,74	-0,1892	124,36	699,81	0,1015	
51,76	-0,1893	127,58	699,70	0,1015	
51,78	-0,1895	129,31	699,52	0,1013	
51,80	-0,1893	125,93	699,61	0,1010	
51,82	-0,1888	123,44	699,80	0,1007	
51,84	-0,1886	125,44	699,77	0,1006	
51,86	-0,1887	127,30	699,58	0,1006	
51,88	-0,1887	126,27	699,52	0,1010	
51,90	-0,1886	124,02	699,70	0,1017	
51,92	-0,1885	124,29	699,80	0,1024	
51,94	-0,1887	126,34	699,66	0,1030	
51,96	-0,1886	126,88	699,52	0,1038	
51,98	-0,1882	124,91	699,61	0,1045	
52,00	-0,1879	123,76	699,77	0,1045	
52,02	-0,1879	125,32	699,72	0,1039	
52,04	-0,1881	126,47	699,54	0,1032	
52,06	-0,1880	125,06	699,55	0,1029	
52,08	-0,1879	123,33	699,74	0,1031	
52,10	-0,1879	124,16	699,78	0,1034	
52,12	-0,1879	126,26	699,60	0,1032	
52,14	-0,1876	125,91	699,51	0,1029	
52,16	-0,1873	122,66	699,75	0,1027	
52,18	-0,1872	121,98	699,94	0,1026	
52,20	-0,1873	124,69	699,81	0,1027	
52,22	-0,1874	126,95	699,58	0,1035	
52,24	-0,1873	125,95	699,57	0,1044	
52,26	-0,1868	124,37	699,71	0,1051	
52,28	-0,1866	125,28	699,70	0,1059	
52,30	-0,1867	126,37	699,53	0,1069	
52,32	-0,1867	124,65	699,54	0,1073	
52,34	-0,1865	121,87	699,82	0,1071	
52,36	-0,1865	123,04	699,92	0,1066	
52,38	-0,1867	126,01	699,72	0,1063	
52,40	-0,1866	126,90	699,54	0,1061	
52,42	-0,1862	125,01	699,63	0,1062	
52,44	-0,1859	124,49	699,78	0,1066	
52,46	-0,1859	125,99	699,71	0,1068	
52,48	-0,1860	126,68	699,54	0,1067	
52,50	-0,1860	124,54	699,56	0,1065	
52,52	-0,1859	122,87	699,74	0,1065	
52,54	-0,1859	124,05	699,75	0,1066	
52,56	-0,1858	126,29	699,57	0,1067	
52,58	-0,1855	125,83	699,52	0,1068	
52,60	-0,1852	123,12	699,74	0,1069	
52,62	-0,1852	123,39	699,86	0,1068	
52,64	-0,1853	125,77	699,70	0,1067	
52,66	-0,1854	126,68	699,52	0,1066	
52,68	-0,1852	124,89	699,60	0,1066	
52,70	-0,1848	123,76	699,75	0,1067	
52,72	-0,1846	125,28	699,70	0,1068	
52,74	-0,1847	126,41	699,53	0,1068	
52,76	-0,1847	123,77	699,58	0,1068	
52,78	-0,1845	121,18	699,82	0,1066	
52,80	-0,1846	122,99	699,85	0,1066	
52,82	-0,1847	126,05	699,65	0,1066	
52,84	-0,1846	126,12	699,52	0,1067	
52,86	-0,1842	124,22	699,63	0,1068	
52,88	-0,1839	122,97	699,76	0,1068	
52,90	-0,1839	123,30	699,66	0,1068	
52,92	-0,1841	123,39	699,51	0,1067	
52,94	-0,1839	121,31	699,64	0,1066	
52,96	-0,1836	120,27	699,84	0,1065	
52,98	-0,1834	123,00	699,78	0,1065	
53,00	-0,1834	126,00	699,57	0,1066	
53,02	-0,1834	124,50	699,56	0,1066	
53,04	-0,1832	121,70	699,71	0,1066	
53,06	-0,1832	123,05	699,72	0,1067	
53,08	-0,1833	125,44	699,55	0,1066	
53,10	-0,1832	123,31	699,53	0,1064	
53,12	-0,1828	119,21	699,74	0,1064	
53,14	-0,1826	120,19	699,81	0,1065	
53,16	-0,1826	123,94	699,64	0,1066	
53,18	-0,1827	123,61	699,53	0,1066	
53,20	-0,1826	120,96	699,66	0,1066	
53,22	-0,1825	121,28	699,75	0,1066	
53,24	-0,1825	124,68	699,62	0,1065	
53,26	-0,1823	125,20	699,51	0,1064	
53,28	-0,1820	122,01	699,65	0,1064	
53,30	-0,1818	120,39	699,80	0,1064	
53,32	-0,1819	123,16	699,71	0,1066	
53,34	-0,1820	124,50	699,54	0,1066	
53,36	-0,1819	121,43	699,59	0,1065	
53,38	-0,1814	119,87	699,74	0,1065	
53,40	-0,1813	122,83	699,69	0,1064	
53,42	-0,1813	125,57	699,53	0,1064	
53,44	-0,1813	123,69	699,58	0,1063	
53,46	-0,1812	121,24	699,75	0,1064	
53,48	-0,1812	123,06	699,74	0,1065	
53,50	-0,1812	125,48	699,56	0,1065	
53,52	-0,1809	123,63	699,55	0,1064	
53,54	-0,1806	121,07	699,73	0,1062	
53,56	-0,1805	122,71	699,77	0,1062	
53,58	-0,1807	125,76	699,59	0,1062	
53,60	-0,1807	124,71	699,53	0,1062	
53,62	-0,1805	121,27	699,76	0,1063	
53,64	-0,1801	121,31	699,92	0,1064	
53,66	-0,1800	123,93	699,79	0,1065	
53,68	-0,1800	124,78	699,57	0,1064	
53,70	-0,1800	122,94	699,56	0,1062	
53,72	-0,1799	121,77	699,71	0,1061	
53,74	-0,1799	123,67	699,70	0,1061	
53,76	-0,1800	125,12	699,53	0,1062	
53,78	-0,1797	122,55	699,57	0,1063	
53,80	-0,1793	118,80	699,83	0,1064	
53,82	-0,1792	120,13	699,89	0,1064	
53,84	-0,1793	124,40	699,69	0,1062	
53,86	-0,1794	125,82	699,51	0,1061	
53,88	-0,1792	124,30	699,59	0,1060	
53,90	-0,1788	122,90	699,77	0,1060	
53,92	-0,1786	123,12	699,72	0,1061	
53,94	-0,1787	123,77	699,54	0,1062	
53,96	-0,1786	122,41	699,57	0,1063	
53,98	-0,1785	120,90	699,76	0,1062	
54,00	-0,1785	122,89	699,77	0,1060	
54,02	-0,1786	125,83	699,60	0,1060	
54,04	-0,1784	124,73	699,52	0,1060	
54,06	-0,1780	121,86	699,67	0,1060	
54,08	-0,1778	122,24	699,76	0,1061	
54,10	-0,1779	125,20	699,63	0,1062	
54,12	-0,1780	125,29	699,52	0,1063	
54,14	-0,1778	122,11	699,64	0,1062	
54,16	-0,1774	121,62	699,74	0,1060	
54,18	-0,1773	124,63	699,63	0,1059	
54,20	-0,1773	125,19	699,51	0,1059	
54,22	-0,1773	122,16	699,63	0,1060	
54,24	-0,1772	120,44	699,81	0,1060	
54,26	-0,1772	122,94	699,75	0,1061	
54,28	-0,1773	125,50	699,57	0,1061	
54,30	-0,1771	123,76	699,57	0,1059	
54,32	-0,1767	121,97	699,69	0,1058	
54,34	-0,1765	123,65	699,67	0,1058	
54,36	-0,1766	125,69	699,51	0,1058	
54,38	-0,1766	123,23	699,57	0,1059	
54,40	-0,1765	119,70	699,83	0,1059	
54,42	-0,1762	120,72	699,88	0,1060	
54,44	-0,1761	124,57	699,67	0,1060	
54,46	-0,1760	125,61	699,51	0,1058	
54,48	-0,1759	123,40	699,63	0,1057	
54,50	-0,1758	122,21	699,79	0,1057	
54,52	-0,1759	122,94	699,71	0,1058	
54,54	-0,1760	123,41	699,54	0,1059	
54,56	-0,1757	121,60	699,59	0,1059	
54,58	-0,1753	120,50	699,76	0,1059	
54,60	-0,1752	123,10	699,73	0,1058	
54,62	-0,1753	125,69	699,55	0,1057	
54,64	-0,1753	123,84	699,55	0,1056	
54,66	-0,1751	120,79	699,73	0,1056	
54,68	-0,1748	121,39	699,76	0,1057	
54,70	-0,1747	124,34	699,59	0,1059	
54,72	-0,1747	123,68	699,51	0,1060	
54,74	-0,1745	120,98	699,69	0,1060	
54,76	-0,1745	120,80	699,84	0,1058	
54,78	-0,1746	122,58	699,73	0,1057	
54,80	-0,1746	123,36	699,54	0,1056	
54,82	-0,1742	121,64	699,57	0,1055	
54,84	-0,1739	120,48	699,73	0,1056	
54,86	-0,1738	122,47	699,70	0,1058	
54,88	-0,1740	123,99	699,55	0,1059	
54,90	-0,1739	121,35	699,58	0,1058	
54,92	-0,1736	118,29	699,76	0,1057	
54,94	-0,1733	120,90	699,75	0,1056	
54,96	-0,1733	125,18	699,56	0,1056	
54,98	-0,1733	124,46	699,54	0,1057	
55,00	-0,1732	121,10	699,73	0,1058	
55,02	-0,1731	121,17	699,81	0,1059	
55,04	-0,1732	124,08	699,65	0,1057	
55,06	-0,1732	124,33	699,51	0,1056	
55,08	-0,1729	121,69	699,62	0,1055	
55,10	-0,1725	120,96	699,80	0,1054	
55,12	-0,1725	123,03	699,74	0,1055	
55,14	-0,1727	124,33	699,56	0,1056	
55,16	-0,1726	122,66	699,58	0,1056	
55,18	-0,1722	120,85	699,73	0,1056	
55,20	-0,1720	122,90	699,69	0,1055	
55,22	-0,1720	125,49	699,52	0,1054	
55,24	-0,1720	123,24	699,56	0,1053	
55,26	-0,1718	119,12	699,82	0,1052	
55,28	-0,1718	120,16	699,89	0,1052	
55,30	-0,1719	124,07	699,70	0,1053	
55,32	-0,1719	124,59	699,53	0,1054	
55,34	-0,1715	121,89	699,63	0,1054	
55,36	-0,1712	121,50	699,77	0,1054	
55,38	-0,1713	124,39	699,69	0,1053	
55,40	-0,1714	125,09	699,52	0,1052	
55,42	-0,1713	122,32	699,57	0,1052	
55,44	-0,1710	120,45	699,79	0,1052	
55,46	-0,1707	122,65	699,82	0,1053	
55,48	-0,1707	125,96	699,63	0,1053	
55,50	-0,1707	126,04	699,52	0,1053	
55,52	-0,1706	123,45	699,65	0,1052	
55,54	-0,1705	122,81	699,77	0,1052	
55,56	-0,1706	125,01	699,67	0,1052	
55,58	-0,1706	125,28	699,51	0,1052	
55,60	-0,1702	122,16	699,62	0,1052	
55,62	-0,1699	120,32	699,85	0,1053	
55,64	-0,1699	122,74	699,82	0,1053	
55,66	-0,1700	125,49	699,60	0,1052	
55,68	-0,1700	123,82	699,55	0,1051	
55,70	-0,1696	121,23	699,71	0,1050	
55,72	-0,1693	122,70	699,76	0,1050	
55,74	-0,1693	125,80	699,60	0,1051	
55,76	-0,1693	125,54	699,50	0,1052	
55,78	-0,1692	122,15	699,65	0,1052	
55,80	-0,1691	121,50	699,80	0,1052	
55,82	-0,1692	124,48	699,71	0,1050	
55,84	-0,1692	126,33	699,53	0,1050	
55,86	-0,1689	124,93	699,59	0,1049	
55,88	-0,1685	123,63	699,77	0,1050	
55,90	-0,1685	124,92	699,76	0,1051	
55,92	-0,1686	126,64	699,57	0,1052	
55,94	-0,1686	125,82	699,54	0,1051	
55,96	-0,1683	123,09	699,75	0,1050	
55,98	-0,1680	123,38	699,85	0,1049	
56,00	-0,1680	125,90	699,68	0,1048	
56,02	-0,1680	126,28	699,54	0,1048	
56,04	-0,1679	123,96	699,65	0,1048	
56,06	-0,1678	124,27	699,74	0,1049	
56,08	-0,1679	127,64	699,62	0,1050	
56,10	-0,1680	128,27	699,50	0,1050	
56,12	-0,1676	124,03	699,70	0,1049	
56,14	-0,1673	122,05	699,89	0,1048	
56,16	-0,1672	124,99	699,80	0,1048	
56,18	-0,1673	127,17	699,59	0,1048	
56,20	-0,1673	126,76	699,50	0,1048	
56,22	-0,1672	125,89	699,69	0,1048	
56,24	-0,1671	125,80	699,84	0,1049	
56,26	-0,1671	126,45	699,73	0,1049	
56,28	-0,1669	127,07	699,53	0,1049	
56,30	-0,1666	125,56	699,58	0,1047	
56,32	-0,1664	123,97	699,77	0,1046	
56,34	-0,1621	125,49	699,76	0,1047	
56,36	-0,1066	127,10	699,59	0,1048	
56,38	-0,03484	126,12	699,53	0,1048	
56,40	-0,00196	123,97	699,67	0,1049	
56,42	0,00300	124,56	699,75	0,1049	
56,44	0,00163	127,41	699,62	0,1048	
56,46	0,00120	127,00	699,51	0,1047	
56,48	0,00172	123,77	699,68	0,1046	
56,50	0,00204	122,29	699,88	0,1046	
56,52	0,00210	124,34	699,81	0,1047	
56,54	0,00197	126,63	699,58	0,1048	
56,56	0,00195	125,74	699,57	0,1048	
56,58	0,00214	124,05	699,74	0,1048	
56,60	0,00243	126,02	699,74	0,1047	
56,62	0,00262	128,73	699,56	0,1046	
56,64	0,00276	126,76	699,54	0,1045	
56,66	0,00291	123,73	699,73	0,1045	
56,68	0,00303	126,08	699,78	0,1045	
56,70	0,00318	132,16	699,61	0,1045	
56,72	0,00348	135,23	699,51	0,1044	
56,74	0,00403	135,89	699,68	0,1041	
56,76	0,00464	140,96	699,82	0,1039	
56,78	0,00518	150,12	699,70	0,1038	
56,80	0,00578	157,39	699,53	0,1037	
56,82	0,00666	162,70	699,58	0,1036	
56,84	0,00764	169,75	699,74	0,1034	
56,86	0,00849	181,08	699,71	0,1032	
56,88	0,00937	192,35	699,53	0,1030	
56,90	0,01059	200,77	699,55	0,1027	
56,92	0,01185	209,28	699,79	0,1023	
56,94	0,01294	222,59	699,87	0,1020	
56,96	0,01426	238,42	699,69	0,1018	
56,98	0,01580	252,19	699,51	0,1016	
57,00	0,01738	264,35	699,60	0,1013	
57,02	0,01896	278,50	699,81	0,1009	
57,04	0,02057	295,05	699,80	0,1004	
57,06	0,02221	312,74	699,59	0,09990	
57,08	0,02397	329,72	699,51	0,09944	
57,10	0,02598	345,77	699,69	0,09892	
57,12	0,02802	364,48	699,80	0,09843	
57,14	0,02994	386,04	699,66	0,09802	
57,16	0,03202	405,70	699,53	0,09760	
57,18	0,03436	422,46	699,65	0,09704	
57,20	0,03679	442,36	699,77	0,09630	
57,22	0,03903	467,02	699,66	0,09554	
57,24	0,04141	490,10	699,51	0,09483	
57,26	0,04410	509,22	699,59	0,09419	
57,28	0,04691	529,18	699,78	0,09351	
57,30	0,04959	553,70	699,76	0,09276	
57,32	0,05213	579,29	699,57	0,09192	
57,34	0,05482	601,01	699,53	0,09100	
57,36	0,05786	621,27	699,72	0,08995	
57,38	0,06098	644,55	699,81	0,08880	
57,40	0,06399	669,63	699,66	0,08768	
57,42	0,06708	692,00	699,51	0,08653	
57,44	0,07047	711,65	699,63	0,08533	
57,46	0,07391	733,07	699,80	0,08395	
57,48	0,07729	756,83	699,74	0,08239	
57,50	0,08070	779,05	699,56	0,08064	
57,52	0,08429	796,98	699,54	0,07874	
57,54	0,08801	813,77	699,72	0,07687	
57,56	0,09183	832,61	699,78	0,07496	
57,58	0,09566	852,03	699,64	0,07305	
57,60	0,09941	868,34	699,51	0,07098	
57,62	0,1033	881,27	699,62	0,06869	
57,64	0,1073	894,18	699,76	0,06630	
57,66	0,1112	908,73	699,68	0,06385	
57,68	0,1151	920,87	699,51	0,06130	
57,70	0,1192	928,69	699,58	0,05878	
57,72	0,1234	935,22	699,82	0,05633	
57,74	0,1274	944,51	699,85	0,05392	
57,76	0,1313	954,43	699,67	0,05143	
57,78	0,1353	961,37	699,53	0,04871	
57,80	0,1393	966,36	699,60	0,04591	
57,82	0,1435	971,38	699,75	0,04317	
57,84	0,1475	976,74	699,71	0,04043	
57,86	0,1514	981,54	699,53	0,03773	
57,88	0,1554	984,37	699,54	0,03500	
57,90	0,1596	985,96	699,80	0,03232	
57,92	0,1637	990,60	699,90	0,02960	
57,94	0,1675	996,83	699,73	0,02672	
57,96	0,1714	999,95	699,55	0,02375	
57,98	0,1752	1000,7	699,58	0,02080	
58,00	0,1791	1002,7	699,70	0,01796	
58,02	0,1830	1006,4	699,66	0,01524	
58,04	0,1869	1009,5	699,51	0,01241	
58,06	0,1910	1009,4	699,57	0,00949	
58,08	0,1952	1009,3	699,80	0,00652	
58,10	0,1992	1012,7	699,83	0,00355	
58,12	0,2031	1017,8	699,64	0,00066	
58,14	0,2071	1019,2	699,53	-0,00224	
58,16	0,2112	1018,6	699,65	-0,00514	
58,18	0,2153	1020,4	699,74	-0,00795	
58,20	0,2193	1024,3	699,61	-0,01076	
58,22	0,2232	1025,7	699,49	-0,01371	
58,24	0,2273	1024,1	699,67	-0,01676	
58,26	0,2315	1023,7	699,89	-0,01973	
58,28	0,2354	1027,1	699,80	-0,02265	
58,30	0,2393	1029,5	699,58	-0,02556	
58,32	0,2434	1028,6	699,56	-0,02846	
58,34	0,2475	1027,2	699,73	-0,03132	
58,36	0,2516	1029,3	699,78	-0,03419	
58,38	0,2555	1032,6	699,61	-0,03724	
58,40	0,2595	1032,8	699,54	-0,04040	
58,42	0,2636	1031,2	699,71	-0,04350	
58,44	0,2676	1033,1	699,83	-0,04646	
58,46	0,2713	1037,7	699,71	-0,04929	
58,48	0,2750	1040,0	699,52	-0,05214	
58,50	0,2790	1038,4	699,59	-0,05510	
58,52	0,2832	1037,0	699,82	-0,05813	
58,54	0,2872	1038,2	699,84	-0,06126	
58,56	0,2911	1040,1	699,64	-0,06438	
58,58	0,2951	1040,7	699,52	-0,06746	
58,60	0,2992	1040,1	699,64	-0,07047	
58,62	0,3033	1040,7	699,76	-0,07335	
58,64	0,3072	1042,7	699,65	-0,07617	
58,66	0,3111	1043,4	699,52	-0,07907	
58,68	0,3153	1041,8	699,60	-0,08214	
58,70	0,3194	1041,6	699,76	-0,08533	
58,72	0,3234	1044,5	699,72	-0,08841	
58,74	0,3273	1046,5	699,55	-0,09145	
58,76	0,3313	1045,3	699,55	-0,09452	
58,78	0,3355	1043,9	699,73	-0,09743	
58,80	0,3395	1046,0	699,78	-0,1003	
58,82	0,3434	1049,3	699,62	-0,1034	
58,84	0,3474	1049,6	699,53	-0,1065	
58,86	0,3515	1047,6	699,66	-0,1097	
58,88	0,3557	1047,9	699,77	-0,1127	
58,90	0,3596	1051,3	699,65	-0,1157	
58,92	0,3635	1052,1	699,51	-0,1186	
58,94	0,3676	1049,2	699,62	-0,1216	
58,96	0,3714	1048,3	699,79	-0,1246	
58,98	0,3752	1051,0	699,74	-0,1276	
59,00	0,3790	1053,0	699,56	-0,1308	
59,02	0,3831	1050,8	699,58	-0,1340	
59,04	0,3872	1049,0	699,74	-0,1370	
59,06	0,3912	1051,9	699,76	-0,1399	
59,08	0,3951	1055,3	699,60	-0,1428	
59,10	0,3992	1054,2	699,53	-0,1460	
59,12	0,4033	1051,6	699,68	-0,1491	
59,14	0,4074	1052,7	699,77	-0,1522	
59,16	0,4113	1055,7	699,65	-0,1552	
59,18	0,4153	1056,2	699,52	-0,1583	
59,20	0,4194	1054,4	699,62	-0,1613	
59,22	0,4235	1053,6	699,76	-0,1643	
59,24	0,4274	1056,3	699,68	-0,1672	
59,26	0,4314	1058,0	699,52	-0,1703	
59,28	0,4355	1055,8	699,58	-0,1736	
59,30	0,4396	1053,9	699,76	-0,1767	
59,32	0,4436	1056,1	699,75	-0,1797	
59,34	0,4475	1059,3	699,58	-0,1826	
59,36	0,4514	1058,7	699,56	-0,1857	
59,38	0,4553	1057,3	699,72	-0,1887	
59,40	0,4592	1059,5	699,75	-0,1918	
59,42	0,4630	1062,3	699,59	-0,1949	
59,44	0,4670	1061,0	699,51	-0,1981	
59,46	0,4711	1057,9	699,67	-0,2013	
59,48	0,4752	1057,8	699,80	-0,2043	
59,50	0,4791	1061,0	699,71	-0,2072	
59,52	0,4831	1062,5	699,54	-0,2103	
59,54	0,4871	1061,3	699,56	-0,2135	
59,56	0,4913	1060,4	699,73	-0,2166	
59,58	0,4953	1061,8	699,75	-0,2197	
59,60	0,4992	1063,5	699,59	-0,2228	
59,62	0,5032	1062,9	699,52	-0,2259	
59,64	0,5074	1060,7	699,69	-0,2290	
59,66	0,5114	1060,8	699,81	-0,2320	
59,68	0,5154	1062,7	699,69	-0,2349	
59,70	0,5193	1063,6	699,51	-0,2381	
59,72	0,5234	1061,8	699,62	-0,2413	
59,74	0,5276	1060,4	699,85	-0,2445	
59,76	0,5316	1062,7	699,85	-0,2475	
59,78	0,5355	1065,0	699,64	-0,2505	
59,80	0,5395	1064,8	699,52	-0,2536	
59,82	0,5436	1063,5	699,67	-0,2565	
59,84	0,5475	1064,0	699,79	-0,2588	
59,86	0,5513	1066,0	699,69	-0,2612	
59,88	0,5551	1066,9	699,53	-0,2642	
59,90	0,5591	1065,1	699,60	-0,2673	
59,92	0,5632	1063,9	699,75	-0,2704	
59,94	0,5671	1066,3	699,71	-0,2734	
59,96	0,5710	1068,3	699,56	-0,2764	
59,98	0,5751	1066,8	699,56	-0,2795	
60,00	0,5792	1064,7	699,70	-0,2826	
60,02	0,5833	1066,4	699,69	-0,2858	
60,04	0,5872	1069,1	699,54	-0,2890	
60,06	0,5912	1067,5	699,56	-0,2926	
60,08	0,5954	1064,8	699,81	-0,2966	
60,10	0,5994	1066,1	699,91	-0,3001	
60,12	0,6033	1069,1	699,73	-0,3032	
60,14	0,6073	1070,3	699,54	-0,3064	
60,16	0,6114	1068,7	699,58	-0,3097	
60,18	0,6155	1067,9	699,76	-0,3129	
60,20	0,6195	1069,2	699,75	-0,3160	
60,22	0,6234	1070,5	699,58	-0,3191	
60,24	0,6275	1069,5	699,55	-0,3222	
60,26	0,6316	1067,8	699,73	-0,3253	
60,28	0,6357	1069,4	699,81	-0,3284	
60,30	0,6396	1072,5	699,67	-0,3317	
60,32	0,6435	1072,5	699,54	-0,3349	
60,34	0,6473	1070,2	699,64	-0,3381	
60,36	0,6512	1069,6	699,75	-0,3411	
60,38	0,6551	1071,7	699,66	-0,3441	
60,40	0,6590	1073,1	699,52	-0,3472	
60,42	0,6631	1071,8	699,59	-0,3505	
60,44	0,6672	1070,6	699,78	-0,3537	
60,46	0,6712	1072,8	699,78	-0,3568	
60,48	0,6751	1075,0	699,60	-0,3599	
60,50	0,6791	1073,7	699,52	-0,3630	
60,52	0,6833	1071,4	699,67	-0,3661	
60,54	0,6874	1072,0	699,79	-0,3692	
60,56	0,6913	1074,1	699,68	-0,3723	
60,58	0,6953	1074,2	699,53	-0,3756	
60,60	0,6994	1072,9	699,61	-0,3789	
60,62	0,7035	1073,0	699,76	-0,3820	
60,64	0,7075	1075,1	699,70	-0,3851	
60,66	0,7114	1076,6	699,55	-0,3882	
60,68	0,7155	1075,3	699,58	-0,3914	
60,70	0,7196	1074,0	699,71	-0,3945	
60,72	0,7236	1076,2	699,68	-0,3977	
60,74	0,7275	1079,0	699,53	-0,4009	
60,76	0,7316	1077,5	699,55	-0,4041	
60,78	0,7357	1074,8	699,79	-0,4073	
60,80	0,7397	1075,5	699,87	-0,4104	
60,82	0,7433	1078,5	699,70	-0,4135	
60,84	0,7471	1079,0	699,55	-0,4166	
60,86	0,7511	1077,0	699,63	-0,4199	
60,88	0,7552	1077,3	699,71	-0,4232	
60,90	0,7592	1079,3	699,62	-0,4264	
60,92	0,7631	1079,6	699,50	-0,4295	
60,94	0,7672	1076,8	699,62	-0,4326	
60,96	0,7714	1075,4	699,81	-0,4357	
60,98	0,7753	1077,7	699,78	-0,4388	
61,00	0,7792	1080,2	699,60	-0,4420	
61,02	0,7833	1079,5	699,56	-0,4453	
61,04	0,7874	1077,8	699,71	-0,4485	
61,06	0,7915	1078,5	699,73	-0,4517	
61,08	0,7954	1080,2	699,59	-0,4548	
61,10	0,7994	1079,3	699,55	-0,4579	
61,12	0,8036	1076,8	699,69	-0,4611	
61,14	0,8076	1077,7	699,74	-0,4643	
61,16	0,8115	1081,5	699,60	-0,4675	
61,18	0,8155	1082,2	699,51	-0,4708	
61,20	0,8197	1079,1	699,67	-0,4741	
61,22	0,8238	1078,3	699,82	-0,4772	
61,24	0,8277	1081,3	699,73	-0,4802	
61,26	0,8316	1083,4	699,55	-0,4833	
61,28	0,8357	1082,1	699,58	-0,4866	
61,30	0,8398	1080,7	699,73	-0,4898	
61,32	0,8435	1081,9	699,71	-0,4930	
61,34	0,8472	1083,2	699,56	-0,4963	
61,36	0,8511	1081,1	699,55	-0,4995	
61,38	0,8553	1078,2	699,72	-0,5026	
61,40	0,8593	1079,4	699,79	-0,5057	
61,42	0,8632	1082,6	699,64	-0,5088	
61,44	0,8672	1082,7	699,55	-0,5120	
61,46	0,8713	1079,7	699,70	-0,5153	
61,48	0,8754	1080,0	699,76	-0,5186	
61,50	0,8793	1082,7	699,63	-0,5218	
61,52	0,8833	1082,7	699,52	-0,5250	
61,54	0,8874	1079,7	699,64	-0,5282	
61,56	0,8916	1079,3	699,78	-0,5313	
61,58	0,8955	1081,9	699,70	-0,5345	
61,60	0,8995	1083,5	699,55	-0,5378	
61,62	0,9035	1082,2	699,57	-0,5412	
61,64	0,9077	1080,8	699,75	-0,5444	
61,66	0,9117	1081,8	699,76	-0,5476	
61,68	0,9156	1083,6	699,60	-0,5508	
61,70	0,9196	1082,9	699,56	-0,5540	
61,72	0,9236	1081,3	699,67	-0,5573	
61,74	0,9274	1082,4	699,66	-0,5605	
61,76	0,9311	1084,5	699,53	-0,5638	
61,78	0,9351	1083,1	699,57	-0,5671	
61,80	0,9392	1080,1	699,82	-0,5703	
61,82	0,9433	1080,9	699,88	-0,5733	
61,84	0,9472	1084,8	699,69	-0,5764	
61,86	0,9512	1085,7	699,53	-0,5796	
61,88	0,9553	1082,8	699,63	-0,5829	
61,90	0,9594	1081,4	699,77	-0,5862	
61,92	0,9634	1082,8	699,69	-0,5894	
61,94	0,9673	1083,6	699,54	-0,5925	
61,96	0,9714	1081,3	699,60	-0,5957	
61,98	0,9755	1079,9	699,77	-0,5989	
62,00	0,9795	1082,2	699,75	-0,6020	
62,02	0,9834	1084,2	699,58	-0,6053	
62,04	0,9875	1083,1	699,55	-0,6086	
62,06	0,9916	1080,7	699,73	-0,6118	
62,08	0,9956	1080,9	699,80	-0,6150	
62,10	0,9996	1082,9	699,67	-0,6182	
62,12	1,004	1083,0	699,53	-0,6214	
62,14	1,008	1081,6	699,61	-0,6246	
62,16	1,012	1081,7	699,75	-0,6278	
62,18	1,016	1083,1	699,70	-0,6311	
62,20	1,020	1083,7	699,54	-0,6344	
62,22	1,024	1082,1	699,58	-0,6376	
62,24	1,027	1080,7	699,76	-0,6409	
62,26	1,031	1082,9	699,76	-0,6440	
62,28	1,035	1085,9	699,59	-0,6471	
62,30	1,039	1084,5	699,56	-0,6503	
62,32	1,043	1081,4	699,71	-0,6536	
62,34	1,047	1081,5	699,72	-0,6569	
62,36	1,051	1084,0	699,57	-0,6602	
62,38	1,055	1083,0	699,56	-0,6635	
62,40	1,059	1079,6	699,74	-0,6667	
62,42	1,063	1080,3	699,77	-0,6698	
62,44	1,067	1083,6	699,59	-0,6730	
62,46	1,071	1083,0	699,55	-0,6762	
62,48	1,075	1079,5	699,71	-0,6796	
62,50	1,080	1079,8	699,77	-0,6830	
62,52	1,083	1082,6	699,62	-0,6862	
62,54	1,087	1082,7	699,53	-0,6894	
62,56	1,092	1079,7	699,67	-0,6926	
62,58	1,096	1079,9	699,79	-0,6958	
62,60	1,100	1082,5	699,68	-0,6990	
62,62	1,104	1082,7	699,54	-0,7023	
62,64	1,108	1080,5	699,62	-0,7057	
62,66	1,112	1079,9	699,75	-0,7091	
62,68	1,116	1082,0	699,67	-0,7122	
62,70	1,119	1083,1	699,53	-0,7154	
62,72	1,123	1080,1	699,63	-0,7186	
62,74	1,127	1077,6	699,82	-0,7218	
62,76	1,131	1079,7	699,77	-0,7251	
62,78	1,135	1082,6	699,59	-0,7285	
62,80	1,139	1081,2	699,57	-0,7318	
62,82	1,143	1079,0	699,72	-0,7351	
62,84	1,147	1080,5	699,71	-0,7383	
62,86	1,151	1082,8	699,55	-0,7415	
62,88	1,155	1080,7	699,57	-0,7447	
62,90	1,159	1077,5	699,77	-0,7481	
62,92	1,163	1079,1	699,79	-0,7514	
62,94	1,167	1082,6	699,61	-0,7547	
62,96	1,171	1081,9	699,57	-0,7580	
62,98	1,176	1078,8	699,71	-0,7613	
63,00	1,180	1079,8	699,70	-0,7644	
63,02	1,184	1082,4	699,55	-0,7676	
63,04	1,188	1080,5	699,58	-0,7709	
63,06	1,192	1076,3	699,75	-0,7742	
63,08	1,196	1077,0	699,74	-0,7776	
63,10	1,200	1080,3	699,57	-0,7809	
63,12	1,204	1079,0	699,56	-0,7842	
63,14	1,208	1075,5	699,75	-0,7873	
63,16	1,212	1076,3	699,79	-0,7905	
63,18	1,215	1079,4	699,62	-0,7938	
63,20	1,219	1079,4	699,54	-0,7972	
63,22	1,223	1075,9	699,70	-0,8005	
63,24	1,227	1075,1	699,80	-0,8038	
63,26	1,231	1077,7	699,66	-0,8070	
63,28	1,235	1077,1	699,55	-0,8103	
63,30	1,239	1073,9	699,67	-0,8136	
63,32	1,243	1074,2	699,76	-0,8168	
63,34	1,247	1077,8	699,64	-0,8202	
63,36	1,251	1078,8	699,51	-0,8235	
63,38	1,255	1075,8	699,65	-0,8269	
63,40	1,260	1073,8	699,81	-0,8302	
63,42	1,263	1075,2	699,73	-0,8334	
63,44	1,267	1076,7	699,55	-0,8366	
63,46	1,271	1075,2	699,60	-0,8399	
63,48	1,276	1073,8	699,78	-0,8432	
63,50	1,280	1075,7	699,73	-0,8465	
63,52	1,283	1077,3	699,57	-0,8499	
63,54	1,288	1074,6	699,61	-0,8534	
63,56	1,292	1072,5	699,75	-0,8567	
63,58	1,296	1075,2	699,68	-0,8598	
63,60	1,300	1077,2	699,53	-0,8630	
63,62	1,304	1074,5	699,61	-0,8663	
63,64	1,308	1071,4	699,76	-0,8697	
63,66	1,312	1073,0	699,70	-0,8730	
63,68	1,316	1074,8	699,54	-0,8763	
63,70	1,319	1071,7	699,61	-0,8795	
63,72	1,323	1069,2	699,80	-0,8827	
63,74	1,327	1072,0	699,77	-0,8859	
63,76	1,331	1074,9	699,60	-0,8893	
63,78	1,335	1073,7	699,57	-0,8927	
63,80	1,339	1071,4	699,68	-0,8961	
63,82	1,343	1073,0	699,65	-0,8995	
63,84	1,347	1074,7	699,52	-0,9028	
63,86	1,351	1071,6	699,63	-0,9061	
63,88	1,356	1068,1	699,87	-0,9093	
63,90	1,360	1069,8	699,85	-0,9125	
63,92	1,363	1073,5	699,63	-0,9159	
63,94	1,367	1073,3	699,57	-0,9192	
63,96	1,372	1071,2	699,72	-0,9226	
63,98	1,376	1071,6	699,74	-0,9260	
64,00	1,379	1073,4	699,58	-0,9292	
64,02	1,383	1071,5	699,56	-0,9325	
64,04	1,388	1067,5	699,73	-0,9358	
64,06	1,392	1067,7	699,75	-0,9391	
64,08	1,396	1070,9	699,59	-0,9424	
64,10	1,399	1070,2	699,56	-0,9457	
64,12	1,403	1067,0	699,72	-0,9491	
64,14	1,407	1067,5	699,73	-0,9524	
64,16	1,411	1070,3	699,58	-0,9557	
64,18	1,415	1069,5	699,57	-0,9590	
64,20	1,419	1066,0	699,75	-0,9624	
64,22	1,423	1066,8	699,77	-0,9657	
64,24	1,427	1070,1	699,59	-0,9690	
64,26	1,431	1069,6	699,55	-0,9724	
64,28	1,435	1066,2	699,73	-0,9757	
64,30	1,439	1066,4	699,80	-0,9790	
64,32	1,443	1069,2	699,64	-0,9822	
64,34	1,447	1069,3	699,54	-0,9856	
64,36	1,451	1065,9	699,68	-0,9890	
64,38	1,455	1064,9	699,78	-0,9924	
64,40	1,459	1067,9	699,63	-0,9957	
64,42	1,463	1068,4	699,54	-0,9990	
64,44	1,468	1064,3	699,70	-1,002	
64,46	1,472	1063,8	699,79	-1,006	
64,48	1,475	1067,6	699,64	-1,009	
64,50	1,479	1067,8	699,55	-1,012	
64,52	1,484	1063,8	699,69	-1,016	
64,54	1,488	1063,5	699,77	-1,019	
64,56	1,492	1066,6	699,63	-1,022	
64,58	1,496	1066,4	699,53	-1,026	
64,60	1,500	1062,7	699,68	-1,029	
64,62	1,504	1061,5	699,78	-1,032	
64,64	1,508	1064,5	699,65	-1,036	
64,66	1,511	1065,5	699,53	-1,039	
64,68	1,515	1062,6	699,67	-1,042	
64,70	1,519	1061,6	699,79	-1,046	
64,72	1,523	1064,5	699,67	-1,049	
64,74	1,527	1065,5	699,54	-1,052	
64,76	1,531	1062,6	699,67	-1,056	
64,78	1,535	1061,5	699,79	-1,059	
64,80	1,539	1064,4	699,68	-1,063	
64,82	1,543	1065,4	699,55	-1,066	
64,84	1,547	1061,8	699,68	-1,069	
64,86	1,551	1060,8	699,78	-1,073	
64,88	1,555	1064,2	699,66	-1,076	
64,90	1,559	1065,0	699,55	-1,079	
64,92	1,563	1060,7	699,67	-1,083	
64,94	1,568	1058,6	699,76	-1,086	
64,96	1,572	1061,2	699,64	-1,089	
64,98	1,575	1062,1	699,54	-1,093	
65,00	1,580	1059,2	699,68	-1,096	
65,02	1,584	1058,2	699,79	-1,100	
65,04	1,588	1061,2	699,67	-1,103	
65,06	1,591	1062,2	699,54	-1,106	
65,08	1,595	1058,6	699,67	-1,110	
65,10	1,599	1057,5	699,79	-1,113	
65,12	1,603	1060,9	699,67	-1,116	
65,14	1,607	1062,2	699,54	-1,120	
65,16	1,611	1058,8	699,64	-1,123	
65,18	1,615	1057,6	699,75	-1,127	
65,20	1,619	1060,9	699,63	-1,130	
65,22	1,623	1061,7	699,54	-1,133	
65,24	1,627	1057,3	699,70	-1,137	
65,26	1,631	1055,2	699,80	-1,140	
65,28	1,635	1058,4	699,67	-1,144	
65,30	1,639	1059,4	699,56	-1,147	
65,32	1,643	1056,4	699,68	-1,150	
65,34	1,648	1056,7	699,75	-1,154	
65,36	1,651	1060,5	699,61	-1,157	
65,38	1,655	1060,3	699,55	-1,160	
65,40	1,660	1056,1	699,72	-1,164	
65,42	1,664	1054,9	699,81	-1,167	
65,44	1,668	1057,9	699,65	-1,170	
65,46	1,672	1058,4	699,55	-1,174	
65,48	1,676	1054,9	699,68	-1,177	
65,50	1,680	1054,4	699,75	-1,181	
65,52	1,684	1057,5	699,61	-1,184	
65,54	1,687	1057,1	699,53	-1,187	
65,56	1,691	1053,1	699,72	-1,191	
65,58	1,695	1052,8	699,86	-1,194	
65,60	1,699	1055,5	699,72	-1,198	
65,62	1,703	1056,4	699,57	-1,201	
65,64	1,707	1053,6	699,66	-1,205	
65,66	1,711	1053,5	699,72	-1,208	
65,68	1,715	1057,1	699,59	-1,211	
65,70	1,719	1056,9	699,54	-1,215	
65,72	1,723	1052,1	699,76	-1,218	
65,74	1,727	1050,7	699,87	-1,222	
65,76	1,731	1054,1	699,70	-1,225	
65,78	1,735	1055,4	699,58	-1,228	
65,80	1,739	1052,4	699,71	-1,232	
65,82	1,744	1052,2	699,76	-1,235	
65,84	1,747	1055,3	699,60	-1,239	
65,86	1,751	1054,4	699,58	-1,242	
65,88	1,756	1049,4	699,74	-1,246	
65,90	1,760	1049,5	699,74	-1,249	
65,92	1,764	1053,6	699,58	-1,252	
65,94	1,768	1052,7	699,58	-1,256	
65,96	1,772	1048,9	699,74	-1,259	
65,98	1,776	1049,8	699,72	-1,262	
66,00	1,780	1053,0	699,56	-1,266	
66,02	1,784	1051,4	699,58	-1,269	
66,04	1,788	1048,2	699,77	-1,273	
66,06	1,791	1049,2	699,77	-1,276	
66,08	1,795	1052,5	699,60	-1,280	
66,10	1,799	1051,6	699,61	-1,283	
66,12	1,803	1049,1	699,71	-1,287	
66,14	1,807	1051,7	699,62	-1,290	
66,16	1,811	1053,3	699,53	-1,294	
66,18	1,815	1048,5	699,71	-1,297	
66,20	1,819	1045,0	699,86	-1,300	
66,22	1,823	1048,2	699,72	-1,304	
66,24	1,827	1051,2	699,54	-1,307	
66,26	1,831	1048,3	699,62	-1,311	
66,28	1,836	1045,6	699,79	-1,314	
66,30	1,840	1047,6	699,73	-1,318	
66,32	1,843	1049,3	699,58	-1,321	
66,34	1,848	1046,6	699,62	-1,324	
66,36	1,852	1045,1	699,68	-1,328	
66,38	1,856	1047,7	699,57	-1,331	
66,40	1,860	1048,3	699,54	-1,335	
66,42	1,864	1043,3	699,77	-1,338	
66,44	1,868	1041,1	699,90	-1,342	
66,46	1,872	1045,0	699,74	-1,345	
66,48	1,876	1047,9	699,56	-1,348	
66,50	1,880	1046,1	699,62	-1,352	
66,52	1,884	1044,7	699,72	-1,355	
66,54	1,887	1046,0	699,63	-1,359	
66,56	1,891	1045,9	699,53	-1,362	
66,58	1,895	1042,0	699,66	-1,366	
66,60	1,899	1040,8	699,80	-1,369	
66,62	1,903	1044,1	699,69	-1,373	
66,64	1,907	1046,1	699,55	-1,376	
66,66	1,911	1043,4	699,64	-1,380	
66,68	1,915	1041,8	699,79	-1,383	
66,70	1,919	1044,3	699,73	-1,387	
66,72	1,923	1045,5	699,56	-1,390	
66,74	1,927	1041,8	699,60	-1,394	
66,76	1,932	1039,0	699,76	-1,397	
66,78	1,936	1040,7	699,74	-1,400	
66,80	1,939	1042,7	699,56	-1,404	
66,82	1,944	1040,7	699,56	-1,407	
66,84	1,948	1037,6	699,74	-1,411	
66,86	1,952	1038,9	699,75	-1,414	
66,88	1,956	1041,7	699,58	-1,418	
66,90	1,960	1040,5	699,56	-1,421	
66,92	1,964	1037,8	699,74	-1,424	
66,94	1,968	1039,1	699,78	-1,428	
66,96	1,972	1042,3	699,62	-1,431	
66,98	1,976	1041,7	699,58	-1,435	
67,00	1,980	1038,7	699,72	-1,438	
67,02	1,984	1039,5	699,71	-1,442	
67,04	1,987	1042,2	699,56	-1,445	
67,06	1,991	1040,4	699,59	-1,449	
67,08	1,995	1036,2	699,75	-1,452	
67,10	1,999	1036,6	699,74	-1,455	
67,12	2,003	1039,6	699,57	-1,459	
67,14	2,007	1037,9	699,59	-1,462	
67,16	2,011	1034,8	699,75	-1,466	
67,18	2,015	1036,0	699,73	-1,469	
67,20	2,019	1038,8	699,57	-1,473	
67,22	2,023	1037,5	699,60	-1,476	
67,24	2,028	1034,7	699,76	-1,480	
67,26	2,032	1036,0	699,73	-1,483	
67,28	2,035	1038,8	699,58	-1,487	
67,30	2,040	1037,5	699,58	-1,490	
67,32	2,044	1034,7	699,72	-1,494	
67,34	2,048	1035,9	699,70	-1,497	
67,36	2,052	1037,8	699,55	-1,500	
67,38	2,056	1035,0	699,59	-1,504	
67,40	2,060	1031,4	699,76	-1,507	
67,42	2,064	1032,8	699,75	-1,511	
67,44	2,067	1036,2	699,57	-1,514	
67,46	2,071	1034,6	699,58	-1,518	
67,48	2,075	1031,4	699,76	-1,521	
67,50	2,079	1032,5	699,78	-1,525	
67,52	2,083	1035,7	699,60	-1,528	
67,54	2,087	1035,1	699,55	-1,532	
67,56	2,091	1031,9	699,71	-1,535	
67,58	2,095	1032,5	699,77	-1,539	
67,60	2,099	1035,2	699,61	-1,542	
67,62	2,103	1034,0	699,55	-1,546	
67,64	2,107	1030,5	699,71	-1,549	
67,66	2,112	1030,6	699,77	-1,553	
67,68	2,115	1034,0	699,63	-1,556	
67,70	2,119	1033,6	699,56	-1,560	
67,72	2,124	1030,3	699,69	-1,563	
67,74	2,128	1030,5	699,73	-1,567	
67,76	2,132	1033,5	699,58	-1,570	
67,78	2,136	1032,9	699,56	-1,574	
67,80	2,140	1029,4	699,74	-1,577	
67,82	2,144	1029,5	699,78	-1,581	
67,84	2,148	1032,4	699,61	-1,584	
67,86	2,152	1031,5	699,57	-1,588	
67,88	2,156	1027,8	699,74	-1,591	
67,90	2,160	1028,7	699,79	-1,595	
67,92	2,163	1031,9	699,62	-1,598	
67,94	2,167	1030,7	699,57	-1,602	
67,96	2,171	1027,4	699,73	-1,605	
67,98	2,175	1028,7	699,77	-1,609	
68,00	2,179	1031,9	699,60	-1,612	
68,02	2,183	1030,7	699,55	-1,616	
68,04	2,187	1026,4	699,78	-1,619	
68,06	2,191	1026,0	699,88	-1,623	
68,08	2,195	1028,6	699,71	-1,626	
68,10	2,199	1028,4	699,58	-1,630	
68,12	2,204	1025,3	699,71	-1,633	
68,14	2,208	1025,2	699,75	-1,637	
68,16	2,211	1028,2	699,59	-1,640	
68,18	2,215	1027,1	699,57	-1,643	
68,20	2,220	1023,0	699,72	-1,647	
68,22	2,224	1023,4	699,71	-1,650	
68,24	2,228	1026,9	699,55	-1,654	
68,26	2,232	1025,0	699,61	-1,658	
68,28	2,236	1020,9	699,82	-1,661	
68,30	2,240	1023,0	699,80	-1,665	
68,32	2,244	1027,2	699,60	-1,668	
68,34	2,248	1025,8	699,61	-1,672	
68,36	2,252	1023,0	699,78	-1,675	
68,38	2,256	1024,9	699,75	-1,679	
68,40	2,259	1026,9	699,57	-1,682	
68,42	2,263	1024,1	699,60	-1,686	
68,44	2,267	1020,5	699,73	-1,689	
68,46	2,271	1022,1	699,67	-1,693	
68,48	2,275	1025,0	699,54	-1,696	
68,50	2,279	1022,4	699,65	-1,700	
68,52	2,283	1019,9	699,78	-1,703	
68,54	2,287	1022,4	699,67	-1,707	
68,56	2,291	1024,5	699,55	-1,710	
68,58	2,295	1021,3	699,69	-1,714	
68,60	2,300	1018,9	699,82	-1,717	
68,62	2,303	1021,5	699,71	-1,721	
68,64	2,307	1023,2	699,57	-1,724	
68,66	2,312	1020,5	699,64	-1,728	
68,68	2,316	1020,1	699,70	-1,732	
68,70	2,320	1023,6	699,57	-1,735	
68,72	2,324	1023,4	699,55	-1,739	
68,74	2,328	1018,6	699,74	-1,742	
68,76	2,332	1017,8	699,78	-1,746	
68,78	2,336	1021,3	699,61	-1,749	
68,80	2,340	1021,4	699,58	-1,753	
68,82	2,344	1018,4	699,75	-1,756	
68,84	2,348	1019,2	699,75	-1,760	
68,86	2,352	1022,0	699,58	-1,763	
68,88	2,356	1020,5	699,60	-1,767	
68,90	2,359	1017,1	699,77	-1,770	
68,92	2,363	1018,6	699,75	-1,774	
68,94	2,367	1021,9	699,58	-1,777	
68,96	2,371	1020,4	699,60	-1,781	
68,98	2,375	1017,1	699,74	-1,785	
69,00	2,379	1018,9	699,68	-1,788	
69,02	2,383	1021,0	699,55	-1,791	
69,04	2,387	1018,0	699,63	-1,795	
69,06	2,392	1015,4	699,75	-1,799	
69,08	2,395	1017,4	699,65	-1,802	
69,10	2,399	1019,2	699,54	-1,806	
69,12	2,404	1015,7	699,70	-1,809	
69,14	2,408	1014,1	699,80	-1,813	
69,16	2,412	1017,3	699,66	-1,816	
69,18	2,416	1018,6	699,56	-1,820	
69,20	2,420	1015,1	699,69	-1,824	
69,22	2,424	1014,5	699,76	-1,827	
69,24	2,428	1018,1	699,61	-1,831	
69,26	2,432	1018,0	699,57	-1,834	
69,28	2,436	1014,1	699,73	-1,838	
69,30	2,440	1014,0	699,76	-1,841	
69,32	2,444	1017,4	699,60	-1,845	
69,34	2,448	1016,9	699,60	-1,848	
69,36	2,452	1013,6	699,74	-1,852	
69,38	2,456	1014,6	699,70	-1,855	
69,40	2,459	1017,2	699,54	-1,859	
69,42	2,463	1014,5	699,63	-1,862	
69,44	2,467	1010,5	699,82	-1,866	
69,46	2,471	1012,0	699,77	-1,870	
69,48	2,475	1015,0	699,59	-1,873	
69,50	2,479	1012,3	699,63	-1,877	
69,52	2,484	1009,5	699,72	-1,880	
69,54	2,487	1012,6	699,62	-1,884	
69,56	2,491	1014,7	699,53	-1,887	
69,58	2,496	1011,3	699,72	-1,891	
69,60	2,500	1008,7	699,87	-1,895	
69,62	2,504	1011,4	699,74	-1,898	
69,64	2,508	1013,6	699,57	-1,902	
69,66	2,512	1011,9	699,64	-1,905	
69,68	2,516	1011,3	699,71	-1,909	
69,70	2,520	1014,0	699,58	-1,912	
69,72	2,524	1013,5	699,55	-1,916	
69,74	2,528	1008,7	699,82	-1,920	
69,76	2,532	1007,2	699,95	-1,923	
69,78	2,536	1010,6	699,77	-1,927	
69,80	2,539	1012,0	699,59	-1,930	
69,82	2,543	1009,5	699,64	-1,934	
69,84	2,547	1008,8	699,72	-1,938	
69,86	2,551	1011,3	699,62	-1,941	
69,88	2,555	1012,0	699,54	-1,945	
69,90	2,559	1008,3	699,71	-1,948	
69,92	2,563	1006,8	699,83	-1,952	
69,94	2,567	1009,4	699,69	-1,955	
69,96	2,571	1010,2	699,58	-1,959	
69,98	2,575	1007,0	699,65	-1,963	
70,00	2,579	1006,7	699,64	-1,966	
70,02	2,583	1009,5	699,52	-1,970	
70,04	2,587	1008,2	699,61	-1,973	
70,06	2,592	1003,6	699,91	-1,977	
70,08	2,596	1004,3	699,96	-1,981	
70,10	2,600	1008,2	699,74	-1,984	
70,12	2,604	1009,0	699,58	-1,988	
70,14	2,608	1006,7	699,65	-1,991	
70,16	2,612	1006,9	699,66	-1,995	
70,18	2,616	1008,9	699,54	-1,999	
70,20	2,620	1007,0	699,63	-2,002	
70,22	2,624	1003,2	699,84	-2,006	
70,24	2,628	1004,0	699,82	-2,009	
70,26	2,632	1007,6	699,61	-2,013	
70,28	2,636	1007,1	699,59	-2,017	
70,30	2,640	1004,6	699,74	-2,020	
70,32	2,643	1005,7	699,73	-2,024	
70,34	2,647	1007,7	699,58	-2,027	
70,36	2,651	1004,8	699,62	-2,031	
70,38	2,655	1002,1	699,74	-2,035	
70,40	2,659	1004,0	699,66	-2,038	
70,42	2,663	1005,1	699,57	-2,042	
70,44	2,667	1001,7	699,68	-2,045	
70,46	2,671	1000,5	699,73	-2,049	
70,48	2,675	1003,8	699,60	-2,053	
70,50	2,679	1004,4	699,56	-2,056	
70,52	2,684	1000,8	699,73	-2,060	
70,54	2,688	1000,8	699,77	-2,063	
70,56	2,692	1004,6	699,61	-2,067	
70,58	2,696	1004,5	699,56	-2,071	
70,60	2,700	1001,0	699,73	-2,074	
70,62	2,704	1001,8	699,78	-2,078	
70,64	2,708	1004,9	699,62	-2,082	
70,66	2,712	1003,8	699,59	-2,085	
70,68	2,716	1000,4	699,73	-2,089	
70,70	2,720	1001,8	699,71	-2,092	
70,72	2,724	1004,7	699,57	-2,096	
70,74	2,728	1001,8	699,61	-2,100	
70,76	2,732	997,32	699,77	-2,103	
70,78	2,735	998,49	699,73	-2,107	
70,80	2,739	1001,7	699,58	-2,110	
70,82	2,743	1000,6	699,62	-2,114	
70,84	2,747	998,01	699,74	-2,118	
70,86	2,751	999,86	699,67	-2,121	
70,88	2,755	1002,0	699,55	-2,125	
70,90	2,759	999,13	699,65	-2,129	
70,92	2,764	996,75	699,80	-2,132	
70,94	2,767	999,44	699,72	-2,136	
70,96	2,771	1002,0	699,57	-2,140	
70,98	2,776	999,69	699,64	-2,143	
71,00	2,780	997,98	699,74	-2,147	
71,02	2,784	1000,6	699,64	-2,150	
71,04	2,788	1001,7	699,56	-2,154	
71,06	2,792	998,24	699,68	-2,157	
71,08	2,796	997,19	699,71	-2,161	
71,10	2,800	1000,2	699,57	-2,165	
71,12	2,804	999,80	699,59	-2,169	
71,14	2,808	996,05	699,75	-2,172	
71,16	2,812	996,26	699,73	-2,176	
71,18	2,816	999,16	699,57	-2,179	
71,20	2,820	997,64	699,61	-2,183	
71,22	2,824	994,50	699,78	-2,187	
71,24	2,828	995,54	699,74	-2,190	
71,26	2,831	998,07	699,58	-2,194	
71,28	2,835	995,56	699,64	-2,197	
71,30	2,839	993,84	699,75	-2,201	
71,32	2,843	996,78	699,65	-2,205	
71,34	2,847	998,31	699,55	-2,208	
71,36	2,851	994,96	699,69	-2,212	
71,38	2,856	993,68	699,79	-2,216	
71,40	2,859	996,77	699,66	-2,219	
71,42	2,863	996,72	699,58	-2,223	
71,44	2,868	992,91	699,71	-2,226	
71,46	2,872	992,61	699,74	-2,230	
71,48	2,876	995,32	699,59	-2,234	
71,50	2,880	994,53	699,59	-2,237	
71,52	2,884	990,95	699,74	-2,241	
71,54	2,888	991,88	699,74	-2,245	
71,56	2,892	994,96	699,58	-2,248	
71,58	2,896	993,64	699,59	-2,252	
71,60	2,900	990,23	699,74	-2,256	
71,62	2,904	991,65	699,71	-2,259	
71,64	2,908	994,13	699,56	-2,263	
71,66	2,912	991,44	699,63	-2,266	
71,68	2,916	988,70	699,77	-2,270	
71,70	2,920	991,44	699,70	-2,274	
71,72	2,924	994,24	699,57	-2,277	
71,74	2,928	991,36	699,68	-2,281	
71,76	2,932	988,67	699,79	-2,285	
71,78	2,935	991,29	699,65	-2,288	
71,80	2,939	992,48	699,57	-2,292	
71,82	2,943	988,53	699,78	-2,296	
71,84	2,947	987,02	699,87	-2,299	
71,86	2,951	990,30	699,69	-2,303	
71,88	2,955	991,67	699,60	-2,307	
71,90	2,960	988,52	699,73	-2,310	
71,92	2,964	988,51	699,75	-2,314	
71,94	2,967	991,42	699,58	-2,318	
71,96	2,972	990,24	699,59	-2,321	
71,98	2,976	986,00	699,77	-2,325	
72,00	2,980	986,05	699,77	-2,329	
72,02	2,984	989,12	699,60	-2,332	
72,04	2,988	987,67	699,61	-2,336	
72,06	2,992	984,71	699,75	-2,340	
72,08	2,996	986,35	699,71	-2,343	
72,10	3,000	988,61	699,57	-2,347	
72,12	3,004	985,41	699,66	-2,350	
72,14	3,008	982,22	699,79	-2,354	
72,16	3,012	984,80	699,69	-2,358	
72,18	3,015	987,38	699,57	-2,361	
72,20	3,019	984,86	699,67	-2,365	
72,22	3,023	983,60	699,74	-2,369	
72,24	3,027	986,56	699,62	-2,372	
72,26	3,031	986,52	699,57	-2,376	
72,28	3,035	982,75	699,72	-2,380	
72,30	3,039	982,83	699,73	-2,384	
72,32	3,043	985,88	699,58	-2,387	
72,34	3,047	984,27	699,59	-2,391	
72,36	3,052	980,37	699,78	-2,395	
72,38	3,056	981,45	699,78	-2,398	
72,40	3,059	984,85	699,59	-2,402	
72,42	3,063	983,72	699,61	-2,406	
72,44	3,068	979,42	699,83	-2,409	
72,46	3,072	979,14	699,83	-2,413	
72,48	3,076	981,71	699,64	-2,416	
72,50	3,080	980,51	699,63	-2,420	
72,52	3,084	978,56	699,73	-2,424	
72,54	3,088	981,17	699,64	-2,427	
72,56	3,092	982,33	699,57	-2,431	
72,58	3,096	978,26	699,69	-2,435	
72,60	3,100	976,27	699,72	-2,439	
72,62	3,104	979,58	699,57	-2,442	
72,64	3,108	979,59	699,61	-2,446	
72,66	3,112	975,89	699,78	-2,450	
72,68	3,116	976,19	699,72	-2,453	
72,70	3,120	979,05	699,58	-2,457	
72,72	3,124	977,34	699,66	-2,461	
72,74	3,128	975,16	699,74	-2,464	
72,76	3,131	977,23	699,60	-2,468	
72,78	3,135	977,81	699,58	-2,472	
72,80	3,139	973,78	699,84	-2,475	
72,82	3,144	972,93	699,94	-2,479	
72,84	3,147	976,47	699,73	-2,483	
72,86	3,151	976,63	699,61	-2,487	
72,88	3,156	972,98	699,74	-2,490	
72,90	3,160	973,96	699,75	-2,494	
72,92	3,164	977,19	699,58	-2,498	
72,94	3,168	975,25	699,60	-2,501	
72,96	3,172	970,17	699,80	-2,505	
72,98	3,176	970,81	699,79	-2,509	
73,00	3,180	974,60	699,59	-2,512	
73,02	3,184	972,92	699,65	-2,516	
73,04	3,188	969,35	699,85	-2,520	
73,06	3,192	970,80	699,81	-2,523	
73,08	3,196	973,07	699,61	-2,527	
73,10	3,200	970,53	699,62	-2,531	
73,12	3,204	967,52	699,73	-2,534	
73,14	3,208	969,76	699,65	-2,538	
73,16	3,211	971,35	699,56	-2,542	
73,18	3,215	967,85	699,71	-2,546	
73,20	3,219	965,93	699,79	-2,549	
73,22	3,223	969,50	699,65	-2,553	
73,24	3,227	970,48	699,58	-2,557	
73,26	3,231	967,22	699,68	-2,560	
73,28	3,235	967,55	699,65	-2,564	
73,30	3,239	970,59	699,53	-2,568	
73,32	3,243	968,14	699,69	-2,572	
73,34	3,248	964,56	699,91	-2,575	
73,36	3,252	966,25	699,82	-2,579	
73,38	3,256	968,82	699,61	-2,583	
73,40	3,260	967,16	699,61	-2,586	
73,42	3,264	965,00	699,73	-2,590	
73,44	3,268	966,95	699,65	-2,594	
73,46	3,272	968,13	699,54	-2,598	
73,48	3,276	964,38	699,70	-2,601	
73,50	3,280	961,48	699,83	-2,605	
73,52	3,284	964,31	699,71	-2,609	
73,54	3,288	966,94	699,56	-2,612	
73,56	3,292	963,84	699,68	-2,616	
73,58	3,296	962,50	699,80	-2,620	
73,60	3,299	964,87	699,66	-2,624	
73,62	3,303	965,19	699,58	-2,627	
73,64	3,307	961,23	699,74	-2,631	
73,66	3,311	960,44	699,80	-2,635	
73,68	3,315	964,04	699,65	-2,638	
73,70	3,319	964,05	699,61	-2,642	
73,72	3,323	960,61	699,72	-2,646	
73,74	3,327	961,69	699,67	-2,650	
73,76	3,331	963,78	699,57	-2,654	
73,78	3,336	961,05	699,67	-2,657	
73,80	3,340	958,40	699,78	-2,661	
73,82	3,344	960,87	699,67	-2,665	
73,84	3,347	962,11	699,57	-2,668	
73,86	3,352	958,82	699,71	-2,672	
73,88	3,356	957,29	699,80	-2,676	
73,90	3,360	960,10	699,65	-2,680	
73,92	3,364	960,43	699,58	-2,683	
73,94	3,368	956,30	699,71	-2,687	
73,96	3,372	955,79	699,72	-2,691	
73,98	3,376	958,75	699,58	-2,694	
74,00	3,380	957,12	699,64	-2,698	
74,02	3,384	953,33	699,83	-2,702	
74,04	3,388	954,59	699,77	-2,706	
74,06	3,392	957,64	699,58	-2,709	
74,08	3,396	955,09	699,70	-2,713	
74,10	3,400	951,91	699,86	-2,717	
74,12	3,403	954,18	699,75	-2,720	
74,14	3,407	956,67	699,60	-2,724	
74,16	3,411	953,73	699,69	-2,728	
74,18	3,415	952,79	699,74	-2,732	
74,20	3,419	956,14	699,61	-2,736	
74,22	3,423	956,16	699,60	-2,739	
74,24	3,428	951,88	699,73	-2,743	
74,26	3,431	951,54	699,70	-2,747	
74,28	3,435	954,34	699,56	-2,750	
74,30	3,440	952,49	699,64	-2,754	
74,32	3,444	949,15	699,75	-2,758	
74,34	3,448	951,20	699,64	-2,762	
74,36	3,452	952,69	699,59	-2,765	
74,38	3,456	948,91	699,74	-2,769	
74,40	3,460	948,43	699,77	-2,773	
74,42	3,464	952,59	699,61	-2,776	
74,44	3,468	952,08	699,61	-2,780	
74,46	3,472	947,71	699,75	-2,784	
74,48	3,476	948,10	699,70	-2,788	
74,50	3,480	950,90	699,56	-2,791	
74,52	3,484	948,35	699,72	-2,795	
74,54	3,488	945,22	699,88	-2,799	
74,56	3,492	947,24	699,75	-2,803	
74,58	3,496	949,27	699,59	-2,807	
74,60	3,500	945,66	699,73	-2,810	
74,62	3,503	944,05	699,83	-2,814	
74,64	3,507	947,13	699,68	-2,818	
74,66	3,511	947,39	699,57	-2,822	
74,68	3,515	943,11	699,69	-2,825	
74,70	3,520	942,32	699,73	-2,829	
74,72	3,523	945,30	699,58	-2,833	
74,74	3,527	944,11	699,59	-2,837	
74,76	3,532	939,95	699,85	-2,840	
74,78	3,536	940,22	699,88	-2,844	
74,80	3,540	943,86	699,66	-2,848	
74,82	3,544	942,83	699,59	-2,851	
74,84	3,548	939,25	699,74	-2,855	
74,86	3,552	940,49	699,74	-2,859	
74,88	3,556	942,71	699,59	-2,863	
74,90	3,560	940,29	699,64	-2,867	
74,92	3,564	936,56	699,75	-2,870	
74,94	3,568	938,04	699,66	-2,874	
74,96	3,572	940,27	699,58	-2,878	
74,98	3,576	937,78	699,70	-2,882	
75,00	3,580	936,71	699,72	-2,885	
75,02	3,584	939,70	699,58	-2,889	
75,04	3,588	939,44	699,61	-2,893	
75,06	3,592	936,00	699,73	-2,897	
75,08	3,596	937,36	699,66	-2,900	
75,10	3,600	939,79	699,58	-2,904	
75,12	3,603	936,23	699,72	-2,908	
75,14	3,607	933,88	699,76	-2,912	
75,16	3,611	937,27	699,61	-2,916	
75,18	3,615	937,78	699,61	-2,919	
75,20	3,620	934,17	699,73	-2,923	
75,22	3,624	934,81	699,66	-2,927	
75,24	3,627	936,93	699,56	-2,931	
75,26	3,632	933,31	699,77	-2,934	
75,28	3,636	929,99	699,93	-2,938	
75,30	3,640	932,51	699,78	-2,942	
75,32	3,644	934,50	699,59	-2,946	
75,34	3,648	932,14	699,63	-2,949	
75,36	3,652	930,74	699,69	-2,953	
75,38	3,656	933,13	699,59	-2,957	
75,40	3,660	933,05	699,56	-2,961	
75,42	3,664	929,27	699,74	-2,965	
75,44	3,668	928,91	699,80	-2,968	
75,46	3,672	932,83	699,63	-2,972	
75,48	3,676	932,34	699,65	-2,976	
75,50	3,680	928,60	699,82	-2,980	
75,52	3,683	930,10	699,77	-2,983	
75,54	3,687	933,33	699,61	-2,987	
75,56	3,691	930,24	699,69	-2,991	
75,58	3,695	926,89	699,78	-2,995	
75,60	3,699	929,42	699,64	-2,999	
75,62	3,703	930,17	699,60	-3,003	
75,64	3,708	925,74	699,76	-3,006	
75,66	3,712	925,06	699,77	-3,010	
75,68	3,715	928,39	699,60	-3,014	
75,70	3,720	927,07	699,62	-3,018	
75,72	3,724	923,27	699,76	-3,021	
75,74	3,728	924,53	699,68	-3,025	
75,76	3,732	926,95	699,56	-3,029	
75,78	3,736	923,78	699,68	-3,033	
75,80	3,740	920,90	699,77	-3,036	
75,82	3,744	923,18	699,63	-3,040	
75,84	3,748	923,72	699,58	-3,044	
75,86	3,752	919,70	699,78	-3,048	
75,88	3,756	919,09	699,82	-3,052	
75,90	3,760	922,79	699,65	-3,055	
75,92	3,764	922,98	699,58	-3,059	
75,94	3,768	919,92	699,69	-3,063	
75,96	3,772	921,04	699,66	-3,067	
75,98	3,776	923,42	699,56	-3,070	
76,00	3,780	920,00	699,69	-3,074	
76,02	3,783	916,52	699,79	-3,078	
76,04	3,787	919,14	699,66	-3,082	
76,06	3,791	920,10	699,61	-3,086	
76,08	3,795	916,31	699,75	-3,089	
76,10	3,799	915,82	699,73	-3,093	
76,12	3,803	918,66	699,57	-3,097	
76,14	3,807	916,32	699,70	-3,101	
76,16	3,812	912,45	699,92	-3,105	
76,18	3,816	914,16	699,82	-3,108	
76,20	3,820	916,93	699,61	-3,112	
76,22	3,824	914,37	699,65	-3,116	
76,24	3,828	911,73	699,77	-3,120	
76,26	3,832	914,62	699,66	-3,123	
76,28	3,836	915,81	699,56	-3,127	
76,30	3,840	911,53	699,78	-3,131	
76,32	3,844	909,57	699,89	-3,135	
76,34	3,848	912,81	699,70	-3,139	
76,36	3,852	914,26	699,59	-3,143	
76,38	3,856	910,32	699,75	-3,146	
76,40	3,860	909,66	699,80	-3,150	
76,42	3,864	912,83	699,63	-3,154	
76,44	3,868	911,59	699,64	-3,158	
76,46	3,872	907,25	699,79	-3,162	
76,48	3,876	907,90	699,72	-3,165	
76,50	3,879	910,06	699,59	-3,169	
76,52	3,883	907,45	699,67	-3,173	
76,54	3,887	905,71	699,70	-3,177	
76,56	3,891	908,62	699,58	-3,181	
76,58	3,895	907,63	699,62	-3,184	
76,60	3,900	902,94	699,77	-3,188	
76,62	3,904	903,54	699,71	-3,192	
76,64	3,907	906,96	699,57	-3,196	
76,66	3,912	904,74	699,71	-3,200	
76,68	3,916	901,83	699,84	-3,203	
76,70	3,920	904,77	699,69	-3,207	
76,72	3,924	906,43	699,61	-3,211	
76,74	3,928	902,25	699,81	-3,215	
76,76	3,932	901,15	699,85	-3,219	
76,78	3,936	904,00	699,65	-3,222	
76,80	3,940	903,22	699,60	-3,226	
76,82	3,944	898,91	699,76	-3,230	
76,84	3,948	898,45	699,76	-3,234	
76,86	3,952	900,90	699,60	-3,238	
76,88	3,956	899,72	699,62	-3,242	
76,90	3,960	896,27	699,77	-3,245	
76,92	3,964	897,44	699,72	-3,249	
76,94	3,968	900,64	699,58	-3,253	
76,96	3,972	898,49	699,72	-3,257	
76,98	3,975	896,62	699,83	-3,261	
77,00	3,979	899,50	699,67	-3,264	
77,02	3,983	899,87	699,66	-3,268	
77,04	3,988	895,40	699,79	-3,272	
77,06	3,991	894,97	699,71	-3,276	
77,08	3,995	897,78	699,61	-3,280	
77,10	4,000	895,11	699,77	-3,283	
77,12	4,004	892,56	699,84	-3,287	
77,14	4,007	895,36	699,67	-3,291	
77,16	4,012	895,88	699,59	-3,295	
77,18	4,016	891,76	699,69	-3,299	
77,20	4,020	891,08	699,67	-3,303	
77,22	4,024	893,82	699,54	-3,306	
77,24	4,028	892,78	699,65	-3,310	
77,26	4,032	889,43	699,88	-3,314	
77,28	4,036	890,53	699,85	-3,318	
77,30	4,040	894,07	699,62	-3,322	
77,32	4,044	892,39	699,69	-3,326	
77,34	4,048	888,90	699,91	-3,330	
77,36	4,052	890,85	699,84	-3,333	
77,38	4,056	892,80	699,63	-3,337	
77,40	4,060	888,87	699,68	-3,341	
77,42	4,064	885,79	699,75	-3,345	
77,44	4,068	888,64	699,61	-3,349	
77,46	4,072	888,32	699,65	-3,353	
77,48	4,075	883,16	699,89	-3,356	
77,50	4,079	882,06	699,89	-3,360	
77,52	4,083	885,71	699,66	-3,364	
77,54	4,087	885,06	699,64	-3,368	
77,56	4,092	881,27	699,79	-3,372	
77,58	4,096	882,80	699,73	-3,375	
77,60	4,099	885,32	699,58	-3,379	
77,62	4,104	881,89	699,74	-3,383	
77,64	4,108	878,90	699,92	-3,387	
77,66	4,112	881,65	699,78	-3,391	
77,68	4,116	883,75	699,61	-3,395	
77,70	4,120	879,55	699,77	-3,398	
77,72	4,124	877,87	699,87	-3,402	
77,74	4,128	881,11	699,69	-3,406	
77,76	4,132	880,76	699,65	-3,410	
77,78	4,136	876,09	699,84	-3,414	
77,80	4,140	876,31	699,84	-3,418	
77,82	4,144	880,15	699,64	-3,421	
77,84	4,148	878,56	699,73	-3,425	
77,86	4,151	874,40	699,92	-3,429	
77,88	4,155	875,44	699,82	-3,433	
77,90	4,159	877,75	699,63	-3,437	
77,92	4,163	874,66	699,71	-3,441	
77,94	4,167	872,01	699,78	-3,444	
77,96	4,171	874,88	699,65	-3,448	
77,98	4,175	875,41	699,61	-3,452	
78,00	4,179	871,36	699,72	-3,456	
78,02	4,183	871,09	699,67	-3,460	
78,04	4,187	874,12	699,57	-3,464	
78,06	4,191	871,63	699,70	-3,468	
78,08	4,195	868,90	699,78	-3,472	
78,10	4,199	871,86	699,64	-3,475	
78,12	4,203	872,79	699,64	-3,479	
78,14	4,208	869,28	699,77	-3,483	
78,16	4,212	869,99	699,71	-3,487	
78,18	4,215	872,65	699,59	-3,491	
78,20	4,220	870,57	699,63	-3,495	
78,22	4,224	867,84	699,67	-3,499	
78,24	4,228	869,27	699,55	-3,502	
78,26	4,232	868,81	699,62	-3,506	
78,28	4,236	865,02	699,92	-3,510	
78,30	4,240	864,74	699,97	-3,514	
78,32	4,244	868,55	699,74	-3,518	
78,34	4,248	869,35	699,60	-3,522	
78,36	4,252	866,72	699,69	-3,525	
78,38	4,255	866,07	699,69	-3,529	
78,40	4,259	867,49	699,56	-3,533	
78,42	4,263	864,38	699,70	-3,537	
78,44	4,267	860,39	699,90	-3,541	
78,46	4,271	862,10	699,80	-3,544	
78,48	4,275	865,14	699,60	-3,548	
78,50	4,279	862,18	699,71	-3,552	
78,52	4,283	859,64	699,86	-3,556	
78,54	4,287	862,23	699,73	-3,560	
78,56	4,291	863,74	699,62	-3,564	
78,58	4,295	859,98	699,74	-3,568	
78,60	4,300	858,70	699,74	-3,571	
78,62	4,303	861,86	699,60	-3,575	
78,64	4,308	860,60	699,68	-3,579	
78,66	4,312	856,48	699,84	-3,583	
78,68	4,316	857,35	699,73	-3,587	
78,70	4,320	859,45	699,60	-3,591	
78,72	4,324	856,46	699,73	-3,595	
78,74	4,328	855,29	699,79	-3,598	
78,76	4,332	858,06	699,63	-3,602	
78,78	4,336	857,41	699,60	-3,606	
78,80	4,340	852,78	699,76	-3,610	
78,82	4,344	852,99	699,73	-3,614	
78,84	4,347	855,67	699,59	-3,617	
78,86	4,351	852,22	699,71	-3,621	
78,88	4,355	848,34	699,83	-3,625	
78,90	4,359	850,96	699,69	-3,629	
78,92	4,363	852,66	699,62	-3,633	
78,94	4,367	848,63	699,77	-3,637	
78,96	4,371	847,80	699,76	-3,641	
78,98	4,375	851,16	699,59	-3,644	
79,00	4,379	849,92	699,67	-3,648	
79,02	4,383	846,17	699,81	-3,652	
79,04	4,387	847,26	699,70	-3,656	
79,06	4,391	848,82	699,58	-3,660	
79,08	4,396	844,94	699,70	-3,664	
79,10	4,400	842,57	699,80	-3,668	
79,12	4,404	845,54	699,65	-3,671	
79,14	4,408	846,52	699,58	-3,675	
79,16	4,412	842,44	699,82	-3,679	
79,18	4,416	841,28	699,94	-3,683	
79,20	4,420	843,53	699,75	-3,687	
79,22	4,424	843,54	699,61	-3,691	
79,24	4,428	840,14	699,78	-3,695	
79,26	4,432	840,36	699,82	-3,698	
79,28	4,436	843,02	699,64	-3,702	
79,30	4,439	841,04	699,68	-3,706	
79,32	4,443	836,20	699,81	-3,710	
79,34	4,447	837,23	699,71	-3,714	
79,36	4,451	839,67	699,59	-3,718	
79,38	4,455	836,96	699,69	-3,722	
79,40	4,459	834,71	699,75	-3,725	
79,42	4,463	836,72	699,61	-3,729	
79,44	4,467	836,61	699,59	-3,733	
79,46	4,471	832,56	699,76	-3,737	
79,48	4,475	832,85	699,77	-3,741	
79,50	4,479	836,50	699,60	-3,745	
79,52	4,483	835,27	699,64	-3,749	
79,54	4,488	831,62	699,78	-3,753	
79,56	4,491	833,18	699,70	-3,757	
79,58	4,495	835,12	699,59	-3,760	
79,60	4,500	831,39	699,68	-3,764	
79,62	4,504	829,16	699,71	-3,768	
79,64	4,508	831,98	699,58	-3,772	
79,66	4,512	831,44	699,67	-3,776	
79,68	4,516	827,84	699,88	-3,780	
79,70	4,520	828,55	699,81	-3,784	
79,72	4,524	831,72	699,60	-3,788	
79,74	4,528	829,49	699,73	-3,792	
79,76	4,532	826,70	699,88	-3,795	
79,78	4,536	828,70	699,74	-3,799	
79,80	4,540	829,04	699,60	-3,803	
79,82	4,544	824,57	699,71	-3,807	
79,84	4,547	822,41	699,75	-3,811	
79,86	4,551	825,24	699,62	-3,815	
79,88	4,555	825,47	699,60	-3,819	
79,90	4,559	822,04	699,74	-3,823	
79,92	4,563	822,88	699,71	-3,826	
79,94	4,567	825,87	699,59	-3,830	
79,96	4,571	823,75	699,68	-3,834	
79,98	4,575	820,91	699,78	-3,838	
80,00	4,579	823,14	699,66	-3,842	
80,02	4,583	823,77	699,62	-3,846	
80,04	4,588	819,61	699,73	-3,850	
80,06	4,592	819,67	699,70	-3,854	
80,08	4,595	822,42	699,57	-3,858	
80,10	4,600	820,12	699,69	-3,862	
80,12	4,604	816,74	699,83	-3,865	
80,14	4,608	818,64	699,70	-3,869	
80,16	4,612	820,28	699,59	-3,873	
80,18	4,616	816,59	699,74	-3,877	
80,20	4,620	814,89	699,80	-3,881	
80,22	4,624	817,22	699,63	-3,885	
80,24	4,627	816,87	699,63	-3,889	
80,26	4,632	812,61	699,82	-3,892	
80,28	4,635	812,87	699,78	-3,896	
80,30	4,639	815,63	699,62	-3,900	
80,32	4,643	812,23	699,74	-3,904	
80,34	4,647	808,88	699,83	-3,908	
80,36	4,651	811,70	699,68	-3,912	
80,38	4,655	812,75	699,66	-3,916	
80,40	4,659	809,12	699,77	-3,920	
80,42	4,663	808,64	699,69	-3,924	
80,44	4,667	811,02	699,59	-3,928	
80,46	4,671	808,23	699,76	-3,931	
80,48	4,676	805,43	699,83	-3,935	
80,50	4,679	808,15	699,65	-3,939	
80,52	4,683	807,81	699,66	-3,943	
80,54	4,688	803,46	699,81	-3,947	
80,56	4,692	803,81	699,73	-3,951	
80,58	4,696	806,16	699,59	-3,955	
80,60	4,700	802,94	699,71	-3,959	
80,62	4,704	799,28	699,84	-3,962	
80,64	4,708	801,63	699,69	-3,966	
80,66	4,712	803,50	699,62	-3,970	
80,68	4,716	799,91	699,81	-3,974	
80,70	4,720	799,09	699,84	-3,978	
80,72	4,723	802,66	699,64	-3,982	
80,74	4,727	801,72	699,64	-3,986	
80,76	4,732	797,12	699,76	-3,990	
80,78	4,736	797,91	699,68	-3,993	
80,80	4,739	799,92	699,59	-3,997	
80,82	4,743	796,95	699,73	-4,001	
80,84	4,747	794,67	699,80	-4,005	
80,86	4,751	797,87	699,65	-4,009	
80,88	4,755	797,81	699,64	-4,013	
80,90	4,759	793,47	699,77	-4,017	
80,92	4,763	793,67	699,72	-4,021	
80,94	4,767	796,13	699,57	-4,025	
80,96	4,771	793,55	699,67	-4,029	
80,98	4,776	789,87	699,79	-4,033	
81,00	4,779	791,68	699,69	-4,036	
81,02	4,783	792,68	699,60	-4,040	
81,04	4,788	788,87	699,71	-4,044	
81,06	4,792	787,93	699,73	-4,048	
81,08	4,796	790,86	699,59	-4,052	
81,10	4,800	789,76	699,62	-4,056	
81,12	4,804	785,89	699,74	-4,060	
81,14	4,808	786,83	699,66	-4,064	
81,16	4,812	789,11	699,59	-4,067	
81,18	4,816	785,50	699,81	-4,071	
81,20	4,820	782,69	699,90	-4,075	
81,22	4,823	785,26	699,71	-4,079	
81,24	4,827	786,24	699,67	-4,083	
81,26	4,831	782,54	699,89	-4,087	
81,28	4,835	782,75	699,88	-4,091	
81,30	4,839	785,73	699,66	-4,095	
81,32	4,843	783,49	699,68	-4,099	
81,34	4,847	779,42	699,77	-4,103	
81,36	4,851	781,03	699,64	-4,106	
81,38	4,855	782,23	699,60	-4,110	
81,40	4,859	778,05	699,75	-4,114	
81,42	4,864	776,48	699,75	-4,118	
81,44	4,867	780,11	699,59	-4,122	
81,46	4,871	778,95	699,67	-4,126	
81,48	4,876	775,09	699,82	-4,130	
81,50	4,880	776,54	699,72	-4,133	
81,52	4,884	779,20	699,59	-4,137	
81,54	4,888	775,66	699,71	-4,141	
81,56	4,892	772,76	699,76	-4,145	
81,58	4,896	775,19	699,62	-4,149	
81,60	4,900	775,33	699,63	-4,153	
81,62	4,904	771,82	699,77	-4,157	
81,64	4,908	772,64	699,70	-4,161	
81,66	4,911	775,36	699,59	-4,164	
81,68	4,915	772,09	699,71	-4,168	
81,70	4,919	769,24	699,77	-4,172	
81,72	4,923	771,76	699,62	-4,176	
81,74	4,927	772,59	699,61	-4,180	
81,76	4,931	768,79	699,76	-4,184	
81,78	4,935	767,85	699,72	-4,188	
81,80	4,939	769,95	699,57	-4,192	
81,82	4,943	767,39	699,71	-4,196	
81,84	4,947	763,32	699,89	-4,200	
81,86	4,951	764,69	699,78	-4,203	
81,88	4,955	766,72	699,60	-4,207	
81,90	4,959	763,79	699,73	-4,211	
81,92	4,964	761,88	699,85	-4,215	
81,94	4,968	764,78	699,69	-4,219	
81,96	4,971	765,20	699,64	-4,223	
81,98	4,976	760,33	699,85	-4,227	
82,00	4,980	759,42	699,85	-4,231	
82,02	4,984	762,88	699,64	-4,235	
82,04	4,988	761,55	699,74	-4,239	
82,06	4,992	756,84	699,97	-4,243	
82,08	4,996	757,33	699,88	-4,246	
82,10	5,000	759,70	699,64	-4,250	
82,12	5,004	757,19	699,65	-4,254	
82,14	5,008	754,57	699,74	-4,258	
82,16	5,012	756,91	699,63	-4,262	
82,18	5,016	756,98	699,58	-4,266	
82,20	5,019	751,69	699,80	-4,270	
82,22	5,023	749,89	699,87	-4,274	
82,24	5,027	752,91	699,68	-4,278	
82,26	5,031	753,16	699,60	-4,282	
82,28	5,035	749,28	699,75	-4,286	
82,30	5,039	749,47	699,75	-4,290	
82,32	5,043	752,17	699,60	-4,293	
82,34	5,047	749,80	699,70	-4,297	
82,36	5,052	746,20	699,87	-4,301	
82,38	5,056	747,97	699,74	-4,305	
82,40	5,059	749,77	699,61	-4,309	
82,42	5,064	745,59	699,74	-4,313	
82,44	5,068	743,59	699,77	-4,317	
82,46	5,072	746,00	699,61	-4,321	
82,48	5,076	744,82	699,64	-4,325	
82,50	5,080	740,70	699,76	-4,329	
82,52	5,084	741,82	699,66	-4,333	
82,54	5,088	743,45	699,60	-4,337	
82,56	5,092	738,97	699,83	-4,341	
82,58	5,096	736,89	699,93	-4,345	
82,60	5,100	740,52	699,74	-4,349	
82,62	5,104	741,69	699,61	-4,353	
82,64	5,108	738,04	699,76	-4,356	
82,66	5,111	737,22	699,76	-4,360	
82,68	5,115	739,58	699,61	-4,364	
82,70	5,119	737,12	699,73	-4,368	
82,72	5,123	732,54	699,88	-4,372	
82,74	5,127	733,68	699,74	-4,376	
82,76	5,131	735,81	699,62	-4,380	
82,78	5,135	732,07	699,79	-4,384	
82,80	5,139	730,36	699,82	-4,388	
82,82	5,143	733,35	699,64	-4,392	
82,84	5,147	732,01	699,62	-4,396	
82,86	5,152	727,46	699,72	-4,400	
82,88	5,155	727,90	699,63	-4,404	
82,90	5,159	728,74	699,61	-4,407	
82,92	5,164	724,93	699,87	-4,411	
82,94	5,168	723,25	699,95	-4,415	
82,96	5,172	726,95	699,72	-4,419	
82,98	5,176	728,01	699,67	-4,423	
83,00	5,180	724,00	699,90	-4,427	
83,02	5,184	724,00	699,90	-4,431	
83,04	5,188	726,04	699,68	-4,435	
83,06	5,192	723,37	699,65	-4,439	
83,08	5,196	719,07	699,71	-4,443	
83,10	5,200	720,43	699,61	-4,447	
83,12	5,204	721,87	699,58	-4,451	
83,14	5,208	718,45	699,73	-4,455	
83,16	5,212	717,37	699,77	-4,459	
83,18	5,215	720,31	699,61	-4,463	
83,20	5,219	719,23	699,65	-4,467	
83,22	5,223	715,38	699,79	-4,471	
83,24	5,227	716,21	699,72	-4,474	
83,26	5,231	718,06	699,59	-4,478	
83,28	5,235	714,43	699,68	-4,482	
83,30	5,240	711,81	699,74	-4,486	
83,32	5,243	714,44	699,61	-4,490	
83,34	5,247	714,76	699,61	-4,494	
83,36	5,252	711,09	699,77	-4,498	
83,38	5,256	710,55	699,73	-4,502	
83,40	5,260	712,82	699,58	-4,506	
83,42	5,264	710,53	699,74	-4,510	
83,44	5,268	707,13	699,91	-4,514	
83,46	5,272	708,91	699,77	-4,518	
83,48	5,276	711,31	699,62	-4,522	
83,50	5,280	708,02	699,81	-4,526	
83,52	5,284	705,81	699,89	-4,530	
83,54	5,288	707,97	699,69	-4,534	
83,56	5,292	707,10	699,66	-4,538	
83,58	5,295	702,18	699,83	-4,542	
83,60	5,299	701,91	699,79	-4,546	
83,62	5,303	704,88	699,61	-4,550	
83,64	5,307	702,82	699,69	-4,554	
83,66	5,311	699,27	699,77	-4,558	
83,68	5,315	701,12	699,64	-4,561	
83,70	5,319	702,08	699,61	-4,565	
83,72	5,323	698,33	699,74	-4,569	
83,74	5,327	697,53	699,68	-4,573	
83,76	5,331	700,10	699,58	-4,577	
83,78	5,335	697,54	699,78	-4,581	
83,80	5,340	693,79	699,94	-4,585	
83,82	5,343	694,92	699,78	-4,589	
83,84	5,347	696,38	699,63	-4,593	
83,86	5,352	692,66	699,83	-4,597	
83,88	5,356	690,87	699,95	-4,601	
83,90	5,360	693,56	699,74	-4,605	
83,92	5,364	694,04	699,71	-4,609	
83,94	5,368	689,48	700,10	-4,613	
83,96	5,372	688,46	700,24	-4,617	
83,98	5,376	690,56	699,98	-4,621	
84,00	5,380	690,63	699,70	-4,625	
84,02	5,384	686,33	699,73	-4,629	
84,04	5,388	686,22	699,72	-4,633	
84,06	5,391	688,70	699,60	-4,636	
84,08	5,395	686,16	699,72	-4,640	
84,10	5,399	681,96	699,84	-4,644	
84,12	5,403	683,41	699,69	-4,648	
84,14	5,407	685,05	699,60	-4,652	
84,16	5,411	681,08	699,80	-4,656	
84,18	5,415	679,66	699,88	-4,660	
84,20	5,419	683,13	699,69	-4,664	
84,22	5,423	683,20	699,64	-4,668	
84,24	5,427	679,18	699,70	-4,672	
84,26	5,431	679,52	699,62	-4,676	
84,28	5,435	680,92	699,60	-4,680	
84,30	5,440	677,77	699,75	-4,684	
84,32	5,444	676,23	699,76	-4,688	
84,34	5,447	678,84	699,59	-4,692	
84,36	5,452	677,65	699,71	-4,696	
84,38	5,456	674,08	699,91	-4,700	
84,40	5,460	675,18	699,81	-4,704	
84,42	5,464	677,52	699,63	-4,707	
84,44	5,468	674,34	699,78	-4,711	
84,46	5,472	671,65	699,93	-4,715	
84,48	5,476	673,99	699,79	-4,719	
84,50	5,480	675,30	699,66	-4,723	
84,52	5,484	670,65	699,90	-4,727	
84,54	5,487	668,94	700,02	-4,731	
84,56	5,491	671,17	699,81	-4,735	
84,58	5,495	671,53	699,66	-4,739	
84,60	5,499	666,93	699,85	-4,743	
84,62	5,503	665,54	699,92	-4,747	
84,64	5,507	668,19	699,72	-4,751	
84,66	5,511	667,29	699,65	-4,755	
84,68	5,515	663,36	699,76	-4,759	
84,70	5,519	663,89	699,70	-4,763	
84,72	5,523	665,79	699,59	-4,767	
84,74	5,527	662,99	699,71	-4,771	
84,76	5,532	660,56	699,77	-4,775	
84,78	5,535	663,64	699,63	-4,779	
84,80	5,540	663,84	699,63	-4,783	
84,82	5,544	659,43	699,76	-4,786	
84,84	5,548	659,28	699,70	-4,790	
84,86	5,552	661,69	699,57	-4,795	
84,88	5,556	659,47	699,71	-4,798	
84,90	5,560	656,40	699,85	-4,802	
84,92	5,564	657,92	699,72	-4,806	
84,94	5,568	658,84	699,60	-4,810	
84,96	5,572	654,96	699,70	-4,814	
84,98	5,576	653,63	699,73	-4,818	
85,00	5,580	656,54	699,61	-4,822	
85,02	5,583	655,42	699,68	-4,826	
85,04	5,587	651,60	699,81	-4,830	
85,06	5,591	652,56	699,68	-4,834	
85,08	5,595	654,46	699,59	-4,838	
85,10	5,599	650,70	699,82	-4,842	
85,12	5,603	648,01	699,95	-4,846	
85,14	5,607	650,00	699,76	-4,850	
85,16	5,611	650,46	699,62	-4,854	
85,18	5,616	646,55	699,74	-4,858	
85,20	5,620	645,88	699,78	-4,862	
85,22	5,623	648,72	699,63	-4,865	
85,24	5,628	646,91	699,64	-4,869	
85,26	5,632	642,23	699,75	-4,873	
85,28	5,636	643,23	699,65	-4,877	
85,30	5,640	645,38	699,60	-4,881	
85,32	5,644	642,28	699,79	-4,885	
85,34	5,648	640,61	699,84	-4,889	
85,36	5,652	643,31	699,66	-4,893	
85,38	5,656	643,00	699,65	-4,897	
85,40	5,660	638,96	699,76	-4,901	
85,42	5,664	639,26	699,67	-4,905	
85,44	5,668	640,82	699,61	-4,909	
85,46	5,672	637,14	699,76	-4,913	
85,48	5,676	635,19	699,77	-4,917	
85,50	5,680	637,91	699,63	-4,921	
85,52	5,683	636,56	699,66	-4,925	
85,54	5,687	632,65	699,75	-4,929	
85,56	5,691	633,90	699,66	-4,932	
85,58	5,695	635,01	699,60	-4,936	
85,60	5,699	631,60	699,69	-4,940	
85,62	5,703	631,16	699,64	-4,944	
85,64	5,707	633,75	699,55	-4,948	
85,66	5,712	631,57	699,76	-4,952	
85,68	5,716	628,02	699,94	-4,956	
85,70	5,720	630,10	699,79	-4,960	
85,72	5,724	631,75	699,64	-4,964	
85,74	5,728	628,26	699,71	-4,968	
85,76	5,732	627,14	699,68	-4,972	
85,78	5,736	629,22	699,57	-4,976	
85,80	5,740	626,49	699,74	-4,980	
85,82	5,744	621,90	699,91	-4,984	
85,84	5,748	623,06	699,78	-4,988	
85,86	5,752	625,39	699,63	-4,992	
85,88	5,756	622,20	699,80	-4,996	
85,90	5,760	620,32	699,86	-5,000	
85,92	5,764	622,35	699,68	-5,003	
85,94	5,767	621,02	699,69	-5,007	
85,96	5,771	616,77	699,84	-5,011	
85,98	5,775	617,55	699,75	-5,015	
86,00	5,779	619,68	699,62	-5,019	
86,02	5,783	616,51	699,72	-5,023	
86,04	5,787	613,82	699,74	-5,027	
86,06	5,791	616,00	699,60	-5,031	
86,08	5,795	615,24	699,64	-5,035	
86,10	5,800	611,03	699,77	-5,039	
86,12	5,803	611,49	699,69	-5,043	
86,14	5,807	613,93	699,60	-5,047	
86,16	5,812	610,63	699,77	-5,051	
86,18	5,816	607,89	699,86	-5,055	
86,20	5,820	610,59	699,68	-5,059	
86,22	5,824	611,74	699,66	-5,062	
86,24	5,828	607,26	699,94	-5,066	
86,26	5,832	605,96	699,98	-5,070	
86,28	5,836	608,23	699,73	-5,074	
86,30	5,840	606,95	699,72	-5,078	
86,32	5,844	602,32	699,99	-5,082	
86,34	5,848	602,45	700,00	-5,086	
86,36	5,852	604,59	699,74	-5,090	
86,38	5,856	603,04	699,75	-5,094	
86,40	5,860	599,28	699,97	-5,098	
86,42	5,864	600,04	699,91	-5,102	
86,44	5,867	601,90	699,67	-5,106	
86,46	5,871	599,75	699,76	-5,110	
86,48	5,875	595,93	699,95	-5,114	
86,50	5,879	596,88	699,82	-5,118	
86,52	5,883	598,27	699,63	-5,122	
86,54	5,887	594,34	699,76	-5,126	
86,56	5,891	591,72	699,90	-5,130	
86,58	5,895	594,41	699,73	-5,133	
86,60	5,899	596,01	699,63	-5,137	
86,62	5,904	591,62	699,87	-5,141	
86,64	5,908	589,27	699,97	-5,145	
86,66	5,912	591,84	699,75	-5,149	
86,68	5,916	592,95	699,66	-5,153	
86,70	5,920	588,96	699,86	-5,157	
86,72	5,924	588,12	699,87	-5,161	
86,74	5,928	591,10	699,67	-5,165	
86,76	5,932	590,07	699,64	-5,169	
86,78	5,936	585,70	699,73	-5,173	
86,80	5,940	586,33	699,64	-5,177	
86,82	5,944	587,20	699,58	-5,181	
86,84	5,948	583,35	699,78	-5,185	
86,86	5,952	580,93	699,85	-5,189	
86,88	5,956	583,70	699,67	-5,193	
86,90	5,959	583,74	699,67	-5,197	
86,92	5,963	580,37	699,86	-5,201	
86,94	5,967	580,65	699,81	-5,205	
86,96	5,971	582,81	699,63	-5,209	
86,98	5,975	580,06	699,78	-5,213	
87,00	5,979	576,71	699,94	-5,217	
87,02	5,983	578,02	699,78	-5,221	
87,04	5,987	579,16	699,65	-5,225	
87,06	5,992	574,75	699,86	-5,229	
87,08	5,996	572,43	699,92	-5,233	
87,10	5,999	574,84	699,71	-5,237	
87,12	6,004	574,74	699,63	-5,241	
87,14	6,008	570,15	699,82	-5,245	
87,16	6,012	569,27	699,84	-5,249	
87,18	6,016	572,13	699,66	-5,252	
87,20	6,020	570,90	699,65	-5,256	
87,22	6,024	567,00	699,72	-5,260	
87,24	6,028	568,09	699,62	-5,264	
87,26	6,032	568,87	699,61	-5,268	
87,28	6,036	564,67	699,81	-5,272	
87,30	6,040	562,98	699,84	-5,276	
87,32	6,044	566,45	699,64	-5,280	
87,34	6,048	566,61	699,68	-5,284	
87,36	6,052	563,37	699,86	-5,288	
87,38	6,056	563,90	699,76	-5,292	
87,40	6,059	565,31	699,62	-5,296	
87,42	6,063	561,11	699,82	-5,300	
87,44	6,067	558,12	699,96	-5,304	
87,46	6,071	560,51	699,76	-5,308	
87,48	6,075	561,66	699,62	-5,312	
87,50	6,079	557,51	699,84	-5,316	
87,52	6,084	555,44	699,95	-5,320	
87,54	6,087	557,45	699,75	-5,324	
87,56	6,091	557,00	699,70	-5,328	
87,58	6,096	552,09	699,97	-5,332	
87,60	6,100	551,06	700,02	-5,336	
87,62	6,104	553,96	699,77	-5,340	
87,64	6,108	553,26	699,67	-5,343	
87,66	6,112	549,35	699,75	-5,347	
87,68	6,116	549,88	699,66	-5,351	
87,70	6,120	550,82	699,67	-5,355	
87,72	6,124	547,13	699,91	-5,359	
87,74	6,128	545,18	699,93	-5,363	
87,76	6,132	547,84	699,69	-5,367	
87,78	6,136	547,96	699,70	-5,371	
87,80	6,140	544,11	699,96	-5,375	
87,82	6,144	543,87	699,95	-5,379	
87,84	6,148	546,04	699,70	-5,383	
87,86	6,152	544,25	699,70	-5,387	
87,88	6,156	540,65	699,83	-5,391	
87,90	6,159	541,48	699,72	-5,395	
87,92	6,163	542,21	699,67	-5,399	
87,94	6,167	538,11	699,91	-5,403	
87,96	6,171	535,56	699,94	-5,407	
87,98	6,175	538,59	699,70	-5,410	
88,00	6,179	538,94	699,76	-5,411	
88,02	6,183	534,88	700,08	-5,412	
88,04	6,188	534,53	700,09	-5,415	
88,06	6,191	536,75	699,80	-5,418	
88,08	6,195	535,94	699,67	-5,423	
88,10	6,200	532,16	699,76	-5,427	
88,12	6,204	533,12	699,69	-5,430	
88,14	6,208	534,87	699,63	-5,435	
88,16	6,212	530,80	699,83	-5,439	
88,18	6,216	527,43	699,88	-5,442	
88,20	6,220	529,67	699,69	-5,446	
88,22	6,224	529,73	699,66	-5,452	
88,24	6,228	526,12	699,76	-5,460	
88,26	6,232	526,94	699,66	-5,466	
88,28	6,236	528,24	699,59	-5,470	
88,30	6,240	524,18	699,73	-5,474	
88,32	6,243	521,98	699,74	-5,478	
88,34	6,247	524,91	699,59	-5,482	
88,36	6,251	523,97	699,70	-5,486	
88,38	6,255	520,03	699,88	-5,490	
88,40	6,259	520,70	699,79	-5,494	
88,42	6,263	522,97	699,61	-5,498	
88,44	6,267	520,16	699,66	-5,502	
88,46	6,272	517,12	699,79	-5,506	
88,48	6,275	519,40	699,68	-5,510	
88,50	6,279	520,38	699,63	-5,514	
88,52	6,284	516,33	699,81	-5,518	
88,54	6,288	514,79	699,83	-5,522	
88,56	6,292	517,62	699,66	-5,526	
88,58	6,296	516,72	699,69	-5,529	
88,60	6,300	512,50	699,80	-5,533	
88,62	6,304	513,16	699,69	-5,537	
88,64	6,308	514,24	699,66	-5,541	
88,66	6,312	510,60	699,86	-5,545	
88,68	6,316	509,06	699,85	-5,549	
88,70	6,320	511,48	699,64	-5,553	
88,72	6,324	510,18	699,78	-5,557	
88,74	6,328	505,78	700,04	-5,561	
88,76	6,332	506,03	699,97	-5,565	
88,78	6,336	508,41	699,70	-5,569	
88,80	6,340	506,48	699,75	-5,573	
88,82	6,344	503,11	699,95	-5,577	
88,84	6,348	504,00	699,87	-5,581	
88,86	6,352	505,52	699,66	-5,585	
88,88	6,355	502,31	699,76	-5,589	
88,90	6,359	499,17	699,88	-5,593	
88,92	6,363	500,76	699,72	-5,597	
88,94	6,367	501,89	699,65	-5,601	
88,96	6,371	497,55	699,93	-5,605	
88,98	6,376	495,15	700,05	-5,609	
89,00	6,380	497,36	699,83	-5,613	
89,02	6,383	498,80	699,66	-5,616	
89,04	6,388	494,95	699,86	-5,620	
89,06	6,392	493,71	699,98	-5,624	
89,08	6,396	495,90	699,77	-5,628	
89,10	6,400	496,02	699,69	-5,632	
89,12	6,404	491,11	699,97	-5,636	
89,14	6,408	489,13	700,07	-5,640	
89,16	6,412	491,36	699,83	-5,644	
89,18	6,416	492,25	699,69	-5,648	
89,20	6,420	488,24	699,89	-5,652	
89,22	6,424	487,04	699,95	-5,656	
89,24	6,428	489,25	699,74	-5,660	
89,26	6,432	489,38	699,64	-5,664	
89,28	6,435	486,23	699,73	-5,668	
89,30	6,439	486,77	699,68	-5,672	
89,32	6,443	488,59	699,61	-5,676	
89,34	6,447	485,48	699,75	-5,680	
89,36	6,451	482,73	699,78	-5,684	
89,38	6,455	485,39	699,62	-5,688	
89,40	6,459	485,13	699,66	-5,691	
89,42	6,463	481,15	699,77	-5,695	
89,44	6,467	482,05	699,65	-5,699	
89,46	6,471	483,66	699,64	-5,703	
89,48	6,476	479,85	699,91	-5,707	
89,50	6,480	478,02	699,96	-5,711	
89,52	6,484	480,76	699,72	-5,715	
89,54	6,488	480,05	699,72	-5,719	
89,56	6,492	474,97	699,94	-5,723	
89,58	6,496	474,06	699,92	-5,727	
89,60	6,500	476,25	699,68	-5,731	
89,62	6,504	474,80	699,71	-5,735	
89,64	6,508	470,76	699,93	-5,739	
89,66	6,512	471,37	699,87	-5,743	
89,68	6,516	473,17	699,64	-5,747	
89,70	6,520	470,67	699,69	-5,751	
89,72	6,524	466,87	699,84	-5,755	
89,74	6,527	468,70	699,73	-5,759	
89,76	6,531	469,94	699,64	-5,763	
89,78	6,535	466,07	699,77	-5,767	
89,80	6,539	464,49	699,78	-5,771	
89,82	6,543	467,34	699,61	-5,774	
89,84	6,547	466,40	699,73	-5,778	
89,86	6,551	462,06	699,94	-5,782	
89,88	6,555	462,49	699,83	-5,786	
89,90	6,559	464,48	699,65	-5,790	
89,92	6,563	460,80	699,81	-5,794	
89,94	6,568	458,27	699,93	-5,798	
89,96	6,572	460,63	699,74	-5,802	
89,98	6,575	461,42	699,64	-5,806	
90,00	6,580	456,78	699,81	-5,810	
90,02	6,584	455,21	699,84	-5,814	
90,04	6,588	457,90	699,65	-5,818	
90,06	6,592	456,61	699,80	-5,822	
90,08	6,596	451,92	700,10	-5,826	
90,10	6,600	452,06	700,06	-5,830	
90,12	6,604	454,44	699,77	-5,834	
90,14	6,608	452,75	699,71	-5,838	
90,16	6,612	449,57	699,81	-5,842	
90,18	6,616	451,26	699,70	-5,846	
90,20	6,620	452,15	699,64	-5,850	
90,22	6,624	447,84	699,84	-5,854	
90,24	6,628	444,92	699,89	-5,858	
90,26	6,631	447,16	699,69	-5,862	
90,28	6,635	447,77	699,64	-5,866	
90,30	6,639	444,37	699,76	-5,870	
90,32	6,643	445,00	699,71	-5,874	
90,34	6,647	446,72	699,62	-5,878	
90,36	6,651	442,98	699,73	-5,882	
90,38	6,656	440,06	699,74	-5,886	
90,40	6,659	442,29	699,61	-5,890	
90,42	6,664	441,47	699,68	-5,894	
90,44	6,668	437,77	699,78	-5,898	
90,46	6,672	439,00	699,65	-5,902	
90,48	6,676	440,20	699,65	-5,906	
90,50	6,680	436,14	699,89	-5,910	
90,52	6,684	434,20	699,90	-5,914	
90,54	6,688	436,91	699,66	-5,917	
90,56	6,692	436,22	699,70	-5,921	
90,58	6,696	431,79	699,95	-5,925	
90,60	6,700	431,84	699,93	-5,929	
90,62	6,704	433,62	699,69	-5,933	
90,64	6,708	431,89	699,71	-5,937	
90,66	6,712	427,92	699,87	-5,941	
90,68	6,716	428,69	699,78	-5,945	
90,70	6,719	430,80	699,66	-5,949	
90,72	6,723	427,00	699,91	-5,954	
90,74	6,727	423,82	700,08	-5,958	
90,76	6,731	425,88	699,89	-5,961	
90,78	6,735	427,19	699,70	-5,965	
90,80	6,739	423,34	699,87	-5,969	
90,82	6,743	421,73	699,96	-5,973	
90,84	6,747	424,18	699,74	-5,977	
90,86	6,751	424,51	699,70	-5,981	
90,88	6,756	420,26	699,94	-5,985	
90,90	6,760	418,97	699,96	-5,989	
90,92	6,763	421,12	699,71	-5,993	
90,94	6,768	419,85	699,72	-5,997	
90,96	6,772	415,06	699,97	-6,001	
90,98	6,776	415,12	699,96	-6,005	
91,00	6,780	417,47	699,71	-6,009	
91,02	6,784	415,75	699,70	-6,013	
91,04	6,788	411,79	699,89	-6,017	
91,06	6,792	412,61	699,85	-6,021	
91,08	6,796	415,18	699,65	-6,025	
91,10	6,800	413,32	699,74	-6,029	
91,12	6,804	409,70	699,93	-6,033	
91,14	6,808	411,35	699,80	-6,037	
91,16	6,812	413,31	699,66	-6,041	
91,18	6,816	409,72	699,86	-6,045	
91,20	6,820	406,89	699,98	-6,049	
91,22	6,824	409,31	699,80	-6,053	
91,24	6,827	410,02	699,67	-6,056	
91,26	6,831	406,36	699,73	-6,060	
91,28	6,835	406,27	699,66	-6,064	
91,30	6,839	408,05	699,60	-6,068	
91,32	6,843	404,30	699,90	-6,072	
91,34	6,848	400,70	700,10	-6,076	
91,36	6,852	401,92	699,93	-6,080	
91,38	6,855	403,44	699,68	-6,084	
91,40	6,860	400,23	699,79	-6,088	
91,42	6,864	398,23	699,94	-6,092	
91,44	6,868	399,54	699,82	-6,096	
91,46	6,872	400,01	699,66	-6,100	
91,48	6,876	396,57	699,84	-6,104	
91,50	6,880	394,78	699,97	-6,108	
91,52	6,884	396,77	699,80	-6,112	
91,54	6,888	398,61	699,63	-6,116	
91,56	6,892	394,55	699,89	-6,120	
91,58	6,896	391,32	700,09	-6,124	
91,60	6,900	393,01	699,92	-6,128	
91,62	6,904	394,64	699,70	-6,132	
91,64	6,907	391,00	699,84	-6,136	
91,66	6,911	389,69	699,94	-6,140	
91,68	6,915	392,40	699,75	-6,144	
91,70	6,919	392,45	699,65	-6,148	
91,72	6,923	387,69	699,80	-6,152	
91,74	6,927	386,27	699,81	-6,156	
91,76	6,931	389,23	699,62	-6,159	
91,78	6,935	387,83	699,74	-6,163	
91,80	6,939	383,87	700,02	-6,168	
91,82	6,943	384,57	699,97	-6,172	
91,84	6,947	386,62	699,70	-6,175	
91,86	6,951	384,61	699,78	-6,179	
91,88	6,956	380,87	700,05	-6,183	
91,90	6,960	381,63	700,00	-6,187	
91,92	6,963	383,34	699,74	-6,191	
91,94	6,967	381,52	699,69	-6,195	
91,96	6,972	377,91	699,75	-6,199	
91,98	6,976	379,25	699,63	-6,203	
92,00	6,980	379,99	699,67	-6,207	
92,02	6,984	376,29	699,86	-6,211	
92,04	6,988	374,87	699,81	-6,215	
92,06	6,992	377,73	699,64	-6,219	
92,08	6,996	375,78	699,88	-6,223	
92,10	7,000	372,16	700,13	-6,227	
92,12	7,003	372,83	700,01	-6,231	
92,14	7,007	374,65	699,71	-6,235	
92,16	7,011	372,50	699,76	-6,239	
92,18	7,015	369,60	699,95	-6,243	
92,20	7,019	370,20	699,86	-6,247	
92,22	7,023	371,24	699,65	-6,251	
92,24	7,027	367,96	699,73	-6,255	
92,26	7,031	364,83	699,81	-6,259	
92,28	7,035	367,06	699,65	-6,263	
92,30	7,039	367,60	699,64	-6,267	
92,32	7,043	363,23	699,86	-6,271	
92,34	7,047	362,39	699,84	-6,275	
92,36	7,051	365,67	699,64	-6,279	
92,38	7,055	363,76	699,83	-6,283	
92,40	7,060	359,41	700,11	-6,287	
92,42	7,064	359,47	700,03	-6,291	
92,44	7,067	361,47	699,75	-6,295	
92,46	7,072	359,82	699,70	-6,299	
92,48	7,076	356,70	699,81	-6,303	
92,50	7,080	358,29	699,70	-6,306	
92,52	7,084	359,09	699,68	-6,310	
92,54	7,088	354,23	700,00	-6,314	
92,56	7,092	350,75	700,11	-6,319	
92,58	7,096	352,47	699,86	-6,322	
92,60	7,099	354,15	699,70	-6,326	
92,62	7,103	350,95	699,94	-6,330	
92,64	7,107	349,50	700,04	-6,334	
92,66	7,111	350,97	699,81	-6,338	
92,68	7,115	350,73	699,69	-6,342	
92,70	7,119	346,35	699,81	-6,346	
92,72	7,123	345,76	699,76	-6,350	
92,74	7,127	348,86	699,61	-6,354	
92,76	7,131	346,23	699,81	-6,358	
92,78	7,135	342,13	699,98	-6,362	
92,80	7,139	343,88	699,82	-6,366	
92,82	7,143	346,04	699,66	-6,370	
92,84	7,147	342,64	699,88	-6,374	
92,86	7,152	340,41	699,98	-6,378	
92,88	7,155	342,84	699,75	-6,381	
92,90	7,159	342,48	699,72	-6,385	
92,92	7,164	337,01	699,97	-6,390	
92,94	7,168	335,53	699,97	-6,394	
92,96	7,172	338,66	699,72	-6,397	
92,98	7,176	338,25	699,73	-6,401	
93,00	7,180	334,21	699,97	-6,405	
93,02	7,184	334,45	699,95	-6,409	
93,04	7,188	336,31	699,70	-6,413	
93,06	7,192	334,54	699,76	-6,417	
93,08	7,196	330,56	699,92	-6,421	
93,10	7,199	331,43	699,79	-6,425	
93,12	7,203	333,55	699,68	-6,429	
93,14	7,207	329,81	699,95	-6,433	
93,16	7,211	326,43	700,09	-6,437	
93,18	7,215	328,63	699,87	-6,441	
93,20	7,219	330,50	699,71	-6,445	
93,22	7,223	327,21	699,85	-6,449	
93,24	7,227	326,64	699,84	-6,453	
93,26	7,231	329,82	699,65	-6,457	
93,28	7,235	328,35	699,83	-6,461	
93,30	7,239	324,51	700,05	-6,465	
93,32	7,243	324,97	699,91	-6,469	
93,34	7,247	326,78	699,69	-6,472	
93,36	7,252	323,53	699,81	-6,477	
93,38	7,256	321,28	699,89	-6,481	
93,40	7,260	323,88	699,70	-6,484	
93,42	7,264	324,19	699,70	-6,488	
93,44	7,268	319,60	699,95	-6,492	
93,46	7,272	318,59	699,96	-6,496	
93,48	7,276	322,25	699,72	-6,500	
93,50	7,280	322,20	699,73	-6,504	
93,52	7,284	317,71	699,99	-6,508	
93,54	7,288	317,62	699,99	-6,512	
93,56	7,292	320,47	699,74	-6,516	
93,58	7,295	320,47	699,72	-6,520	
93,60	7,299	317,02	699,92	-6,524	
93,62	7,303	317,60	699,87	-6,528	
93,64	7,307	320,47	699,67	-6,532	
93,66	7,311	318,42	699,78	-6,536	
93,68	7,315	314,84	699,93	-6,539	
93,70	7,319	316,90	699,78	-6,543	
93,72	7,323	318,70	699,64	-6,547	
93,74	7,327	314,85	699,85	-6,551	
93,76	7,332	312,31	699,96	-6,555	
93,78	7,335	314,51	699,77	-6,559	
93,80	7,339	315,04	699,69	-6,563	
93,82	7,344	310,91	699,95	-6,567	
93,84	7,348	309,65	700,02	-6,571	
93,86	7,352	312,04	699,79	-6,575	
93,88	7,356	311,94	699,69	-6,579	
93,90	7,360	307,76	699,86	-6,583	
93,92	7,364	307,23	699,85	-6,587	
93,94	7,368	309,80	699,65	-6,591	
93,96	7,372	307,85	699,84	-6,595	
93,98	7,376	302,57	700,19	-6,599	
94,00	7,379	301,66	700,17	-6,603	
94,02	7,383	303,23	699,86	-6,607	
94,04	7,387	302,52	699,66	-6,611	
94,06	7,391	299,41	699,73	-6,615	
94,08	7,395	299,45	699,72	-6,619	
94,10	7,399	301,05	699,63	-6,623	
94,12	7,403	298,32	699,83	-6,627	
94,14	7,407	294,32	699,99	-6,631	
94,16	7,411	295,33	699,83	-6,635	
94,18	7,415	297,89	699,67	-6,639	
94,20	7,419	294,75	699,85	-6,643	
94,22	7,423	292,29	699,94	-6,647	
94,24	7,427	293,66	699,73	-6,651	
94,26	7,431	293,19	699,76	-6,655	
94,28	7,436	287,39	700,17	-6,659	
94,30	7,440	284,91	700,27	-6,663	
94,32	7,444	286,00	700,00	-6,667	
94,34	7,448	286,22	699,69	-6,671	
94,36	7,452	283,25	699,72	-6,675	
94,38	7,456	281,49	699,84	-6,679	
94,40	7,460	282,09	699,71	-6,683	
94,42	7,464	281,40	699,67	-6,687	
94,44	7,468	276,80	699,89	-6,691	
94,46	7,472	274,33	699,92	-6,695	
94,48	7,475	276,95	699,70	-6,699	
94,50	7,479	276,83	699,74	-6,703	
94,52	7,483	271,73	700,05	-6,707	
94,54	7,487	270,90	700,09	-6,711	
94,56	7,491	272,30	699,82	-6,715	
94,58	7,495	271,10	699,73	-6,719	
94,60	7,499	266,41	699,98	-6,723	
94,62	7,503	265,05	700,02	-6,727	
94,64	7,507	265,81	699,76	-6,731	
94,66	7,511	263,69	699,78	-6,735	
94,68	7,515	257,53	700,13	-6,740	
94,70	7,519	255,33	700,18	-6,744	
94,72	7,523	256,26	699,91	-6,748	
94,74	7,527	255,32	699,69	-6,752	
94,76	7,532	251,29	699,70	-6,756	
94,78	7,535	251,25	699,61	-6,760	
94,80	7,539	251,06	699,64	-6,764	
94,82	7,544	245,88	699,90	-6,768	
94,84	7,548	241,21	699,94	-6,772	
94,86	7,552	241,60	699,72	-6,776	
94,88	7,556	240,65	699,78	-6,780	
94,90	7,560	235,75	700,06	-6,785	
94,92	7,564	234,12	700,02	-6,789	
94,94	7,568	234,27	699,73	-6,793	
94,96	7,571	229,87	699,85	-6,797	
94,98	7,575	222,73	700,18	-6,801	
95,00	7,579	220,60	700,17	-6,805	
95,02	7,583	220,45	699,88	-6,809	
95,04	7,587	217,97	699,69	-6,814	
95,06	7,591	212,33	699,85	-6,818	
95,08	7,595	209,25	699,90	-6,822	
95,10	7,599	207,99	699,69	-6,826	
95,12	7,603	203,04	699,86	-6,831	
95,14	7,607	193,74	700,30	-6,835	
95,16	7,611	188,34	700,36	-6,839	
95,18	7,615	186,66	700,05	-6,843	
95,20	7,619	184,00	699,72	-6,847	
95,22	7,624	178,44	699,83	-6,852	
95,24	7,628	174,37	700,05	-6,856	
95,26	7,632	172,29	699,93	-6,860	
95,28	7,636	170,32	699,70	-6,864	
95,30	7,640	164,57	699,99	-6,869	
95,32	7,644	158,02	700,31	-6,873	
95,34	7,648	155,60	700,20	-6,877	
95,36	7,652	154,37	699,84	-6,881	
95,38	7,656	150,64	699,73	-6,885	
95,40	7,660	145,08	699,94	-6,890	
95,42	7,664	142,78	699,93	-6,894	
95,44	7,667	142,34	699,71	-6,898	
95,46	7,671	138,20	700,04	-6,902	
95,48	7,675	130,12	700,57	-6,907	
95,50	7,679	125,85	700,62	-6,911	
95,52	7,683	124,31	700,29	-6,915	
95,54	7,687	121,82	699,88	-6,918	
95,56	7,691	119,77	699,75	-6,923	
95,58	7,695	117,90	699,98	-6,927	
95,60	7,699	115,23	700,02	-6,931	
95,62	7,703	113,95	699,77	-6,935	
95,64	7,707	111,36	699,79	-6,940	
95,66	7,712	104,22	700,22	-6,944	
95,68	7,716	100,54	700,34	-6,948	
95,70	7,720	100,35	700,06	-6,952	
95,72	7,724	99,32	699,76	-6,956	
95,74	7,728	94,94	699,89	-6,961	
95,76	7,732	91,92	700,03	-6,965	
95,78	7,736	91,14	699,84	-6,969	
95,80	7,740	90,01	699,75	-6,973	
95,82	7,744	83,54	700,24	-6,978	
95,84	7,748	76,74	700,52	-6,982	
95,86	7,752	74,54	700,27	-6,986	
95,88	7,756	73,59	699,86	-6,990	
95,90	7,760	70,04	699,84	-6,994	
95,92	7,764	65,97	700,08	-6,998	
95,94	7,768	65,29	700,00	-7,002	
95,96	7,771	65,90	699,74	-7,006	
95,98	7,775	61,61	700,10	-7,011	
96,00	7,779	53,91	700,60	-7,015	
96,02	7,783	51,07	700,58	-7,019	
96,04	7,787	50,56	700,20	-7,023	
96,06	7,791	49,20	699,81	-7,027	
96,08	7,795	46,98	699,98	-7,031	
96,10	7,799	45,26	700,37	-7,035	
96,12	7,803	43,75	700,33	-7,037	
96,14	7,807	42,44	699,97	-7,038	
96,16	7,810	40,91	699,77	-7,039	
96,18	7,812	36,26	700,31	-7,040	
96,20	7,814	31,17	700,75	-7,041	
96,22	7,814	26,91	700,64	-7,041	
96,24	7,814	22,69	700,21	-7,040	
96,26	7,814	19,45	699,80	-7,040	
96,28	7,815	18,02	700,13	-7,041	
96,30	7,815	15,45	700,81	-7,042	
96,32	7,815	12,90	700,94	-7,042	
96,34	7,815	10,92	700,63	-7,042	
96,36	7,815	9,066	700,20	-7,041	
96,38	7,815	9,060	699,81	-7,041	
96,40	7,815	12,78	699,89	-7,042	
96,42	7,815	13,81	700,32	-7,043	
96,44	7,815	12,29	700,37	-7,043	
96,46	7,815	10,16	700,03	-7,043	
96,48	7,815	9,409	699,76	-7,042	
96,50	7,815	6,530	700,32	-7,043	
96,52	7,815	3,362	700,93	-7,044	
96,54	7,815	2,215	700,89	-7,043	
96,56	7,815	2,177	700,49	-7,043	
96,58	7,815	2,288	700,04	-7,043	
96,60	7,815	2,694	699,76	-7,043	
96,62	7,815	2,144	699,96	-7,044	
96,64	7,815	1,840	700,14	-7,044	
96,66	7,815	2,112	699,95	-7,044	
96,68	7,815	2,974	699,71	-7,044	
96,70	7,815	2,469	700,20	-7,045	
96,72	7,815	1,923	700,83	-7,045	
96,74	7,815	1,996	700,87	-7,045	
96,76	7,815	2,219	700,52	-7,044	
96,78	7,815	2,307	700,08	-7,044	
96,80	7,815	2,732	699,76	-7,044	
96,82	7,815	2,281	699,98	-7,045	
96,84	7,815	1,866	700,28	-7,046	
96,86	7,815	1,915	700,16	-7,045	
96,88	7,815	2,369	699,81	-7,045	
96,90	7,815	2,727	699,90	-7,046	
96,92	7,815	2,079	700,70	-7,046	
96,94	7,815	1,908	701,09	-7,046	
96,96	7,815	2,038	700,90	-7,046	
96,98	7,815	2,193	700,52	-7,045	
97,00	7,815	3,008	700,13	-7,045	
97,02	7,815	8,775	699,78	-7,046	
97,04	7,815	13,84	699,93	-7,047	
97,06	7,815	11,10	700,31	-7,047	
97,08	7,815	7,054	700,30	-7,047	
97,10	7,815	4,538	699,98	-7,047	
97,12	7,815	3,480	699,75	-7,047	
97,14	7,815	1,699	700,25	-7,047	
97,16	7,815	1,289	700,79	-7,048	
97,18	7,815	2,324	700,79	-7,047	
97,20	7,815	4,270	700,45	-7,047	
97,22	7,815	5,555	700,03	-7,047	
97,24	7,815	8,057	699,80	-7,047	
97,26	7,815	9,156	700,33	-7,048	
97,28	7,815	7,494	700,85	-7,048	
97,30	7,815	6,018	700,80	-7,048	
97,32	7,815	5,695	700,43	-7,048	
97,34	7,815	5,473	700,03	-7,047	
97,36	7,815	7,456	699,74	-7,048	
97,38	7,815	10,23	700,07	-7,049	
97,40	7,815	8,618	700,53	-7,049	
97,42	7,815	6,398	700,50	-7,049	
97,44	7,815	5,543	700,15	-7,048	
97,46	7,815	6,114	699,76	-7,048	
97,48	7,815	6,080	700,04	-7,049	
97,50	7,815	4,261	700,91	-7,049	
97,52	7,815	3,068	701,23	-7,049	
97,54	7,815	2,967	700,97	-7,049	
97,56	7,815	2,641	700,53	-7,049	
97,58	7,815	3,790	700,11	-7,049	
97,60	7,815	9,596	699,78	-7,049	
97,62	7,815	13,01	699,83	-7,050	
97,64	7,815	10,24	700,01	-7,050	
97,66	7,815	7,003	699,88	-7,050	
97,68	7,815	6,157	699,75	-7,050	
97,70	7,815	1,669	700,41	-7,051	
97,72	7,815	-3,592	701,06	-7,051	
97,74	7,815	-2,592	701,05	-7,050	
97,76	7,815	0,6929	700,67	-7,050	
97,78	7,815	2,423	700,23	-7,050	
97,80	7,815	6,494	699,84	-7,050	
97,82	7,815	11,33	699,80	-7,051	
97,84	7,815	9,977	700,05	-7,051	
97,86	7,815	6,355	700,05	-7,051	
97,88	7,815	4,011	699,78	-7,051	
97,90	7,815	1,849	699,95	-7,051	
97,92	7,815	-2,095	700,68	-7,052	
97,94	7,815	-1,800	700,98	-7,051	
97,96	7,815	1,279	700,73	-7,051	
97,98	7,815	4,008	700,27	-7,051	
98,00	7,815	6,720	699,84	-7,051	
98,02	7,815	10,12	699,91	-7,052	
98,04	7,815	8,669	700,56	-7,052	
98,06	7,815	4,735	700,84	-7,052	
98,08	7,815	2,542	700,61	-7,052	
98,10	7,815	2,182	700,20	-7,052	
98,12	7,815	3,637	699,81	-7,052	
98,14	7,815	7,896	699,84	-7,052	
98,16	7,815	8,012	700,39	-7,053	
98,18	7,815	4,769	700,62	-7,053	
98,20	7,815	2,675	700,38	-7,052	
98,22	7,815	2,332	699,96	-7,052	
98,24	7,815	3,661	699,75	-7,053	
98,26	7,815	4,547	700,34	-7,053	
98,28	7,815	3,490	700,89	-7,053	
98,30	7,815	2,378	700,84	-7,053	
98,32	7,815	2,091	700,46	-7,053	
98,34	7,815	2,430	700,03	-7,053	
98,36	7,815	6,015	699,76	-7,053	
98,38	7,815	7,267	700,06	-7,054	
98,40	7,815	4,621	700,36	-7,054	
98,42	7,815	2,666	700,23	-7,054	
98,44	7,815	2,480	699,86	-7,053	
98,46	7,815	2,749	699,88	-7,054	
98,48	7,815	1,447	700,71	-7,054	
98,50	7,815	1,299	701,24	-7,054	
98,52	7,815	1,931	701,08	-7,054	
98,54	7,815	2,337	700,63	-7,054	
98,56	7,815	2,994	700,15	-7,054	
98,58	7,815	7,199	699,78	-7,054	
98,60	7,815	9,698	700,07	-7,055	
98,62	7,815	6,425	700,62	-7,055	
98,64	7,815	3,207	700,68	-7,055	
98,66	7,815	2,312	700,33	-7,054	
98,68	7,815	2,660	699,88	-7,054	
98,70	7,815	4,741	699,87	-7,055	
98,72	7,815	5,135	700,69	-7,055	
98,74	7,815	3,516	701,24	-7,055	
98,76	7,815	2,435	701,12	-7,055	
98,78	7,815	2,205	700,68	-7,055	
98,80	7,815	2,434	700,19	-7,055	
98,82	7,815	5,999	699,79	-7,055	
98,84	7,815	8,079	700,02	-7,056	
98,86	7,815	4,624	700,65	-7,056	
98,88	7,815	2,074	700,84	-7,056	
98,90	7,815	1,899	700,55	-7,056	
98,92	7,815	2,254	700,08	-7,056	
98,94	7,815	4,070	699,80	-7,056	
98,96	7,815	5,262	700,34	-7,057	
98,98	7,815	3,881	700,97	-7,057	
99,00	7,815	2,542	701,02	-7,057	
99,02	7,815	2,131	700,69	-7,057	
99,04	7,815	2,283	700,24	-7,057	
99,06	7,815	5,326	699,81	-7,057	
99,08	7,815	7,193	700,02	-7,057	
99,10	7,815	3,255	700,77	-7,058	
99,12	7,815	-0,2574	701,11	-7,058	
99,14	7,815	-1,317	700,91	-7,058	
99,16	7,815	-1,279	700,51	-7,058	
99,18	7,815	0,1433	700,07	-7,058	
99,20	7,815	5,228	699,76	-7,058	
99,22	7,815	6,275	700,20	-7,058	
99,24	7,815	2,344	700,89	-7,059	
99,26	7,815	-0,5934	701,04	-7,059	
99,28	7,815	-1,333	700,75	-7,058	
99,30	7,815	-1,197	700,33	-7,059	
99,32	7,815	1,650	699,90	-7,059	
99,34	7,815	5,953	699,77	-7,059	
99,36	7,815	4,198	700,28	-7,059	
99,38	7,815	0,3416	700,68	-7,059	
99,40	7,815	-1,358	700,60	-7,059	
99,42	7,815	-1,490	700,24	-7,059	
99,44	7,815	-0,4170	699,82	-7,059	
99,46	7,815	2,466	699,94	-7,060	
99,48	7,815	1,820	700,83	-7,063	
99,50	7,815	-0,2776	701,43	-7,065	
99,52	7,815	-1,149	701,40	-7,066	
99,54	7,815	-1,156	701,07	-7,065	
99,56	7,815	-0,2600	700,66	-7,065	
99,58	7,815	3,093	700,21	-7,065	
99,60	7,815	5,794	699,82	-7,065	
99,62	7,815	3,994	699,96	-7,066	
99,64	7,815	-0,9832	700,35	-7,066	
99,66	7,815	-3,011	700,38	-7,066	
99,68	7,815	-2,202	700,05	-7,066	
99,70	7,815	-1,165	699,81	-7,066	
99,72	7,815	-1,591	700,41	-7,066	
99,74	7,815	-0,2140	700,77	-7,066	
99,76	7,815	1,418	700,52	-7,067	
99,78	7,815	0,9572	700,08	-7,067	
99,80	7,815	-0,7556	699,66	-7,067	
99,82	7,815	-1,298	699,22	-7,067	
99,84	7,815	-1,133	698,80	-7,068	
99,86	7,815	-2,209	698,42	-7,068	
99,88	7,815	-3,797	698,06	-7,068	
99,90	7,815	-4,496	697,71	-7,068	
99,92	7,815	-4,554	697,32	-7,069	
99,94	7,815	-4,539	696,93	-7,069	
99,96	7,815	-4,553	696,58	-7,069	
99,98	7,815	-4,514	696,28	-7,069	
100,00	7,815	-4,545	695,99	-7,070	
100,02	7,815	-4,633	695,70	-7,070	
100,04	7,815	-4,606	695,41	-7,070	
100,06	7,815	-4,575	695,07	-7,070	
100,08	7,815	-4,567	694,72	-7,071	
100,10	7,815	-4,623	694,39	-7,071	
100,12	7,815	-4,667	694,06	-7,071	
100,14	7,815	-4,694	693,72	-7,071	
100,16	7,815	-4,675	693,42	-7,072	
100,18	7,815	-4,661	693,15	-7,072	
100,20	7,815	-4,671	692,89	-7,072	
100,22	7,815	-4,630	692,59	-7,072	
100,24	7,815	-4,605	692,23	-7,072	
100,26	7,815	-4,596	691,86	-7,073	
100,28	7,815	-4,539	691,53	-7,073	
100,30	7,815	-4,527	691,22	-7,073	
100,32	7,815	-4,549	690,95	-7,074	
100,34	7,815	-4,523	690,67	-7,074	
100,36	7,815	-4,493	690,34	-7,074	
100,38	7,815	-4,430	689,97	-7,074	
100,40	7,815	-4,376	689,59	-7,074	
100,42	7,815	-4,447	689,17	-7,075	
100,44	7,815	-4,472	688,72	-7,075	
100,46	7,815	-4,474	688,29	-7,075	
100,48	7,815	-4,533	687,89	-7,075	
100,50	7,815	-4,568	687,54	-7,075	
100,52	7,815	-4,548	687,19	-7,076	
100,54	7,815	-4,506	686,84	-7,076	
100,56	7,815	-4,529	686,44	-7,076	
100,58	7,815	-4,537	686,00	-7,076	
100,60	7,815	-4,558	685,53	-7,077	
100,62	7,815	-4,619	685,08	-7,077	
100,64	7,815	-4,571	684,67	-7,077	
100,66	7,815	-4,488	684,28	-7,077	
100,68	7,815	-4,502	683,89	-7,077	
100,70	7,815	-4,476	683,44	-7,078	
100,72	7,815	-4,448	682,98	-7,078	
100,74	7,815	-4,491	682,52	-7,078	
100,76	7,815	-4,525	682,04	-7,078	
100,78	7,815	-4,530	681,56	-7,078	
100,80	7,815	-4,540	681,05	-7,079	
100,82	7,815	-4,516	680,54	-7,079	
100,84	7,815	-4,497	680,08	-7,079	
100,86	7,815	-4,499	679,62	-7,079	
100,88	7,815	-4,453	679,17	-7,080	
100,90	7,815	-4,455	678,70	-7,080	
100,92	7,815	-4,500	678,21	-7,080	
100,94	7,815	-4,480	677,72	-7,080	
100,96	7,815	-4,455	677,25	-7,081	
100,98	7,815	-4,456	676,76	-7,081	
101,00	7,815	-4,447	676,26	-7,081	
101,02	7,815	-4,405	675,79	-7,081	
101,04	7,815	-4,379	675,29	-7,082	
101,06	7,815	-4,365	674,78	-7,082	
101,08	7,815	-4,421	674,27	-7,082	
101,10	7,815	-4,532	673,78	-7,082	
101,12	7,815	-4,606	673,29	-7,083	
101,14	7,815	-4,561	672,77	-7,083	
101,16	7,815	-4,488	672,23	-7,083	
101,18	7,815	-4,447	671,71	-7,083	
101,20	7,815	-4,489	671,19	-7,084	
101,22	7,815	-4,517	670,66	-7,084	
101,24	7,815	-4,513	670,13	-7,084	
101,26	7,815	-4,537	669,65	-7,084	
101,28	7,815	-4,594	669,16	-7,084	
101,30	7,815	-4,550	668,62	-7,085	
101,32	7,815	-4,470	668,03	-7,085	
101,34	7,815	-4,479	667,46	-7,085	
101,36	7,815	-4,500	666,91	-7,085	
101,38	7,815	-4,467	666,37	-7,086	
101,40	7,815	-4,502	665,85	-7,086	
101,42	7,815	-4,541	665,31	-7,086	
101,44	7,815	-4,555	664,75	-7,086	
101,46	7,815	-4,560	664,20	-7,087	
101,48	7,815	-4,522	663,67	-7,087	
101,50	7,815	-4,486	663,12	-7,087	
101,52	7,815	-4,469	662,57	-7,087	
101,54	7,815	-4,398	662,05	-7,088	
101,56	7,815	-4,376	661,52	-7,088	
101,58	7,815	-4,421	660,99	-7,088	
101,60	7,815	-4,439	660,46	-7,088	
101,62	7,815	-4,499	659,94	-7,089	
101,64	7,815	-4,545	659,42	-7,089	
101,66	7,815	-4,622	658,90	-7,089	
101,68	7,815	-4,615	658,37	-7,089	
101,70	7,815	-4,544	657,84	-7,090	
101,72	7,815	-4,486	657,31	-7,090	
101,74	7,815	-4,539	656,77	-7,090	
101,76	7,815	-4,552	656,24	-7,090	
101,78	7,815	-4,505	655,70	-7,091	
101,80	7,815	-4,448	655,17	-7,091	
101,82	7,815	-4,457	654,67	-7,091	
101,84	7,815	-4,460	654,16	-7,091	
101,86	7,815	-4,508	653,64	-7,091	
101,88	7,815	-4,512	653,14	-7,092	
101,90	7,815	-4,484	652,65	-7,092	
101,92	7,815	-4,533	652,14	-7,092	
101,94	7,815	-4,588	651,61	-7,092	
101,96	7,815	-4,572	651,08	-7,093	
101,98	7,815	-4,538	650,55	-7,093	
102,00	7,815	-4,546	650,02	-7,093	
102,02	7,815	-4,515	649,49	-7,093	
102,04	7,815	-4,473	648,97	-7,094	
102,06	7,815	-4,473	648,45	-7,094	
102,08	7,815	-4,501	647,93	-7,094	
102,10	7,815	-4,506	647,43	-7,094	
102,12	7,815	-4,492	646,93	-7,094	
102,14	7,815	-4,446	646,43	-7,095	
102,16	7,815	-4,429	645,93	-7,095	
102,18	7,815	-4,478	645,43	-7,095	
102,20	7,815	-4,488	644,93	-7,095	
102,22	7,815	-4,444	644,43	-7,096	
102,24	7,815	-4,447	643,91	-7,096	
102,26	7,815	-4,483	643,40	-7,096	
102,28	7,815	-4,478	642,90	-7,096	
102,30	7,815	-4,482	642,42	-7,096	
102,32	7,815	-4,501	641,94	-7,097	
102,34	7,815	-4,472	641,46	-7,097	
102,36	7,815	-4,508	640,98	-7,097	
102,38	7,815	-4,445	640,50	-7,097	
102,40	7,815	-4,382	640,01	-7,097	
102,42	7,815	-4,453	639,53	-7,098	
102,44	7,815	-4,497	639,04	-7,098	
102,46	7,815	-4,540	638,55	-7,098	
102,48	7,815	-4,559	638,04	-7,098	
102,50	7,815	-4,489	637,54	-7,099	
102,52	7,815	-4,466	637,05	-7,099	
102,54	7,815	-4,471	636,55	-7,099	
102,56	7,815	-4,499	636,04	-7,099	
102,58	7,815	-4,477	635,54	-7,099	
102,60	7,815	-4,479	635,04	-7,099	
102,62	7,815	-4,461	634,54	-7,100	
102,64	7,815	-4,445	634,05	-7,100	
102,66	7,815	-4,431	633,59	-7,100	
102,68	7,815	-4,402	633,12	-7,100	
102,70	7,815	-4,424	632,62	-7,100	
102,72	7,815	-4,424	632,09	-7,101	
102,74	7,815	-4,338	631,58	-7,101	
102,76	7,815	-4,223	631,08	-7,101	
102,78	7,815	-4,257	630,58	-7,101	
102,80	7,815	-4,357	630,09	-7,102	
102,82	7,815	-4,401	629,61	-7,102	
102,84	7,815	-4,411	629,13	-7,102	
102,86	7,815	-4,398	628,65	-7,102	
102,88	7,815	-4,410	628,17	-7,102	
102,90	7,815	-4,441	627,70	-7,102	
102,92	7,815	-4,363	627,23	-7,103	
102,94	7,815	-4,361	626,75	-7,103	
102,96	7,815	-4,412	626,27	-7,103	
102,98	7,815	-4,480	625,80	-7,103	
103,00	7,815	-4,505	625,31	-7,103	
103,02	7,815	-4,522	624,82	-7,104	
103,04	7,815	-4,498	624,33	-7,104	
103,06	7,815	-4,463	623,85	-7,104	
103,08	7,815	-4,409	623,36	-7,104	
103,10	7,815	-4,371	622,86	-7,104	
103,12	7,815	-4,360	622,37	-7,105	
103,14	7,815	-4,332	621,87	-7,105	
103,16	7,815	-4,291	621,35	-7,105	
103,18	7,815	-4,285	620,85	-7,105	
103,20	7,815	-4,283	620,35	-7,105	
103,22	7,815	-4,323	619,86	-7,105	
103,24	7,815	-4,379	619,36	-7,106	
103,26	7,815	-4,391	618,83	-7,106	
103,28	7,815	-4,370	618,29	-7,106	
103,30	7,815	-4,413	617,75	-7,106	
103,32	7,815	-4,434	617,22	-7,106	
103,34	7,815	-4,436	616,69	-7,107	
103,36	7,815	-4,431	616,16	-7,107	
103,38	7,815	-4,409	615,66	-7,107	
103,40	7,815	-4,386	615,17	-7,107	
103,42	7,815	-4,372	614,67	-7,107	
103,44	7,815	-4,418	614,16	-7,107	
103,46	7,815	-4,463	613,63	-7,108	
103,48	7,815	-4,420	613,12	-7,108	
103,50	7,815	-4,428	612,61	-7,108	
103,52	7,815	-4,522	612,09	-7,108	
103,54	7,815	-4,585	611,55	-7,108	
103,56	7,815	-4,565	611,02	-7,109	
103,58	7,815	-4,480	610,51	-7,109	
103,60	7,815	-4,438	609,99	-7,109	
103,62	7,815	-4,518	609,48	-7,109	
103,64	7,815	-4,607	608,98	-7,109	
103,66	7,815	-4,647	608,48	-7,110	
103,68	7,815	-4,591	607,96	-7,110	
103,70	7,815	-4,462	607,45	-7,110	
103,72	7,815	-4,389	606,94	-7,110	
103,74	7,815	-4,403	606,41	-7,110	
103,76	7,815	-4,411	605,91	-7,110	
103,78	7,815	-4,371	605,41	-7,111	
103,80	7,815	-4,332	604,92	-7,111	
103,82	7,815	-4,301	604,44	-7,111	
103,84	7,815	-4,343	603,93	-7,111	
103,86	7,815	-4,367	603,42	-7,111	
103,88	7,815	-4,341	602,90	-7,112	
103,90	7,815	-4,380	602,40	-7,112	
103,92	7,815	-4,382	601,89	-7,112	
103,94	7,815	-4,359	601,39	-7,112	
103,96	7,815	-4,401	600,90	-7,112	
103,98	7,815	-4,408	600,40	-7,113	
104,00	7,815	-4,404	599,88	-7,113	
104,02	7,815	-4,406	599,37	-7,113	
104,04	7,815	-4,408	598,88	-7,113	
104,06	7,815	-4,439	598,41	-7,113	
104,08	7,815	-4,402	597,95	-7,114	
104,10	7,815	-4,328	597,49	-7,114	
104,12	7,815	-4,316	597,02	-7,114	
104,14	7,815	-4,297	596,55	-7,114	
104,16	7,815	-4,296	596,07	-7,114	
104,18	7,815	-4,297	595,56	-7,115	
104,20	7,815	-4,316	595,05	-7,115	
104,22	7,815	-4,386	594,56	-7,115	
104,24	7,815	-4,418	594,08	-7,115	
104,26	7,815	-4,412	593,59	-7,115	
104,28	7,815	-4,403	593,09	-7,115	
104,30	7,815	-4,314	592,61	-7,116	
104,32	7,815	-4,218	592,12	-7,116	
104,34	7,815	-4,233	591,63	-7,116	
104,36	7,815	-4,194	591,14	-7,116	
104,38	7,815	-4,205	590,65	-7,117	
104,40	7,815	-4,281	590,16	-7,117	
104,42	7,815	-4,353	589,67	-7,117	
104,44	7,815	-4,378	589,19	-7,117	
104,46	7,815	-4,414	588,71	-7,117	
104,48	7,815	-4,389	588,23	-7,118	
104,50	7,815	-4,350	587,73	-7,118	
104,52	7,815	-4,407	587,23	-7,118	
104,54	7,815	-4,519	586,75	-7,118	
104,56	7,815	-4,532	586,29	-7,118	
104,58	7,815	-4,483	585,81	-7,119	
104,60	7,815	-4,505	585,33	-7,119	
104,62	7,815	-4,500	584,85	-7,119	
104,64	7,815	-4,487	584,38	-7,119	
104,66	7,815	-4,427	583,91	-7,119	
104,68	7,815	-4,369	583,43	-7,119	
104,70	7,815	-4,445	582,94	-7,120	
104,72	7,815	-4,505	582,46	-7,120	
104,74	7,815	-4,409	582,00	-7,120	
104,76	7,815	-4,308	581,54	-7,120	
104,78	7,815	-4,277	581,06	-7,121	
104,80	7,815	-4,333	580,60	-7,121	
104,82	7,815	-4,425	580,13	-7,121	
104,84	7,815	-4,477	579,66	-7,121	
104,86	7,815	-4,483	579,18	-7,121	
104,88	7,815	-4,456	578,70	-7,122	
104,90	7,815	-4,387	578,24	-7,122	
104,92	7,815	-4,379	577,78	-7,122	
104,94	7,815	-4,452	577,33	-7,122	
104,96	7,815	-4,486	576,87	-7,122	
104,98	7,815	-4,469	576,42	-7,123	
105,00	7,815	-4,437	575,97	-7,123	
105,02	7,815	-4,407	575,50	-7,123	
105,04	7,815	-4,466	575,03	-7,123	
105,06	7,815	-4,550	574,58	-7,123	
105,08	7,815	-4,552	574,14	-7,123	
105,10	7,815	-4,544	573,69	-7,124	
105,12	7,815	-4,549	573,24	-7,124	
105,14	7,815	-4,588	572,78	-7,124	
105,16	7,815	-4,584	572,31	-7,124	
105,18	7,815	-4,596	571,85	-7,124	
105,20	7,815	-4,580	571,40	-7,125	
105,22	7,815	-4,499	570,94	-7,125	
105,24	7,815	-4,495	570,48	-7,125	
105,26	7,815	-4,445	570,00	-7,125	
105,28	7,815	-4,375	569,53	-7,125	
105,30	7,815	-4,332	569,06	-7,126	
105,32	7,815	-4,349	568,59	-7,126	
105,34	7,815	-4,379	568,13	-7,126	
105,36	7,815	-4,412	567,66	-7,126	
105,38	7,815	-4,426	567,19	-7,126	
105,40	7,815	-4,396	566,73	-7,126	
105,42	7,815	-4,423	566,27	-7,127	
105,44	7,815	-4,447	565,80	-7,127	
105,46	7,815	-4,464	565,33	-7,127	
105,48	7,815	-4,484	564,87	-7,127	
105,50	7,815	-4,448	564,41	-7,127	
105,52	7,815	-4,494	563,93	-7,128	
105,54	7,815	-4,518	563,46	-7,128	
105,56	7,815	-4,505	562,99	-7,128	
105,58	7,815	-4,466	562,54	-7,128	
105,60	7,815	-4,457	562,09	-7,128	
105,62	7,815	-4,441	561,64	-7,128	
105,64	7,815	-4,428	561,18	-7,129	
105,66	7,815	-4,468	560,71	-7,129	
105,68	7,815	-4,520	560,24	-7,129	
105,70	7,815	-4,534	559,77	-7,129	
105,72	7,815	-4,530	559,30	-7,129	
105,74	7,815	-4,526	558,84	-7,130	
105,76	7,815	-4,495	558,40	-7,130	
105,78	7,815	-4,456	557,95	-7,130	
105,80	7,815	-4,451	557,50	-7,130	
105,82	7,815	-4,461	557,05	-7,130	
105,84	7,815	-4,506	556,59	-7,130	
105,86	7,815	-4,432	556,15	-7,131	
105,88	7,815	-4,379	555,72	-7,131	
105,90	7,815	-4,521	555,30	-7,131	
105,92	7,815	-4,576	554,87	-7,131	
105,94	7,815	-4,546	554,43	-7,131	