Zeit  1 - Standardmessrate [s]	ZwickWeg [mm]	ZwickKraft [N]	Pyrometer [°C]	Maytec [mm]
0	-0,4695	155,71	150,05	0,01995	
0,02000	-0,4695	155,73	150,05	0,02001	
0,04000	-0,4695	155,76	150,05	0,02012	
0,06000	-0,4695	155,76	150,05	0,02017	
0,08000	-0,4695	155,71	150,05	0,02006	
0,1000	-0,4695	155,74	150,05	0,01985	
0,1200	-0,4695	155,77	150,05	0,01978	
0,1400	-0,4695	155,29	150,05	0,01987	
0,1600	-0,4695	153,82	150,05	0,02003	
0,1800	-0,4695	152,71	150,05	0,02017	
0,2000	-0,4695	152,42	150,05	0,02018	
0,2200	-0,4695	152,92	150,05	0,02017	
0,2400	-0,4695	154,42	150,05	0,02008	
0,2600	-0,4695	155,52	150,05	0,01998	
0,2800	-0,4695	155,84	150,05	0,01996	
0,3000	-0,4695	155,84	150,05	0,01997	
0,3200	-0,4694	155,81	150,05	0,02006	
0,3400	-0,4694	155,82	150,05	0,02013	
0,3600	-0,4695	155,87	150,05	0,02012	
0,3800	-0,4695	155,91	150,05	0,02003	
0,4000	-0,4695	155,88	150,05	0,01991	
0,4200	-0,4695	155,79	150,05	0,01993	
0,4400	-0,4695	155,69	150,05	0,02004	
0,4600	-0,4695	155,71	150,05	0,02014	
0,4800	-0,4695	155,76	150,05	0,02020	
0,5000	-0,4695	155,74	150,05	0,02015	
0,5200	-0,4694	155,75	150,05	0,02005	
0,5400	-0,4695	155,78	150,05	0,01994	
0,5600	-0,4695	155,78	150,05	0,01995	
0,5800	-0,4695	155,77	150,05	0,02003	
0,6000	-0,4694	155,80	150,05	0,02009	
0,6200	-0,4695	155,77	150,04	0,02021	
0,6400	-0,4695	155,79	150,05	0,02021	
0,6600	-0,4694	155,80	150,05	0,02016	
0,6800	-0,4694	155,75	150,05	0,02006	
0,7000	-0,4694	155,70	150,05	0,01996	
0,7200	-0,4695	155,68	150,05	0,02000	
0,7400	-0,4695	155,75	150,05	0,02004	
0,7600	-0,4695	155,82	150,05	0,02013	
0,7800	-0,4694	155,83	150,05	0,02021	
0,8000	-0,4694	155,83	150,05	0,02020	
0,8200	-0,4694	155,86	150,05	0,02011	
0,8400	-0,4694	155,94	150,05	0,02003	
0,8600	-0,4694	155,93	150,04	0,02004	
0,8800	-0,4695	155,87	150,05	0,02006	
0,9000	-0,4695	155,80	150,05	0,02009	
0,9200	-0,4695	155,76	150,05	0,02011	
0,9400	-0,4695	155,81	150,05	0,02015	
0,9600	-0,4695	155,84	150,05	0,02007	
0,9800	-0,4694	155,80	150,05	0,01994	
1,000	-0,4695	155,80	150,05	0,01992	
1,020	-0,4695	155,83	150,05	0,01994	
1,040	-0,4695	155,81	150,05	0,02001	
1,060	-0,4695	155,76	150,05	0,02013	
1,080	-0,4695	155,79	150,05	0,02014	
1,100	-0,4694	155,83	150,05	0,02004	
1,120	-0,4694	155,80	150,05	0,01989	
1,140	-0,4694	155,80	150,05	0,01981	
1,160	-0,4695	155,81	150,05	0,01984	
1,180	-0,4695	155,79	150,05	0,01994	
1,200	-0,4695	155,80	150,05	0,02006	
1,220	-0,4695	155,84	150,05	0,02014	
1,240	-0,4695	155,82	150,05	0,02008	
1,260	-0,4695	155,75	150,05	0,02001	
1,280	-0,4695	155,77	150,05	0,01990	
1,300	-0,4694	155,83	150,05	0,01987	
1,320	-0,4694	155,83	150,05	0,01996	
1,340	-0,4695	155,80	150,05	0,02009	
1,360	-0,4695	155,80	150,05	0,02006	
1,380	-0,4695	155,82	150,05	0,02006	
1,400	-0,4694	155,87	150,05	0,01993	
1,420	-0,4694	155,86	150,05	0,01987	
1,440	-0,4695	155,85	150,05	0,01990	
1,460	-0,4695	155,86	150,05	0,02000	
1,480	-0,4695	155,84	150,05	0,02014	
1,500	-0,4695	155,82	150,05	0,02020	
1,520	-0,4695	155,80	150,05	0,02019	
1,540	-0,4695	155,72	150,05	0,02004	
1,560	-0,4695	155,63	150,05	0,01991	
1,580	-0,4695	155,60	150,05	0,01991	
1,600	-0,4695	155,61	150,05	0,01994	
1,620	-0,4695	155,64	150,05	0,02001	
1,640	-0,4695	155,70	150,05	0,02010	
1,660	-0,4695	155,77	150,05	0,02016	
1,680	-0,4695	155,79	150,05	0,02006	
1,700	-0,4695	155,66	150,05	0,01991	
1,720	-0,4695	155,62	150,05	0,01987	
1,740	-0,4695	155,61	150,05	0,01991	
1,760	-0,4695	155,59	150,05	0,01994	
1,780	-0,4695	155,55	150,05	0,02005	
1,800	-0,4695	155,53	150,05	0,02009	
1,820	-0,4695	155,56	150,05	0,01999	
1,840	-0,4695	155,59	150,05	0,01990	
1,860	-0,4695	155,55	150,05	0,01986	
1,880	-0,4695	155,51	150,05	0,01982	
1,900	-0,4695	155,55	150,05	0,01988	
1,920	-0,4695	155,52	150,05	0,02004	
1,940	-0,4695	155,55	150,05	0,02020	
1,960	-0,4695	155,61	150,05	0,02015	
1,980	-0,4695	155,61	150,05	0,02004	
2,000	-0,4695	155,64	150,05	0,01999	
2,020	-0,4695	155,67	150,05	0,01994	
2,040	-0,4695	155,71	150,05	0,02002	
2,060	-0,4695	155,72	150,05	0,02014	
2,080	-0,4695	155,69	150,05	0,02017	
2,100	-0,4695	155,66	150,05	0,02011	
2,120	-0,4695	155,64	150,05	0,01999	
2,140	-0,4695	155,66	150,05	0,01992	
2,160	-0,4695	155,68	150,05	0,01994	
2,180	-0,4695	155,69	150,05	0,02000	
2,200	-0,4695	155,67	150,05	0,02014	
2,220	-0,4695	155,66	150,05	0,02022	
2,240	-0,4695	155,64	150,05	0,02026	
2,260	-0,4695	155,59	150,05	0,02016	
2,280	-0,4695	155,53	150,05	0,01996	
2,300	-0,4695	155,52	150,05	0,01986	
2,320	-0,4695	155,59	150,05	0,01994	
2,340	-0,4694	155,63	150,05	0,02001	
2,360	-0,4694	155,66	150,05	0,02011	
2,380	-0,4695	155,68	150,05	0,02018	
2,400	-0,4695	155,66	150,05	0,02003	
2,420	-0,4695	155,69	150,05	0,01991	
2,440	-0,4695	155,75	150,05	0,01995	
2,460	-0,4695	155,75	150,05	0,02005	
2,480	-0,4694	155,69	150,05	0,02013	
2,500	-0,4695	155,67	150,05	0,02018	
2,520	-0,4695	155,66	150,05	0,02018	
2,540	-0,4695	155,69	150,05	0,02006	
2,560	-0,4694	155,72	150,05	0,01994	
2,580	-0,4694	155,74	150,05	0,01989	
2,600	-0,4694	155,76	150,05	0,01999	
2,620	-0,4694	155,76	150,05	0,02014	
2,640	-0,4694	155,74	150,05	0,02020	
2,660	-0,4695	155,72	150,05	0,02017	
2,680	-0,4695	155,70	150,05	0,02008	
2,700	-0,4695	155,71	150,05	0,01998	
2,720	-0,4695	155,75	150,05	0,01995	
2,740	-0,4695	155,73	150,05	0,01997	
2,760	-0,4695	155,76	150,05	0,02001	
2,780	-0,4695	155,77	150,05	0,02007	
2,800	-0,4695	155,74	150,05	0,02010	
2,820	-0,4695	155,77	150,05	0,02008	
2,840	-0,4695	155,78	150,05	0,01995	
2,860	-0,4694	155,73	150,05	0,01979	
2,880	-0,4694	155,73	150,05	0,01985	
2,900	-0,4694	155,74	150,05	0,01998	
2,920	-0,4694	155,72	150,05	0,02012	
2,940	-0,4694	155,74	150,05	0,02021	
2,960	-0,4694	155,82	150,05	0,02013	
2,980	-0,4694	155,85	150,05	0,02003	
3,000	-0,4695	155,83	150,05	0,01991	
3,020	-0,4695	155,79	150,05	0,01987	
3,040	-0,4695	155,80	150,05	0,01994	
3,060	-0,4695	155,78	150,05	0,02002	
3,080	-0,4694	155,76	150,05	0,02017	
3,100	-0,4696	155,74	150,05	0,02024	
3,120	-0,4699	155,71	150,05	0,02013	
3,140	-0,4701	155,75	150,05	0,01996	
3,160	-0,4701	155,79	150,05	0,01993	
3,180	-0,4701	155,79	150,05	0,02010	
3,200	-0,4701	155,76	150,05	0,02020	
3,220	-0,4701	155,72	150,05	0,02018	
3,240	-0,4701	155,73	150,05	0,02011	
3,260	-0,4701	155,72	150,05	0,02005	
3,280	-0,4701	155,69	150,05	0,01997	
3,300	-0,4701	155,71	150,05	0,01991	
3,320	-0,4701	155,74	150,05	0,01993	
3,340	-0,4701	155,37	150,05	0,02000	
3,360	-0,4701	153,99	150,05	0,02013	
3,380	-0,4701	152,83	150,05	0,02023	
3,400	-0,4701	152,40	150,05	0,02024	
3,420	-0,4701	152,70	150,06	0,02011	
3,440	-0,4701	153,57	150,05	0,01997	
3,460	-0,4701	154,79	150,05	0,01992	
3,480	-0,4701	155,60	150,05	0,02001	
3,500	-0,4701	155,78	150,05	0,02013	
3,520	-0,4701	155,69	150,05	0,02020	
3,540	-0,4701	154,65	150,05	0,02021	
3,560	-0,4701	153,21	150,05	0,02015	
3,580	-0,4699	153,50	150,05	0,01997	
3,600	-0,4696	154,82	150,05	0,01984	
3,620	-0,4695	155,54	150,05	0,01989	
3,640	-0,4694	155,59	150,05	0,02005	
3,660	-0,4695	155,55	150,05	0,02021	
3,680	-0,4695	155,15	150,05	0,02022	
3,700	-0,4695	154,10	150,05	0,02009	
3,720	-0,4695	154,44	150,05	0,01992	
3,740	-0,4694	155,28	150,05	0,01990	
3,760	-0,4695	155,63	150,05	0,01991	
3,780	-0,4695	155,65	150,05	0,02000	
3,800	-0,4695	155,23	150,05	0,02017	
3,820	-0,4695	153,82	150,05	0,02025	
3,840	-0,4695	153,06	150,05	0,02015	
3,860	-0,4695	154,12	150,05	0,02003	
3,880	-0,4695	155,25	150,05	0,01993	
3,900	-0,4695	155,60	150,05	0,01992	
3,920	-0,4695	155,62	150,05	0,01999	
3,940	-0,4695	155,59	150,06	0,02012	
3,960	-0,4695	155,63	150,05	0,02016	
3,980	-0,4695	155,64	150,05	0,02008	
4,000	-0,4694	155,62	150,05	0,01995	
4,020	-0,4695	155,62	150,05	0,01985	
4,040	-0,4695	155,66	150,05	0,01982	
4,060	-0,4695	155,71	150,05	0,01996	
4,080	-0,4695	155,70	150,05	0,02010	
4,100	-0,4695	155,68	150,05	0,02018	
4,120	-0,4695	155,26	150,05	0,02015	
4,140	-0,4695	153,81	150,06	0,02006	
4,160	-0,4695	152,64	150,05	0,01992	
4,180	-0,4695	152,65	150,05	0,01985	
4,200	-0,4695	154,12	150,05	0,01990	
4,220	-0,4695	155,34	150,05	0,01995	
4,240	-0,4695	155,74	150,05	0,01999	
4,260	-0,4695	155,67	150,05	0,02009	
4,280	-0,4695	155,58	150,06	0,02008	
4,300	-0,4695	155,55	150,05	0,01993	
4,320	-0,4695	155,59	150,05	0,01986	
4,340	-0,4695	155,68	150,05	0,01991	
4,360	-0,4695	155,65	150,05	0,02008	
4,380	-0,4695	155,61	150,05	0,02022	
4,400	-0,4695	155,65	150,05	0,02018	
4,420	-0,4695	155,71	150,05	0,02009	
4,440	-0,4695	155,68	150,05	0,02000	
4,460	-0,4694	155,58	150,05	0,01989	
4,480	-0,4694	155,56	150,05	0,01985	
4,500	-0,4695	155,58	150,05	0,01985	
4,520	-0,4695	155,61	150,05	0,02000	
4,540	-0,4695	155,64	150,05	0,02015	
4,560	-0,4694	155,65	150,05	0,02011	
4,580	-0,4695	155,62	150,05	0,01998	
4,600	-0,4695	155,59	150,06	0,01986	
4,620	-0,4695	155,64	150,05	0,01979	
4,640	-0,4695	155,65	150,05	0,01990	
4,660	-0,4695	155,62	150,05	0,02009	
4,680	-0,4695	155,61	150,05	0,02021	
4,700	-0,4695	155,59	150,05	0,02019	
4,720	-0,4695	155,64	150,05	0,02003	
4,740	-0,4695	155,68	150,05	0,01985	
4,760	-0,4695	155,67	150,05	0,01980	
4,780	-0,4695	155,66	150,05	0,01988	
4,800	-0,4695	155,67	150,05	0,02001	
4,820	-0,4695	155,69	150,05	0,02013	
4,840	-0,4695	155,70	150,05	0,02015	
4,860	-0,4695	155,72	150,06	0,02009	
4,880	-0,4695	155,72	150,06	0,01997	
4,900	-0,4695	155,72	150,05	0,01991	
4,920	-0,4695	155,69	150,05	0,01995	
4,940	-0,4695	155,67	150,06	0,01992	
4,960	-0,4695	155,64	150,05	0,01995	
4,980	-0,4695	155,61	150,05	0,02006	
5,000	-0,4695	155,61	150,05	0,02010	
5,020	-0,4695	155,64	150,05	0,02003	
5,040	-0,4695	155,65	150,05	0,01995	
5,060	-0,4695	155,67	150,05	0,01992	
5,080	-0,4695	155,66	150,05	0,01993	
5,100	-0,4695	155,62	150,05	0,02002	
5,120	-0,4695	155,70	150,05	0,02010	
5,140	-0,4695	155,70	150,05	0,02013	
5,160	-0,4695	155,69	150,05	0,02003	
5,180	-0,4695	155,66	150,05	0,01984	
5,200	-0,4695	155,63	150,05	0,01981	
5,220	-0,4695	155,69	150,05	0,01990	
5,240	-0,4695	155,72	150,05	0,02003	
5,260	-0,4695	155,68	150,05	0,02017	
5,280	-0,4695	155,73	150,05	0,02021	
5,300	-0,4695	155,82	150,05	0,02017	
5,320	-0,4695	155,78	150,05	0,02006	
5,340	-0,4695	155,74	150,05	0,01993	
5,360	-0,4695	155,70	150,05	0,01991	
5,380	-0,4695	155,67	150,05	0,02002	
5,400	-0,4695	155,67	150,05	0,02013	
5,420	-0,4694	155,70	150,05	0,02011	
5,440	-0,4694	155,74	150,05	0,02007	
5,460	-0,4695	155,75	150,05	0,01995	
5,480	-0,4695	155,73	150,05	0,01987	
5,500	-0,4695	155,69	150,05	0,01986	
5,520	-0,4694	155,67	150,05	0,01994	
5,540	-0,4694	155,64	150,05	0,02005	
5,560	-0,4694	155,63	150,05	0,02017	
5,580	-0,4694	155,64	150,05	0,02022	
5,600	-0,4694	155,73	150,05	0,02010	
5,620	-0,4694	155,77	150,05	0,01999	
5,640	-0,4694	155,77	150,05	0,01999	
5,660	-0,4695	155,70	150,05	0,02004	
5,680	-0,4695	155,61	150,05	0,02006	
5,700	-0,4695	155,65	150,05	0,02009	
5,720	-0,4695	155,71	150,05	0,02015	
5,740	-0,4695	155,70	150,05	0,02017	
5,760	-0,4695	155,66	150,05	0,02011	
5,780	-0,4695	155,66	150,05	0,02001	
5,800	-0,4695	155,69	150,05	0,01998	
5,820	-0,4695	155,69	150,05	0,02003	
5,840	-0,4695	155,63	150,05	0,02013	
5,860	-0,4695	155,63	150,05	0,02022	
5,880	-0,4695	155,69	150,05	0,02014	
5,900	-0,4695	155,74	150,05	0,01999	
5,920	-0,4695	155,74	150,05	0,01991	
5,940	-0,4695	155,72	150,05	0,01989	
5,960	-0,4695	155,73	150,05	0,01990	
5,980	-0,4695	155,69	150,05	0,01997	
6,000	-0,4695	155,62	150,05	0,02011	
6,020	-0,4695	155,62	150,05	0,02014	
6,040	-0,4695	155,66	150,05	0,02008	
6,060	-0,4695	155,68	150,05	0,02002	
6,080	-0,4694	155,78	150,05	0,01996	
6,100	-0,4695	155,82	150,05	0,01992	
6,120	-0,4695	155,79	150,05	0,02001	
6,140	-0,4695	155,78	150,05	0,02017	
6,160	-0,4695	155,81	150,05	0,02025	
6,180	-0,4695	155,80	150,05	0,02015	
6,200	-0,4695	155,77	150,05	0,01994	
6,220	-0,4695	155,77	150,05	0,01982	
6,240	-0,4695	155,78	150,05	0,01990	
6,260	-0,4695	155,73	150,05	0,02004	
6,280	-0,4695	155,70	150,05	0,02012	
6,300	-0,4695	155,70	150,05	0,02017	
6,320	-0,4695	155,71	150,05	0,02016	
6,340	-0,4695	155,70	150,05	0,02002	
6,360	-0,4695	155,66	150,05	0,01985	
6,380	-0,4695	155,66	150,05	0,01985	
6,400	-0,4695	155,69	150,05	0,02000	
6,420	-0,4695	155,64	150,05	0,02010	
6,440	-0,4695	155,65	150,05	0,02010	
6,460	-0,4695	155,67	150,05	0,02011	
6,480	-0,4695	155,67	150,05	0,02004	
6,500	-0,4695	155,70	150,05	0,01996	
6,520	-0,4695	155,77	150,05	0,01997	
6,540	-0,4695	155,79	150,05	0,01997	
6,560	-0,4695	155,78	150,05	0,01996	
6,580	-0,4695	155,78	150,05	0,02001	
6,600	-0,4695	155,79	150,05	0,02013	
6,620	-0,4695	155,75	150,05	0,02014	
6,640	-0,4695	155,71	150,05	0,02003	
6,660	-0,4695	155,65	150,05	0,01987	
6,680	-0,4695	155,60	150,05	0,01979	
6,700	-0,4695	155,66	150,05	0,01989	
6,720	-0,4695	155,70	150,05	0,02005	
6,740	-0,4695	155,70	150,05	0,02011	
6,760	-0,4695	155,65	150,05	0,02008	
6,780	-0,4695	155,63	150,05	0,01999	
6,800	-0,4695	155,67	150,05	0,01992	
6,820	-0,4695	155,73	150,05	0,01989	
6,840	-0,4695	155,79	150,05	0,01991	
6,860	-0,4695	155,81	150,05	0,02004	
6,880	-0,4695	155,81	150,05	0,02017	
6,900	-0,4695	155,75	150,05	0,02019	
6,920	-0,4695	155,70	150,05	0,02001	
6,940	-0,4695	155,71	150,05	0,01979	
6,960	-0,4695	155,71	150,05	0,01973	
6,980	-0,4695	155,73	150,05	0,01984	
7,000	-0,4695	155,76	150,05	0,01999	
7,020	-0,4695	155,78	150,05	0,02010	
7,040	-0,4695	155,74	150,05	0,02015	
7,060	-0,4695	155,69	150,05	0,02007	
7,080	-0,4695	155,70	150,05	0,01997	
7,100	-0,4695	155,68	150,05	0,01995	
7,120	-0,4695	155,64	150,05	0,01994	
7,140	-0,4694	155,65	150,05	0,01998	
7,160	-0,4695	155,70	150,05	0,02012	
7,180	-0,4695	155,65	150,05	0,02024	
7,200	-0,4695	155,59	150,05	0,02019	
7,220	-0,4695	155,60	150,05	0,02001	
7,240	-0,4695	155,63	150,05	0,01996	
7,260	-0,4694	155,66	150,05	0,01995	
7,280	-0,4695	155,62	150,05	0,01995	
7,300	-0,4695	155,61	150,05	0,02005	
7,320	-0,4695	155,65	150,05	0,02015	
7,340	-0,4694	155,66	150,05	0,02016	
7,360	-0,4694	155,65	150,05	0,02004	
7,380	-0,4695	155,66	150,05	0,01994	
7,400	-0,4695	155,70	150,05	0,01998	
7,420	-0,4694	155,71	150,05	0,02001	
7,440	-0,4695	155,70	150,05	0,02006	
7,460	-0,4694	155,73	150,05	0,02013	
7,480	-0,4694	155,79	150,05	0,02018	
7,500	-0,4694	155,84	150,05	0,02014	
7,520	-0,4694	155,91	150,05	0,02003	
7,540	-0,4694	155,91	150,05	0,01993	
7,560	-0,4694	155,86	150,05	0,01996	
7,580	-0,4695	155,85	150,05	0,02010	
7,600	-0,4695	155,86	150,05	0,02018	
7,620	-0,4695	155,84	150,05	0,02024	
7,640	-0,4694	155,79	150,05	0,02019	
7,660	-0,4694	155,80	150,05	0,02003	
7,680	-0,4695	155,83	150,05	0,01991	
7,700	-0,4695	155,76	150,05	0,01992	
7,720	-0,4695	155,69	150,05	0,02000	
7,740	-0,4694	155,69	150,05	0,02015	
7,760	-0,4694	155,67	150,05	0,02025	
7,780	-0,4695	155,70	150,05	0,02016	
7,800	-0,4694	155,72	150,05	0,02004	
7,820	-0,4694	155,77	150,05	0,01991	
7,840	-0,4694	155,83	150,05	0,01984	
7,860	-0,4694	155,84	150,05	0,01988	
7,880	-0,4694	155,84	150,05	0,01996	
7,900	-0,4695	155,82	150,05	0,02001	
7,920	-0,4695	155,81	150,05	0,02008	
7,940	-0,4697	155,79	150,05	0,02004	
7,960	-0,4700	155,80	150,05	0,01996	
7,980	-0,4701	155,78	150,05	0,01985	
8,000	-0,4706	158,71	150,17	0,01957	
8,020	-0,4702	145,36	150,07	0,01862	
8,040	-0,4698	102,96	149,97	0,01846	
8,060	-0,4699	57,39	150,01	0,01893	
8,080	-0,4699	14,07	150,04	0,01918	
8,100	-0,4685	-25,80	150,05	0,01921	
8,120	-0,4649	-49,57	150,05	0,01916	
8,140	-0,4604	-36,56	150,05	0,01906	
8,160	-0,4563	-8,517	150,05	0,01911	
8,180	-0,4528	23,56	150,05	0,01927	
8,200	-0,4500	55,78	150,05	0,01942	
8,220	-0,4478	83,97	150,05	0,01937	
8,240	-0,4463	105,88	150,05	0,01933	
8,260	-0,4453	121,87	150,05	0,01917	
8,280	-0,4447	132,98	150,05	0,01906	
8,300	-0,4443	140,47	150,05	0,01911	
8,320	-0,4440	145,47	150,05	0,01921	
8,340	-0,4439	149,11	150,05	0,01932	
8,360	-0,4439	151,46	150,05	0,01930	
8,380	-0,4437	152,72	150,05	0,01922	
8,400	-0,4434	154,30	150,05	0,01910	
8,420	-0,4433	155,43	150,05	0,01911	
8,440	-0,4432	155,78	150,05	0,01913	
8,460	-0,4432	155,81	150,05	0,01921	
8,480	-0,4433	155,87	150,05	0,01936	
8,500	-0,4434	155,95	150,05	0,01948	
8,520	-0,4437	156,91	150,05	0,01949	
8,540	-0,4439	158,36	150,05	0,01925	
8,560	-0,4439	159,12	150,05	0,01913	
8,580	-0,4439	159,30	150,05	0,01920	
8,600	-0,4439	159,23	150,05	0,01929	
8,620	-0,4439	159,13	150,05	0,01945	
8,640	-0,4439	159,09	150,05	0,01953	
8,660	-0,4439	159,15	150,05	0,01950	
8,680	-0,4439	159,12	150,05	0,01933	
8,700	-0,4439	159,08	150,05	0,01920	
8,720	-0,4440	159,10	150,05	0,01925	
8,740	-0,4443	159,11	150,05	0,01934	
8,760	-0,4445	159,11	150,05	0,01948	
8,780	-0,4446	159,14	150,05	0,01954	
8,800	-0,4446	159,19	150,05	0,01952	
8,820	-0,4446	159,19	150,05	0,01937	
8,840	-0,4446	159,22	150,06	0,01926	
8,860	-0,4446	159,19	150,05	0,01929	
8,880	-0,4446	159,15	150,05	0,01930	
8,900	-0,4447	159,18	150,05	0,01942	
8,920	-0,4449	159,20	150,05	0,01950	
8,940	-0,4452	159,12	150,05	0,01951	
8,960	-0,4453	159,06	150,06	0,01948	
8,980	-0,4453	159,09	150,05	0,01930	
9,000	-0,4453	159,12	150,05	0,01925	
9,020	-0,4452	159,14	150,05	0,01928	
9,040	-0,4452	159,04	150,05	0,01940	
9,060	-0,4452	158,01	150,05	0,01950	
9,080	-0,4452	156,92	150,05	0,01959	
9,100	-0,4452	157,36	150,05	0,01957	
9,120	-0,4452	157,04	150,05	0,01939	
9,140	-0,4453	156,27	150,05	0,01933	
9,160	-0,4455	155,81	150,05	0,01930	
9,180	-0,4458	155,70	150,05	0,01943	
9,200	-0,4459	155,77	150,05	0,01957	
9,220	-0,4460	155,80	150,05	0,01957	
9,240	-0,4460	155,78	150,05	0,01953	
9,260	-0,4460	155,81	150,05	0,01938	
9,280	-0,4460	155,82	150,05	0,01925	
9,300	-0,4459	155,79	150,05	0,01923	
9,320	-0,4459	155,81	150,05	0,01939	
9,340	-0,4459	155,83	150,05	0,01948	
9,360	-0,4460	155,70	150,05	0,01948	
9,380	-0,4460	155,67	150,05	0,01951	
9,400	-0,4460	155,68	150,05	0,01943	
9,420	-0,4460	155,63	150,05	0,01933	
9,440	-0,4460	155,69	150,05	0,01932	
9,460	-0,4460	155,76	150,05	0,01937	
9,480	-0,4459	155,76	150,05	0,01949	
9,500	-0,4459	155,74	150,05	0,01957	
9,520	-0,4460	155,69	150,05	0,01961	
9,540	-0,4460	155,70	150,05	0,01951	
9,560	-0,4462	155,76	150,05	0,01938	
9,580	-0,4465	155,86	150,05	0,01931	
9,600	-0,4466	155,85	150,05	0,01935	
9,620	-0,4466	155,79	150,05	0,01945	
9,640	-0,4466	155,78	150,05	0,01955	
9,660	-0,4466	155,69	150,05	0,01963	
9,680	-0,4466	155,60	150,05	0,01949	
9,700	-0,4466	155,60	150,05	0,01932	
9,720	-0,4466	155,60	150,05	0,01928	
9,740	-0,4466	155,65	150,05	0,01935	
9,760	-0,4466	155,75	150,05	0,01945	
9,780	-0,4466	155,72	150,05	0,01948	
9,800	-0,4466	155,72	150,05	0,01960	
9,820	-0,4466	155,81	150,05	0,01962	
9,840	-0,4466	155,79	150,05	0,01950	
9,860	-0,4466	155,77	150,05	0,01937	
9,880	-0,4466	155,78	150,05	0,01931	
9,900	-0,4466	155,77	150,05	0,01936	
9,920	-0,4466	155,76	150,05	0,01944	
9,940	-0,4466	155,79	150,05	0,01955	
9,960	-0,4466	155,76	150,05	0,01957	
9,980	-0,4466	155,79	150,05	0,01947	
10,00	-0,4467	155,85	150,05	0,01936	
10,02	-0,4466	155,76	150,05	0,01931	
10,04	-0,4466	155,73	150,05	0,01935	
10,06	-0,4466	155,78	150,05	0,01939	
10,08	-0,4466	155,78	150,05	0,01947	
10,10	-0,4466	155,73	150,05	0,01950	
10,12	-0,4467	155,72	150,05	0,01947	
10,14	-0,4467	155,72	150,05	0,01935	
10,16	-0,4467	155,72	150,05	0,01923	
10,18	-0,4467	155,75	150,05	0,01925	
10,20	-0,4468	155,76	150,05	0,01943	
10,22	-0,4471	155,78	150,05	0,01960	
10,24	-0,4473	155,77	150,05	0,01969	
10,26	-0,4473	155,70	150,05	0,01964	
10,28	-0,4473	155,74	150,05	0,01944	
10,30	-0,4473	155,78	150,05	0,01934	
10,32	-0,4473	155,79	150,05	0,01942	
10,34	-0,4473	155,80	150,05	0,01950	
10,36	-0,4473	155,87	150,05	0,01958	
10,38	-0,4473	155,84	150,05	0,01961	
10,40	-0,4473	155,78	150,05	0,01961	
10,42	-0,4473	155,87	150,05	0,01953	
10,44	-0,4473	155,87	150,05	0,01943	
10,46	-0,4473	155,73	150,05	0,01940	
10,48	-0,4473	155,76	150,05	0,01943	
10,50	-0,4473	155,77	150,05	0,01954	
10,52	-0,4473	155,73	150,05	0,01960	
10,54	-0,4473	155,73	150,05	0,01961	
10,56	-0,4473	155,77	150,05	0,01952	
10,58	-0,4473	155,76	150,05	0,01937	
10,60	-0,4473	155,76	150,05	0,01936	
10,62	-0,4473	155,75	150,05	0,01946	
10,64	-0,4473	155,71	150,05	0,01964	
10,66	-0,4473	155,71	150,05	0,01966	
10,68	-0,4473	155,73	150,05	0,01970	
10,70	-0,4473	155,74	150,05	0,01965	
10,72	-0,4473	155,76	150,05	0,01952	
10,74	-0,4473	155,75	150,05	0,01947	
10,76	-0,4473	155,64	150,05	0,01948	
10,78	-0,4473	155,61	150,05	0,01954	
10,80	-0,4473	155,69	150,05	0,01962	
10,82	-0,4473	155,73	150,05	0,01971	
10,84	-0,4473	155,73	150,05	0,01967	
10,86	-0,4473	155,73	150,05	0,01947	
10,88	-0,4473	155,72	150,05	0,01935	
10,90	-0,4476	155,77	150,05	0,01938	
10,92	-0,4479	155,83	150,05	0,01946	
10,94	-0,4480	155,82	150,05	0,01953	
10,96	-0,4480	155,72	150,05	0,01958	
10,98	-0,4480	155,66	150,05	0,01964	
11,00	-0,4480	155,56	150,05	0,01957	
11,02	-0,4480	155,65	150,05	0,01949	
11,04	-0,4480	155,74	150,06	0,01948	
11,06	-0,4480	155,67	150,05	0,01951	
11,08	-0,4480	155,65	150,05	0,01962	
11,10	-0,4480	155,69	150,05	0,01971	
11,12	-0,4480	155,69	150,05	0,01968	
11,14	-0,4480	155,73	150,05	0,01952	
11,16	-0,4480	155,80	150,05	0,01945	
11,18	-0,4480	155,80	150,05	0,01941	
11,20	-0,4480	155,76	150,05	0,01948	
11,22	-0,4480	155,67	150,05	0,01957	
11,24	-0,4480	155,64	150,05	0,01959	
11,26	-0,4480	155,68	150,05	0,01957	
11,28	-0,4480	155,74	150,05	0,01953	
11,30	-0,4480	155,71	150,05	0,01948	
11,32	-0,4480	155,65	150,05	0,01944	
11,34	-0,4480	155,65	150,05	0,01948	
11,36	-0,4480	155,63	150,05	0,01955	
11,38	-0,4481	156,19	150,07	0,01960	
11,40	-0,4482	155,47	150,09	0,01953	
11,42	-0,4481	147,80	150,07	0,01938	
11,44	-0,4480	135,52	150,05	0,01924	
11,46	-0,4480	122,09	150,05	0,01913	
11,48	-0,4479	108,30	150,04	0,01904	
11,50	-0,4476	94,70	150,05	0,01907	
11,52	-0,4468	86,05	150,05	0,01917	
11,54	-0,4458	79,85	150,05	0,01931	
11,56	-0,4448	73,49	150,05	0,01936	
11,58	-0,4436	67,68	150,05	0,01925	
11,60	-0,4423	63,64	150,05	0,01913	
11,62	-0,4409	61,86	150,05	0,01909	
11,64	-0,4396	62,37	150,05	0,01916	
11,66	-0,4382	64,17	150,05	0,01926	
11,68	-0,4369	66,36	150,05	0,01930	
11,70	-0,4356	67,79	150,05	0,01930	
11,72	-0,4342	68,30	150,05	0,01926	
11,74	-0,4328	68,37	150,05	0,01917	
11,76	-0,4315	68,38	150,05	0,01912	
11,78	-0,4302	68,38	150,05	0,01917	
11,80	-0,4288	68,32	150,05	0,01925	
11,82	-0,4275	68,24	150,05	0,01937	
11,84	-0,4262	68,23	150,05	0,01937	
11,86	-0,4248	68,25	150,05	0,01931	
11,88	-0,4235	68,27	150,05	0,01920	
11,90	-0,4221	68,33	150,05	0,01904	
11,92	-0,4208	68,31	150,05	0,01906	
11,94	-0,4195	67,38	150,05	0,01917	
11,96	-0,4181	65,83	150,05	0,01928	
11,98	-0,4168	65,02	150,05	0,01943	
12,00	-0,4154	64,91	150,05	0,01944	
12,02	-0,4141	65,83	150,05	0,01930	
12,04	-0,4128	67,43	150,05	0,01911	
12,06	-0,4112	67,99	150,05	0,01908	
12,08	-0,4096	66,74	150,05	0,01913	
12,10	-0,4081	65,46	150,05	0,01921	
12,12	-0,4067	65,04	150,05	0,01931	
12,14	-0,4054	64,93	150,05	0,01936	
12,16	-0,4040	64,89	150,05	0,01928	
12,18	-0,4027	64,96	150,05	0,01916	
12,20	-0,4013	65,05	150,05	0,01916	
12,22	-0,4000	65,03	150,05	0,01918	
12,24	-0,3987	64,97	150,05	0,01921	
12,26	-0,3973	64,94	150,05	0,01935	
12,28	-0,3957	64,92	150,05	0,01944	
12,30	-0,3941	64,95	150,05	0,01939	
12,32	-0,3926	64,97	150,05	0,01926	
12,34	-0,3913	64,94	150,05	0,01915	
12,36	-0,3899	64,93	150,05	0,01917	
12,38	-0,3886	64,95	150,05	0,01931	
12,40	-0,3872	64,63	150,05	0,01940	
12,42	-0,3857	63,19	150,05	0,01943	
12,44	-0,3841	61,88	150,05	0,01935	
12,46	-0,3826	61,45	150,04	0,01919	
12,48	-0,3812	61,50	150,05	0,01911	
12,50	-0,3799	61,56	150,05	0,01918	
12,52	-0,3785	61,52	150,04	0,01927	
12,54	-0,3772	61,46	150,05	0,01931	
12,56	-0,3758	61,13	150,05	0,01931	
12,58	-0,3742	59,83	150,05	0,01930	
12,60	-0,3726	58,65	150,05	0,01925	
12,62	-0,3711	58,24	150,05	0,01913	
12,64	-0,3698	58,28	150,05	0,01913	
12,66	-0,3684	58,33	150,05	0,01923	
12,68	-0,3668	58,31	150,05	0,01936	
12,70	-0,3652	58,32	150,05	0,01943	
12,72	-0,3638	58,35	150,05	0,01943	
12,74	-0,3624	58,32	150,05	0,01927	
12,76	-0,3607	58,30	150,05	0,01912	
12,78	-0,3591	58,34	150,05	0,01915	
12,80	-0,3577	58,35	150,05	0,01926	
12,82	-0,3563	58,29	150,05	0,01939	
12,84	-0,3547	58,27	150,05	0,01951	
12,86	-0,3531	58,32	150,05	0,01951	
12,88	-0,3517	58,33	150,04	0,01936	
12,90	-0,3503	58,30	150,05	0,01922	
12,92	-0,3487	57,98	150,05	0,01910	
12,94	-0,3471	56,62	150,05	0,01910	
12,96	-0,3456	55,36	150,05	0,01923	
12,98	-0,3442	54,86	150,05	0,01937	
13,00	-0,3426	54,78	150,04	0,01941	
13,02	-0,3410	54,81	150,05	0,01934	
13,04	-0,3394	54,85	150,05	0,01924	
13,06	-0,3377	54,89	150,05	0,01915	
13,08	-0,3362	54,92	150,05	0,01914	
13,10	-0,3348	54,93	150,05	0,01925	
13,12	-0,3332	54,90	150,05	0,01936	
13,14	-0,3316	54,88	150,05	0,01940	
13,16	-0,3300	54,92	150,05	0,01935	
13,18	-0,3284	54,94	150,05	0,01924	
13,20	-0,3269	54,94	150,05	0,01916	
13,22	-0,3253	54,98	150,05	0,01919	
13,24	-0,3236	54,96	150,05	0,01931	
13,26	-0,3221	54,87	150,05	0,01932	
13,28	-0,3204	54,85	150,05	0,01935	
13,30	-0,3189	54,85	150,18	0,01942	
13,32	-0,3174	54,81	150,75	0,01940	
13,34	-0,3157	53,96	151,07	0,01929	
13,36	-0,3141	52,47	151,25	0,01923	
13,38	-0,3127	51,68	152,50	0,01927	
13,40	-0,3110	51,63	154,64	0,01930	
13,42	-0,3095	51,68	156,55	0,01936	
13,44	-0,3079	51,64	158,05	0,01941	
13,46	-0,3062	50,75	159,89	0,01939	
13,48	-0,3046	49,21	161,96	0,01931	
13,50	-0,3030	48,33	163,57	0,01917	
13,52	-0,3013	48,15	164,88	0,01913	
13,54	-0,2996	48,16	165,83	0,01923	
13,56	-0,2980	48,19	166,59	0,01932	
13,58	-0,2963	48,20	167,59	0,01934	
13,60	-0,2946	48,23	168,78	0,01934	
13,62	-0,2929	48,25	170,26	0,01926	
13,64	-0,2912	48,28	171,79	0,01921	
13,66	-0,2895	48,30	173,38	0,01916	
13,68	-0,2879	48,24	175,09	0,01920	
13,70	-0,2862	48,23	176,51	0,01933	
13,72	-0,2846	48,24	177,68	0,01939	
13,74	-0,2830	47,38	179,09	0,01936	
13,76	-0,2813	45,84	180,60	0,01926	
13,78	-0,2795	44,95	181,85	0,01915	
13,80	-0,2778	44,75	182,99	0,01909	
13,82	-0,2761	44,78	184,40	0,01911	
13,84	-0,2745	44,82	185,86	0,01921	
13,86	-0,2728	44,86	187,33	0,01934	
13,88	-0,2710	44,90	188,82	0,01946	
13,90	-0,2693	44,84	190,35	0,01947	
13,92	-0,2676	44,80	191,88	0,01931	
13,94	-0,2658	44,73	193,31	0,01910	
13,96	-0,2640	44,67	194,63	0,01912	
13,98	-0,2623	44,68	195,97	0,01925	
14,00	-0,2605	44,75	197,36	0,01937	
14,02	-0,2587	44,76	198,71	0,01945	
14,04	-0,2569	44,73	200,09	0,01942	
14,06	-0,2551	44,48	201,75	0,01930	
14,08	-0,2533	43,12	203,38	0,01917	
14,10	-0,2516	41,87	204,88	0,01912	
14,12	-0,2499	41,42	206,28	0,01920	
14,14	-0,2481	41,34	207,71	0,01933	
14,16	-0,2464	41,35	209,18	0,01946	
14,18	-0,2446	40,56	210,61	0,01951	
14,20	-0,2428	39,13	212,02	0,01940	
14,22	-0,2410	38,23	213,50	0,01921	
14,24	-0,2391	37,58	215,02	0,01919	
14,26	-0,2373	41,17	216,50	0,01935	
14,28	-0,2355	51,05	217,84	0,01945	
14,30	-0,2338	64,11	218,88	0,01949	
14,32	-0,2320	77,73	219,65	0,01943	
14,34	-0,2305	91,22	220,29	0,01929	
14,36	-0,2294	102,70	220,84	0,01924	
14,38	-0,2286	110,56	221,30	0,01929	
14,40	-0,2278	116,20	221,66	0,01942	
14,42	-0,2271	121,41	221,93	0,01946	
14,44	-0,2265	128,64	222,12	0,01947	
14,46	-0,2260	136,51	222,28	0,01950	
14,48	-0,2256	142,87	222,48	0,01944	
14,50	-0,2252	147,87	222,65	0,01933	
14,52	-0,2250	152,00	222,77	0,01934	
14,54	-0,2250	154,99	222,82	0,01949	
14,56	-0,2250	157,45	222,83	0,01957	
14,58	-0,2250	159,66	222,88	0,01959	
14,60	-0,2250	161,84	222,92	0,01958	
14,62	-0,2250	162,87	222,93	0,01943	
14,64	-0,2250	161,59	222,95	0,01927	
14,66	-0,2254	161,90	222,97	0,01926	
14,68	-0,2258	162,04	222,99	0,01924	
14,70	-0,2257	154,36	223,11	0,01920	
14,72	-0,2257	144,53	223,44	0,01930	
14,74	-0,2258	137,71	223,87	0,01944	
14,76	-0,2256	125,82	224,29	0,01945	
14,78	-0,2255	113,58	224,72	0,01933	
14,80	-0,2253	110,08	225,17	0,01926	
14,82	-0,2248	107,13	225,61	0,01927	
14,84	-0,2243	103,70	226,12	0,01934	
14,86	-0,2238	103,58	226,57	0,01943	
14,88	-0,2232	103,23	227,02	0,01949	
14,90	-0,2227	103,48	227,58	0,01950	
14,92	-0,2221	108,11	228,08	0,01949	
14,94	-0,2215	113,13	228,50	0,01940	
14,96	-0,2211	117,81	228,85	0,01934	
14,98	-0,2206	122,22	229,13	0,01932	
15,00	-0,2201	121,28	229,41	0,01930	
15,02	-0,2199	118,96	229,76	0,01940	
15,04	-0,2198	115,75	230,07	0,01950	
15,06	-0,2195	107,67	230,43	0,01948	
15,08	-0,2190	97,79	231,01	0,01935	
15,10	-0,2185	89,68	231,78	0,01926	
15,12	-0,2180	79,28	232,66	0,01929	
15,14	-0,2175	69,22	233,59	0,01933	
15,16	-0,2167	66,53	234,46	0,01938	
15,18	-0,2160	69,18	235,21	0,01948	
15,20	-0,2153	73,92	235,80	0,01942	
15,22	-0,2146	80,09	236,29	0,01929	
15,24	-0,2140	86,26	236,71	0,01927	
15,26	-0,2134	90,92	237,03	0,01940	
15,28	-0,2129	94,83	237,28	0,01942	
15,30	-0,2123	98,70	237,44	0,01947	
15,32	-0,2118	103,86	237,56	0,01950	
15,34	-0,2113	109,16	237,70	0,01944	
15,36	-0,2109	114,51	237,87	0,01939	
15,38	-0,2107	120,49	238,01	0,01934	
15,40	-0,2104	120,07	238,13	0,01929	
15,42	-0,2100	112,16	238,41	0,01931	
15,44	-0,2097	101,12	238,93	0,01938	
15,46	-0,2095	88,58	239,64	0,01946	
15,48	-0,2091	73,57	240,52	0,01948	
15,50	-0,2083	61,08	241,49	0,01947	
15,52	-0,2077	56,56	242,50	0,01933	
15,54	-0,2071	58,72	243,41	0,01926	
15,56	-0,2064	62,78	244,14	0,01929	
15,58	-0,2056	67,39	244,70	0,01944	
15,60	-0,2050	72,82	245,12	0,01958	
15,62	-0,2045	76,80	245,43	0,01961	
15,64	-0,2040	79,14	245,66	0,01945	
15,66	-0,2035	81,99	245,85	0,01926	
15,68	-0,2030	86,77	245,99	0,01922	
15,70	-0,2025	93,08	246,06	0,01931	
15,72	-0,2022	100,53	246,14	0,01935	
15,74	-0,2019	104,59	246,19	0,01937	
15,76	-0,2014	101,66	246,35	0,01943	
15,78	-0,2011	97,63	246,74	0,01946	
15,80	-0,2009	93,56	247,23	0,01945	
15,82	-0,2004	84,77	247,76	0,01934	
15,84	-0,1999	78,21	248,40	0,01926	
15,86	-0,1993	78,30	249,00	0,01923	
15,88	-0,1989	80,44	249,49	0,01939	
15,90	-0,1985	83,00	249,97	0,01960	
15,92	-0,1982	85,89	250,35	0,01961	
15,94	-0,1978	88,05	250,63	0,01944	
15,96	-0,1976	91,71	250,93	0,01928	
15,98	-0,1973	90,75	251,23	0,01923	
16,00	-0,1968	82,75	251,63	0,01923	
16,02	-0,1965	76,15	252,15	0,01932	
16,04	-0,1962	70,01	252,66	0,01946	
16,06	-0,1957	61,99	253,19	0,01951	
16,08	-0,1954	59,05	253,73	0,01947	
16,10	-0,1949	60,33	254,19	0,01936	
16,12	-0,1944	61,95	254,66	0,01928	
16,14	-0,1939	65,74	255,10	0,01921	
16,16	-0,1933	68,56	255,45	0,01923	
16,18	-0,1929	69,95	255,78	0,01944	
16,20	-0,1926	73,31	256,10	0,01963	
16,22	-0,1922	72,50	256,42	0,01958	
16,24	-0,1918	65,33	256,88	0,01937	
16,26	-0,1914	57,76	257,49	0,01921	
16,28	-0,1908	48,33	258,18	0,01923	
16,30	-0,1903	39,27	258,93	0,01934	
16,32	-0,1897	38,02	259,64	0,01945	
16,34	-0,1891	42,44	260,22	0,01952	
16,36	-0,1886	47,75	260,67	0,01951	
16,38	-0,1881	54,07	261,03	0,01941	
16,40	-0,1876	59,97	261,32	0,01932	
16,42	-0,1872	63,45	261,57	0,01934	
16,44	-0,1867	65,73	261,79	0,01947	
16,46	-0,1862	66,07	262,01	0,01954	
16,48	-0,1858	68,94	262,28	0,01959	
16,50	-0,1854	71,80	262,52	0,01961	
16,52	-0,1849	68,04	262,85	0,01949	
16,54	-0,1844	59,78	263,36	0,01938	
16,56	-0,1839	51,27	264,04	0,01931	
16,58	-0,1834	39,22	264,93	0,01929	
16,60	-0,1828	25,28	266,49	0,01932	
16,62	-0,1823	19,26	268,48	0,01942	
16,64	-0,1817	21,31	269,96	0,01950	
16,66	-0,1810	25,12	270,68	0,01944	
16,68	-0,1804	29,86	270,90	0,01932	
16,70	-0,1798	35,62	270,98	0,01927	
16,72	-0,1793	39,89	271,02	0,01936	
16,74	-0,1787	42,48	270,99	0,01948	
16,76	-0,1782	46,36	270,91	0,01953	
16,78	-0,1776	51,27	270,83	0,01952	
16,80	-0,1771	58,05	270,75	0,01940	
16,82	-0,1766	65,95	270,67	0,01927	
16,84	-0,1763	73,37	270,72	0,01922	
16,86	-0,1758	74,53	271,01	0,01929	
16,88	-0,1751	69,99	271,94	0,01938	
16,90	-0,1747	67,57	272,84	0,01947	
16,92	-0,1744	69,03	273,19	0,01948	
16,94	-0,1741	71,18	273,25	0,01941	
16,96	-0,1738	75,82	273,34	0,01934	
16,98	-0,1733	77,32	273,99	0,01933	
17,00	-0,1728	74,85	274,79	0,01937	
17,02	-0,1726	71,43	275,20	0,01945	
17,04	-0,1724	66,68	275,36	0,01952	
17,06	-0,1721	64,16	275,45	0,01954	
17,08	-0,1718	66,44	275,71	0,01952	
17,10	-0,1713	66,03	276,39	0,01941	
17,12	-0,1708	62,21	277,02	0,01928	
17,14	-0,1707	60,33	277,39	0,01924	
17,16	-0,1704	56,80	277,74	0,01932	
17,18	-0,1699	54,68	278,15	0,01946	
17,20	-0,1695	58,34	278,46	0,01960	
17,22	-0,1690	58,20	279,08	0,01959	
17,24	-0,1687	55,20	279,67	0,01946	
17,26	-0,1684	54,49	280,11	0,01933	
17,28	-0,1679	50,57	280,61	0,01931	
17,30	-0,1676	47,50	280,94	0,01936	
17,32	-0,1672	47,42	281,30	0,01935	
17,34	-0,1667	45,01	281,85	0,01943	
17,36	-0,1664	43,40	282,23	0,01950	
17,38	-0,1661	43,48	282,64	0,01949	
17,40	-0,1655	38,97	283,24	0,01943	
17,42	-0,1651	35,91	283,73	0,01941	
17,44	-0,1647	36,83	284,08	0,02000	
17,46	-0,1642	36,19	284,36	0,02078	
17,48	-0,1639	36,73	284,58	0,02115	
17,50	-0,1633	38,12	285,08	0,02116	
17,52	-0,1626	35,73	285,84	0,02110	
17,54	-0,1622	34,37	286,41	0,02101	
17,56	-0,1617	33,54	286,87	0,02093	
17,58	-0,1613	32,40	287,11	0,02097	
17,60	-0,1610	33,74	287,35	0,02106	
17,62	-0,1604	35,02	287,85	0,02114	
17,64	-0,1598	33,23	288,44	0,02117	
17,66	-0,1594	33,85	288,84	0,02087	
17,68	-0,1590	32,70	289,36	0,02003	
17,70	-0,1584	28,65	289,97	0,01942	
17,72	-0,1580	29,54	290,40	0,01927	
17,74	-0,1575	32,47	290,64	0,01941	
17,76	-0,1571	32,78	290,82	0,01958	
17,78	-0,1566	33,95	291,14	0,01963	
17,80	-0,1560	32,57	291,90	0,01956	
17,82	-0,1554	28,64	292,68	0,01946	
17,84	-0,1550	28,17	293,18	0,01940	
17,86	-0,1546	28,39	293,38	0,01943	
17,88	-0,1542	29,11	293,46	0,01952	
17,90	-0,1537	31,81	293,81	0,01960	
17,92	-0,1530	31,46	294,57	0,01967	
17,94	-0,1525	28,47	295,22	0,01968	
17,96	-0,1522	28,20	295,64	0,01952	
17,98	-0,1516	26,19	296,06	0,01935	
18,00	-0,1512	26,18	296,40	0,01932	
18,02	-0,1507	29,42	296,83	0,01940	
18,04	-0,1501	29,79	297,33	0,01955	
18,06	-0,1497	29,19	297,64	0,01963	
18,08	-0,1493	29,92	298,09	0,01961	
18,10	-0,1487	26,85	298,69	0,01955	
18,12	-0,1482	25,41	299,06	0,01946	
18,14	-0,1477	26,83	299,50	0,01934	
18,16	-0,1471	25,13	300,09	0,01935	
18,18	-0,1468	25,13	300,48	0,01945	
18,20	-0,1462	27,67	300,82	0,01955	
18,22	-0,1456	25,91	301,27	0,01962	
18,24	-0,1451	25,94	301,67	0,01960	
18,26	-0,1446	28,10	302,13	0,01944	
18,28	-0,1440	27,12	302,49	0,01938	
18,30	-0,1437	27,60	302,76	0,01942	
18,32	-0,1431	28,25	303,36	0,01942	
18,34	-0,1425	25,22	304,11	0,01948	
18,36	-0,1421	25,80	304,60	0,01956	
18,38	-0,1414	26,81	305,10	0,01957	
18,40	-0,1409	25,50	305,52	0,01951	
18,42	-0,1405	28,02	305,79	0,01936	
18,44	-0,1399	29,26	306,25	0,01930	
18,46	-0,1393	27,35	306,72	0,01946	
18,48	-0,1389	28,79	307,00	0,01959	
18,50	-0,1383	28,73	307,51	0,01957	
18,52	-0,1378	25,39	308,07	0,01951	
18,54	-0,1374	26,56	308,52	0,01939	
18,56	-0,1369	27,39	308,88	0,01933	
18,58	-0,1364	26,76	309,11	0,01936	
18,60	-0,1360	29,31	309,47	0,01944	
18,62	-0,1353	29,06	310,20	0,01952	
18,64	-0,1347	25,78	310,88	0,01958	
18,66	-0,1342	26,77	311,27	0,01961	
18,68	-0,1337	27,17	311,54	0,01948	
18,70	-0,1333	27,60	311,75	0,01936	
18,72	-0,1329	31,70	312,13	0,01929	
18,74	-0,1322	31,58	312,88	0,01929	
18,76	-0,1316	28,81	313,55	0,01939	
18,78	-0,1311	29,49	313,93	0,01956	
18,80	-0,1306	28,61	314,20	0,01959	
18,82	-0,1301	28,00	314,42	0,01943	
18,84	-0,1296	30,67	314,85	0,01929	
18,86	-0,1290	30,01	315,55	0,01925	
18,88	-0,1286	28,48	316,09	0,01931	
18,90	-0,1280	29,06	316,49	0,01938	
18,92	-0,1275	27,88	316,85	0,01950	
18,94	-0,1271	29,16	317,09	0,01955	
18,96	-0,1265	32,41	317,61	0,01952	
18,98	-0,1259	30,17	318,38	0,01943	
19,00	-0,1255	29,33	318,88	0,01936	
19,02	-0,1250	29,85	319,34	0,01935	
19,04	-0,1245	27,46	319,78	0,01941	
19,06	-0,1240	28,71	320,10	0,01950	
19,08	-0,1233	32,85	320,50	0,01959	
19,10	-0,1227	33,25	320,87	0,01955	
19,12	-0,1225	35,00	321,17	0,01941	
19,14	-0,1219	35,71	321,70	0,01932	
19,16	-0,1214	32,29	322,23	0,01940	
19,18	-0,1210	33,11	322,61	0,01955	
19,20	-0,1204	34,47	323,04	0,01964	
19,22	-0,1199	33,31	323,39	0,01966	
19,24	-0,1196	36,07	323,65	0,01960	
19,26	-0,1190	37,72	324,23	0,01953	
19,28	-0,1184	34,59	324,89	0,01945	
19,30	-0,1180	35,50	325,36	0,01933	
19,32	-0,1174	35,47	325,84	0,01940	
19,34	-0,1170	33,24	326,28	0,01956	
19,36	-0,1166	35,53	326,63	0,01958	
19,38	-0,1159	36,29	327,19	0,01952	
19,40	-0,1154	34,89	327,64	0,01945	
19,42	-0,1151	37,29	328,02	0,01935	
19,44	-0,1145	36,43	328,50	0,01933	
19,46	-0,1141	34,31	328,85	0,01938	
19,48	-0,1138	36,30	329,23	0,01949	
19,50	-0,1132	34,69	329,79	0,01963	
19,52	-0,1128	32,35	330,26	0,01970	
19,54	-0,1124	35,02	330,66	0,01963	
19,56	-0,1118	33,80	331,20	0,01943	
19,58	-0,1113	31,91	331,57	0,01930	
19,60	-0,1108	33,57	332,01	0,01932	
19,62	-0,1102	32,42	332,60	0,01944	
19,64	-0,1099	31,55	333,01	0,01958	
19,66	-0,1094	33,66	333,41	0,01964	
19,68	-0,1089	32,55	333,88	0,01958	
19,70	-0,1085	33,70	334,22	0,01943	
19,72	-0,1079	36,98	334,67	0,01931	
19,74	-0,1073	35,11	335,20	0,01933	
19,76	-0,1070	34,71	335,58	0,01941	
19,78	-0,1065	35,83	336,01	0,01949	
19,80	-0,1059	33,87	336,46	0,01956	
19,82	-0,1056	35,18	336,79	0,01956	
19,84	-0,1051	37,37	337,32	0,01944	
19,86	-0,1046	34,73	337,91	0,01931	
19,88	-0,1043	34,94	338,28	0,01937	
19,90	-0,1038	36,29	338,77	0,01953	
19,92	-0,1033	34,34	339,21	0,01965	
19,94	-0,1029	35,64	339,55	0,01962	
19,96	-0,1022	37,03	340,14	0,01954	
19,98	-0,1018	34,78	340,72	0,01946	
20,00	-0,1015	36,23	341,06	0,01934	
20,02	-0,1009	37,57	341,43	0,01931	
20,04	-0,1004	35,94	341,77	0,01943	
20,06	-0,1001	37,85	342,14	0,01958	
20,08	-0,09948	37,63	342,88	0,01961	
20,10	-0,09901	34,72	343,51	0,01956	
20,12	-0,09866	35,08	343,84	0,01947	
20,14	-0,09814	34,64	344,18	0,01943	
20,16	-0,09772	33,58	344,47	0,01948	
20,18	-0,09739	37,73	344,81	0,01951	
20,20	-0,09679	38,74	345,46	0,01959	
20,22	-0,09635	37,37	346,00	0,01963	
20,24	-0,09597	39,34	346,40	0,01953	
20,26	-0,09543	38,21	346,83	0,01942	
20,28	-0,09503	37,11	347,14	0,01931	
20,30	-0,09453	40,79	347,58	0,01926	
20,32	-0,09387	40,20	348,28	0,01935	
20,34	-0,09348	38,39	348,75	0,01947	
20,36	-0,09308	40,21	349,10	0,01954	
20,38	-0,09255	39,61	349,48	0,01958	
20,40	-0,09222	39,57	349,75	0,01952	
20,42	-0,09176	43,02	350,27	0,01941	
20,44	-0,09115	42,03	351,03	0,01937	
20,46	-0,09081	40,97	351,49	0,01935	
20,48	-0,09038	42,53	351,80	0,01933	
20,50	-0,08984	41,17	352,10	0,01941	
20,52	-0,08954	41,67	352,38	0,01954	
20,54	-0,08902	43,51	352,97	0,01956	
20,56	-0,08844	41,25	353,67	0,01951	
20,58	-0,08817	41,13	354,06	0,01942	
20,60	-0,08780	42,62	354,35	0,01936	
20,62	-0,08724	40,91	354,65	0,01938	
20,64	-0,08688	42,86	354,94	0,01945	
20,66	-0,08631	45,56	355,59	0,01950	
20,68	-0,08576	43,19	356,29	0,01948	
20,70	-0,08550	44,04	356,69	0,01938	
20,72	-0,08512	45,06	357,08	0,01929	
20,74	-0,08470	43,35	357,41	0,01931	
20,76	-0,08441	45,41	357,73	0,01938	
20,78	-0,08384	46,77	358,37	0,01947	
20,80	-0,08334	44,44	358,96	0,01953	
20,82	-0,08300	45,33	359,33	0,01956	
20,84	-0,08258	46,27	359,67	0,01951	
20,86	-0,08217	45,40	359,93	0,01944	
20,88	-0,08178	47,88	360,28	0,01936	
20,90	-0,08124	47,83	361,07	0,01934	
20,92	-0,08081	45,63	361,75	0,01944	
20,94	-0,08048	46,66	362,07	0,01955	
20,96	-0,08001	46,63	362,30	0,01957	
20,98	-0,07962	46,53	362,47	0,01954	
21,00	-0,07925	50,34	362,86	0,01937	
21,02	-0,07863	49,93	363,71	0,01926	
21,04	-0,07817	47,36	364,38	0,01926	
21,06	-0,07780	48,03	364,71	0,01939	
21,08	-0,07732	47,26	364,95	0,01945	
21,10	-0,07696	47,62	365,12	0,01958	
21,12	-0,07665	52,39	365,62	0,01962	
21,14	-0,07613	51,80	366,49	0,01943	
21,16	-0,07575	49,55	367,09	0,01929	
21,18	-0,07537	50,08	367,39	0,01930	
21,20	-0,07501	49,72	367,56	0,01934	
21,22	-0,07465	50,81	367,72	0,01946	
21,24	-0,07415	54,42	368,32	0,01956	
21,26	-0,07362	53,51	369,21	0,01961	
21,28	-0,07331	52,92	369,76	0,01954	
21,30	-0,07287	53,58	370,10	0,01939	
21,32	-0,07240	52,65	370,40	0,01940	
21,34	-0,07211	54,38	370,67	0,01943	
21,36	-0,07159	56,86	371,30	0,01943	
21,38	-0,07102	54,74	372,04	0,01946	
21,40	-0,07069	54,17	372,44	0,01946	
21,42	-0,07038	56,61	372,58	0,01940	
21,44	-0,06997	56,71	372,71	0,01929	
21,46	-0,06968	59,54	373,01	0,01919	
21,48	-0,06920	61,85	373,92	0,01917	
21,50	-0,06871	58,54	374,81	0,01929	
21,52	-0,06837	56,84	375,22	0,01946	
21,54	-0,06798	57,20	375,37	0,01955	
21,56	-0,06763	56,35	375,48	0,01948	
21,58	-0,06731	59,87	375,79	0,01937	
21,60	-0,06667	62,46	376,80	0,01927	
21,62	-0,06620	58,79	377,78	0,01933	
21,64	-0,06592	56,31	378,19	0,01947	
21,66	-0,06565	56,78	378,28	0,01957	
21,68	-0,06532	56,82	378,32	0,01956	
21,70	-0,06497	58,65	378,64	0,01952	
21,72	-0,06434	58,54	379,45	0,01942	
21,74	-0,06390	57,15	380,14	0,01933	
21,76	-0,06364	58,09	380,44	0,01938	
21,78	-0,06323	58,66	380,58	0,01947	
21,80	-0,06285	59,69	380,70	0,01953	
21,82	-0,06249	65,08	381,22	0,01958	
21,84	-0,06188	64,83	382,35	0,01956	
21,86	-0,06149	60,89	383,18	0,01942	
21,88	-0,06120	59,88	383,47	0,01933	
21,90	-0,06092	60,68	383,52	0,01932	
21,92	-0,06067	61,71	383,60	0,01933	
21,94	-0,06018	64,96	384,10	0,01938	
21,96	-0,05967	64,42	384,88	0,01951	
21,98	-0,05938	63,41	385,36	0,01961	
22,00	-0,05912	63,61	385,62	0,01952	
22,02	-0,05870	62,25	385,86	0,01936	
22,04	-0,05840	64,00	386,08	0,01926	
22,06	-0,05797	67,70	386,66	0,01924	
22,08	-0,05748	67,08	387,45	0,01937	
22,10	-0,05719	66,76	387,95	0,01946	
22,12	-0,05675	67,81	388,22	0,01944	
22,14	-0,05638	67,61	388,43	0,01939	
22,16	-0,05618	70,34	388,66	0,01931	
22,18	-0,05578	73,41	389,34	0,01928	
22,20	-0,05529	71,43	390,18	0,01929	
22,22	-0,05505	70,71	390,64	0,01939	
22,24	-0,05471	71,28	390,84	0,01946	
22,26	-0,05438	69,94	390,98	0,01949	
22,28	-0,05420	72,59	391,26	0,01943	
22,30	-0,05374	75,17	392,18	0,01936	
22,32	-0,05325	71,89	393,16	0,01931	
22,34	-0,05298	69,65	393,62	0,01929	
22,36	-0,05269	69,70	393,71	0,01935	
22,38	-0,05231	69,45	393,75	0,01945	
22,40	-0,05202	71,98	394,01	0,01957	
22,42	-0,05151	72,81	394,72	0,01955	
22,44	-0,05110	70,61	395,39	0,01935	
22,46	-0,05100	70,37	395,75	0,01918	
22,48	-0,05067	69,02	396,05	0,01916	
22,50	-0,05030	68,76	396,30	0,01931	
22,52	-0,05000	73,37	396,72	0,01948	
22,54	-0,04949	73,49	397,56	0,01960	
22,56	-0,04910	70,58	398,23	0,01960	
22,58	-0,04885	70,54	398,56	0,01945	
22,60	-0,04846	70,12	398,78	0,01936	
22,62	-0,04821	70,24	398,94	0,01936	
22,64	-0,04794	74,35	399,44	0,01933	
22,66	-0,04743	73,25	400,40	0,01938	
22,68	-0,04707	70,08	401,11	0,01948	
22,70	-0,04693	70,03	401,37	0,01958	
22,72	-0,04664	70,43	401,43	0,01953	
22,74	-0,04634	70,86	401,51	0,01938	
22,76	-0,04595	74,58	402,15	0,01928	
22,78	-0,04553	72,59	403,34	0,01929	
22,80	-0,04522	67,68	404,13	0,01942	
22,82	-0,04501	65,26	404,37	0,01955	
22,84	-0,04480	64,71	404,41	0,01951	
22,86	-0,04460	65,06	404,54	0,01946	
22,88	-0,04406	66,05	405,14	0,01941	
22,90	-0,04361	64,41	405,93	0,01934	
22,92	-0,04343	63,92	406,36	0,01926	
22,94	-0,04315	64,37	406,52	0,01931	
22,96	-0,04279	64,07	406,60	0,01948	
22,98	-0,04260	68,30	406,80	0,01955	
23,00	-0,04220	71,94	407,74	0,01948	
23,02	-0,04172	68,10	408,92	0,01938	
23,04	-0,04152	64,81	409,54	0,01930	
23,06	-0,04127	64,28	409,72	0,01931	
23,08	-0,04098	63,28	409,77	0,01943	
23,10	-0,04076	64,39	410,02	0,01951	
23,12	-0,04031	65,39	410,91	0,01949	
23,14	-0,03986	62,36	411,79	0,01950	
23,16	-0,03961	60,64	412,16	0,01947	
23,18	-0,03942	61,05	412,23	0,01940	
23,20	-0,03909	61,81	412,25	0,01933	
23,22	-0,03879	65,26	412,55	0,01928	
23,24	-0,03832	66,14	413,57	0,01931	
23,26	-0,03799	62,30	414,50	0,01946	
23,28	-0,03772	59,19	414,86	0,01953	
23,30	-0,03745	58,32	414,93	0,01951	
23,32	-0,03714	59,04	414,99	0,01939	
23,34	-0,03677	62,93	415,41	0,01923	
23,36	-0,03628	63,06	416,45	0,01920	
23,38	-0,03597	60,11	417,25	0,01931	
23,40	-0,03571	58,44	417,53	0,01944	
23,42	-0,03542	58,15	417,58	0,01948	
23,44	-0,03518	59,51	417,65	0,01943	
23,46	-0,03486	64,17	418,18	0,01928	
23,48	-0,03434	64,72	419,18	0,01922	
23,50	-0,03411	62,71	419,83	0,01924	
23,52	-0,03387	61,70	420,04	0,01933	
23,54	-0,03360	61,62	420,09	0,01952	
23,56	-0,03336	63,34	420,16	0,01964	
23,58	-0,03292	67,74	420,84	0,01958	
23,60	-0,03234	66,52	421,98	0,01941	
23,62	-0,03210	63,19	422,66	0,01927	
23,64	-0,03185	61,71	422,86	0,01927	
23,66	-0,03158	61,54	422,92	0,01935	
23,68	-0,03134	63,57	423,02	0,01948	
23,70	-0,03100	67,09	423,56	0,01950	
23,72	-0,03065	67,10	424,32	0,01952	
23,74	-0,03034	66,39	424,75	0,01950	
23,76	-0,03006	67,29	424,88	0,01941	
23,78	-0,02973	68,22	424,91	0,01927	
23,80	-0,02957	71,68	425,10	0,01921	
23,82	-0,02911	74,11	426,04	0,01929	
23,84	-0,02876	71,31	427,17	0,01947	
23,86	-0,02850	68,87	427,75	0,01957	
23,88	-0,02829	68,24	427,91	0,01946	
23,90	-0,02805	67,69	427,95	0,01926	
23,92	-0,02786	70,29	428,21	0,01915	
23,94	-0,02740	71,99	429,12	0,01910	
23,96	-0,02698	68,57	429,98	0,01923	
23,98	-0,02681	65,71	430,37	0,01945	
24,00	-0,02657	64,96	430,48	0,01959	
24,02	-0,02620	65,41	430,52	0,01958	
24,04	-0,02590	69,14	430,88	0,01944	
24,06	-0,02549	70,02	431,94	0,01929	
24,08	-0,02513	67,14	432,86	0,01936	
24,10	-0,02491	65,27	433,23	0,01950	
24,12	-0,02471	64,94	433,31	0,01955	
24,14	-0,02439	65,69	433,35	0,01948	
24,16	-0,02401	69,52	433,67	0,01941	
24,18	-0,02356	70,50	434,45	0,01935	
24,20	-0,02337	69,10	435,07	0,01926	
24,22	-0,02314	68,97	435,30	0,01925	
24,24	-0,02286	70,46	435,35	0,01930	
24,26	-0,02260	72,78	435,41	0,01939	
24,28	-0,02233	77,54	435,99	0,01943	
24,30	-0,02180	75,41	437,15	0,01943	
24,32	-0,02150	70,56	437,97	0,01945	
24,34	-0,02142	68,42	438,24	0,01941	
24,36	-0,02118	68,25	438,29	0,01939	
24,38	-0,02091	69,87	438,39	0,01934	
24,40	-0,02045	73,00	439,14	0,01929	
24,42	-0,02003	71,02	440,31	0,01946	
24,44	-0,01973	66,98	440,99	0,01966	
24,46	-0,01953	65,11	441,18	0,01956	
24,48	-0,01932	64,91	441,22	0,01938	
24,50	-0,01910	67,36	441,33	0,01932	
24,52	-0,01870	71,08	441,81	0,01929	
24,54	-0,01826	71,51	442,46	0,01939	
24,56	-0,01806	71,30	442,80	0,01952	
24,58	-0,01781	71,64	442,90	0,01959	
24,60	-0,01752	73,14	442,94	0,01958	
24,62	-0,01731	77,46	443,14	0,01938	
24,64	-0,01690	79,11	443,96	0,01927	
24,66	-0,01655	75,36	444,86	0,01927	
24,68	-0,01631	74,00	445,34	0,01936	
24,70	-0,01607	73,14	445,57	0,01947	
24,72	-0,01575	71,85	445,73	0,01952	
24,74	-0,01566	75,16	446,05	0,01947	
24,76	-0,01529	77,64	447,10	0,01939	
24,78	-0,01487	73,46	448,20	0,01935	
24,80	-0,01469	70,18	448,70	0,01933	
24,82	-0,01444	69,81	448,84	0,01936	
24,84	-0,01418	68,73	448,90	0,01944	
24,86	-0,01391	69,39	449,19	0,01950	
24,88	-0,01346	70,20	449,95	0,01944	
24,90	-0,01306	69,25	450,58	0,01944	
24,92	-0,01281	68,47	450,82	0,01944	
24,94	-0,01260	69,02	450,87	0,01938	
24,96	-0,01236	71,33	450,93	0,01934	
24,98	-0,01208	75,13	451,47	0,01934	
25,00	-0,01153	73,27	452,69	0,01944	
25,02	-0,01128	69,66	453,60	0,01957	
25,04	-0,01105	68,28	453,92	0,01959	
25,06	-0,01079	68,04	453,97	0,01942	
25,08	-0,01054	68,32	454,03	0,01925	
25,10	-0,01026	72,02	454,66	0,01927	
25,12	-0,00984	70,60	455,85	0,01935	
25,14	-0,00951	66,77	456,64	0,01944	
25,16	-0,00924	65,09	456,90	0,01956	
25,18	-0,00891	64,24	456,95	0,01956	
25,20	-0,00866	64,49	457,00	0,01943	
25,22	-0,00829	69,02	457,25	0,01932	
25,24	-0,00788	71,44	457,71	0,01939	
25,26	-0,00757	73,20	458,02	0,01951	
25,28	-0,00736	75,10	458,21	0,01951	
25,30	-0,00701	75,81	458,39	0,01949	
25,32	-0,00687	78,81	458,62	0,01949	
25,34	-0,00646	81,47	459,48	0,01950	
25,36	-0,00601	78,43	460,63	0,01939	
25,38	-0,00579	75,98	461,25	0,01929	
25,40	-0,00553	76,93	461,42	0,01935	
25,42	-0,00533	77,03	461,44	0,01944	
25,44	-0,00518	79,48	461,66	0,01950	
25,46	-0,00475	81,18	462,58	0,01953	
25,48	-0,00427	77,00	463,55	0,01947	
25,50	-0,00402	74,22	464,01	0,01935	
25,52	-0,00383	73,65	464,11	0,01930	
25,54	-0,00355	72,99	464,13	0,01931	
25,56	-0,00337	76,05	464,43	0,01940	
25,58	-0,00285	77,25	465,49	0,01953	
25,60	-0,00253	73,64	466,47	0,01959	
25,62	-0,00228	71,30	466,87	0,01954	
25,64	-0,00202	69,91	466,95	0,01942	
25,66	-0,00171	69,42	467,00	0,01933	
25,68	-0,00154	72,97	467,39	0,01926	
25,70	-0,00114	73,12	468,52	0,01928	
25,72	-0,00075	70,17	469,45	0,01941	
25,74	-0,00058	68,57	469,80	0,01953	
25,76	-0,00033	67,73	469,85	0,01953	
25,78	0,000	67,04	469,87	0,01934	
25,80	0,00041	70,24	470,14	0,01921	
25,82	0,00086	71,77	470,76	0,01924	
25,84	0,00120	72,41	471,20	0,01932	
25,86	0,00138	73,82	471,36	0,01945	
25,88	0,00166	75,50	471,39	0,01959	
25,90	0,00187	78,60	471,44	0,01964	
25,92	0,00222	82,91	472,02	0,01954	
25,94	0,00272	80,57	473,13	0,01940	
25,96	0,00295	77,29	473,91	0,01931	
25,98	0,00321	77,13	474,16	0,01934	
26,00	0,00343	76,56	474,21	0,01948	
26,02	0,00359	77,44	474,31	0,01961	
26,04	0,00391	80,90	475,13	0,01955	
26,06	0,00444	78,83	476,45	0,01948	
26,08	0,00472	74,16	477,23	0,01939	
26,10	0,00479	71,73	477,43	0,01936	
26,12	0,00504	70,01	477,45	0,01941	
26,14	0,00532	70,02	477,57	0,01945	
26,16	0,00584	70,52	478,43	0,01950	
26,18	0,00621	67,67	479,51	0,01955	
26,20	0,00647	65,50	480,06	0,01951	
26,22	0,00671	64,98	480,18	0,01934	
26,24	0,00705	64,40	480,19	0,01931	
26,26	0,00724	66,88	480,29	0,01938	
26,28	0,00769	70,45	480,88	0,01941	
26,30	0,00812	69,69	481,57	0,01948	
26,32	0,00846	69,20	481,91	0,01952	
26,34	0,00869	70,49	481,98	0,01957	
26,36	0,00886	72,38	481,99	0,01947	
26,38	0,00904	77,11	482,30	0,01933	
26,40	0,00955	78,00	483,37	0,01924	
26,42	0,00997	74,42	484,36	0,01932	
26,44	0,01014	72,06	484,75	0,01945	
26,46	0,01041	71,65	484,80	0,01954	
26,48	0,01075	72,45	484,81	0,01956	
26,50	0,01107	76,23	485,16	0,01947	
26,52	0,01149	76,41	486,08	0,01936	
26,54	0,01183	73,73	486,80	0,01930	
26,56	0,01202	73,39	487,07	0,01932	
26,58	0,01226	72,99	487,13	0,01946	
26,60	0,01255	73,24	487,17	0,01956	
26,62	0,01288	78,27	487,71	0,01954	
26,64	0,01341	77,61	489,04	0,01945	
26,66	0,01361	72,51	490,05	0,01930	
26,68	0,01381	70,30	490,37	0,01921	
26,70	0,01406	69,51	490,39	0,01927	
26,72	0,01431	68,73	490,40	0,01945	
26,74	0,01463	70,83	491,00	0,01955	
26,76	0,01517	68,66	492,15	0,01952	
26,78	0,01547	64,14	492,88	0,01949	
26,80	0,01565	61,88	493,08	0,01947	
26,82	0,01597	61,57	493,07	0,01941	
26,84	0,01625	63,05	493,13	0,01934	
26,86	0,01666	65,55	493,93	0,01937	
26,88	0,01718	63,82	495,08	0,01946	
26,90	0,01746	61,64	495,69	0,01953	
26,92	0,01763	61,40	495,81	0,01954	
26,94	0,01795	61,08	495,79	0,01949	
26,96	0,01827	63,06	495,87	0,01934	
26,98	0,01874	65,62	496,60	0,01928	
27,00	0,01922	63,97	497,49	0,01932	
27,02	0,01947	62,12	497,90	0,01944	
27,04	0,01965	62,27	497,96	0,01951	
27,06	0,01998	63,94	497,93	0,01948	
27,08	0,02026	68,28	498,13	0,01937	
27,10	0,02072	69,85	499,19	0,01926	
27,12	0,02108	65,54	500,30	0,01921	
27,14	0,02136	62,26	500,76	0,01929	
27,16	0,02163	61,54	500,81	0,01945	
27,18	0,02197	61,69	500,74	0,01956	
27,20	0,02229	64,37	500,70	0,01949	
27,22	0,02265	70,46	500,66	0,01936	
27,24	0,02298	75,02	500,63	0,01927	
27,26	0,02333	78,05	500,59	0,01925	
27,28	0,02355	81,22	500,54	0,01928	
27,30	0,02383	85,83	500,47	0,01939	
27,32	0,02409	90,81	500,39	0,01949	
27,34	0,02422	96,00	500,31	0,01952	
27,36	0,02451	100,93	500,24	0,01948	
27,38	0,02480	106,14	500,19	0,01939	
27,40	0,02489	111,12	500,11	0,01934	
27,42	0,02489	115,78	500,01	0,01937	
27,44	0,02501	119,81	499,92	0,01943	
27,46	0,02532	123,31	499,85	0,01953	
27,48	0,02553	127,08	499,77	0,01957	
27,50	0,02555	131,30	499,68	0,01952	
27,52	0,02553	134,48	499,62	0,01941	
27,54	0,02555	135,82	499,61	0,01932	
27,56	0,02559	137,15	499,64	0,01933	
27,58	0,02562	138,52	499,68	0,01945	
27,60	0,02559	140,53	499,67	0,01960	
27,62	0,02567	143,52	499,63	0,01964	
27,64	0,02596	146,69	499,61	0,01960	
27,66	0,02617	148,71	499,64	0,01945	
27,68	0,02625	150,42	499,69	0,01935	
27,70	0,02628	151,83	499,70	0,01935	
27,72	0,02625	153,23	499,65	0,01936	
27,74	0,02621	155,06	499,59	0,01940	
27,76	0,02624	155,90	499,62	0,01947	
27,78	0,02630	155,94	499,70	0,01950	
27,80	0,02631	157,04	499,74	0,01953	
27,82	0,02626	158,62	499,68	0,01938	
27,84	0,02618	160,21	499,62	0,01925	
27,86	0,02620	161,69	499,62	0,01930	
27,88	0,02626	162,34	499,67	0,01944	
27,90	0,02627	162,44	499,68	0,01952	
27,92	0,02622	162,58	499,63	0,01955	
27,94	0,02616	162,84	499,59	0,01948	
27,96	0,02607	162,87	499,64	0,01940	
27,98	0,02582	163,77	499,72	0,01933	
28,00	0,02563	165,09	499,72	0,01935	
28,02	0,02555	166,58	499,66	0,01945	
28,04	0,02551	168,44	499,60	0,01954	
28,06	0,02552	169,34	499,61	0,01957	
28,08	0,02559	169,11	499,71	0,01955	
28,10	0,02561	168,94	499,77	0,01950	
28,12	0,02558	169,20	499,72	0,01949	
28,14	0,02551	170,26	499,63	0,01940	
28,16	0,02550	171,88	499,60	0,01938	
28,18	0,02557	172,36	499,67	0,01947	
28,20	0,02561	172,33	499,73	0,01958	
28,22	0,02559	172,58	499,68	0,01967	
28,24	0,02553	172,87	499,60	0,01961	
28,26	0,02552	172,26	499,59	0,01951	
28,28	0,02557	171,97	499,70	0,01947	
28,30	0,02535	172,20	499,78	0,01950	
28,32	0,02505	172,55	499,75	0,01954	
28,34	0,02487	173,18	499,65	0,01953	
28,36	0,02484	174,45	499,62	0,01957	
28,38	0,02491	175,34	499,69	0,01955	
28,40	0,02495	175,69	499,72	0,01944	
28,42	0,02490	176,12	499,66	0,01938	
28,44	0,02485	175,86	499,59	0,01938	
28,46	0,02490	174,14	499,62	0,01939	
28,48	0,02493	172,87	499,70	0,01948	
28,50	0,02468	173,76	499,72	0,01958	
28,52	0,02432	175,49	499,65	0,01963	
28,54	0,02416	175,84	499,59	0,01954	
28,56	0,02419	175,42	499,63	0,01940	
28,58	0,02427	175,40	499,71	0,01926	
28,60	0,02429	175,66	499,73	0,01930	
28,62	0,02422	176,08	499,65	0,01953	
28,64	0,02417	176,33	499,59	0,01967	
28,66	0,02421	176,15	499,62	0,01973	
28,68	0,02417	175,58	499,72	0,01964	
28,70	0,02386	174,33	499,73	0,01945	
28,72	0,02358	173,45	499,65	0,01940	
28,74	0,02350	173,11	499,59	0,01945	
28,76	0,02355	172,75	499,63	0,01956	
28,78	0,02361	172,44	499,70	0,01963	
28,80	0,02359	172,57	499,69	0,01961	
28,82	0,02353	172,72	499,62	0,01950	
28,84	0,02351	172,10	499,60	0,01941	
28,86	0,02357	171,95	499,67	0,01935	
28,88	0,02359	172,12	499,74	0,01939	
28,90	0,02334	172,40	499,72	0,01949	
28,92	0,02297	172,95	499,62	0,01958	
28,94	0,02284	172,46	499,60	0,01960	
28,96	0,02289	171,66	499,69	0,01953	
28,98	0,02293	171,87	499,73	0,01942	
29,00	0,02289	172,40	499,66	0,01934	
29,02	0,02282	171,47	499,58	0,01932	
29,04	0,02284	169,15	499,62	0,01933	
29,06	0,02292	167,57	499,75	0,01941	
29,08	0,02293	168,02	499,82	0,01956	
29,10	0,02290	168,91	499,74	0,01967	
29,12	0,02283	169,64	499,63	0,01958	
29,14	0,02287	168,96	499,65	0,01938	
29,16	0,02282	168,28	499,70	0,01933	
29,18	0,02248	168,82	499,67	0,01940	
29,20	0,02219	168,82	499,59	0,01950	
29,22	0,02214	166,07	499,60	0,01960	
29,24	0,02222	163,83	499,70	0,01957	
29,26	0,02226	164,36	499,75	0,01949	
29,28	0,02222	165,58	499,68	0,01941	
29,30	0,02215	166,37	499,60	0,01935	
29,32	0,02217	166,27	499,61	0,01939	
29,34	0,02226	165,71	499,69	0,01953	
29,36	0,02227	165,61	499,71	0,01965	
29,38	0,02219	165,94	499,64	0,01963	
29,40	0,02215	164,96	499,59	0,01951	
29,42	0,02221	163,21	499,65	0,01938	
29,44	0,02226	162,88	499,73	0,01938	
29,46	0,02225	164,30	499,71	0,01940	
29,48	0,02218	164,74	499,61	0,01944	
29,50	0,02216	164,43	499,57	0,01961	
29,52	0,02224	163,23	499,67	0,01971	
29,54	0,02228	162,30	499,79	0,01966	
29,56	0,02202	162,31	499,78	0,01949	
29,58	0,02164	162,87	499,67	0,01935	
29,60	0,02151	162,88	499,64	0,01934	
29,62	0,02157	162,56	499,71	0,01939	
29,64	0,02157	163,75	499,70	0,01947	
29,66	0,02150	165,03	499,61	0,01950	
29,68	0,02150	163,35	499,60	0,01953	
29,70	0,02156	160,01	499,68	0,01957	
29,72	0,02157	159,96	499,70	0,01949	
29,74	0,02151	161,75	499,64	0,01935	
29,76	0,02148	161,47	499,58	0,01930	
29,78	0,02153	159,32	499,65	0,01935	
29,80	0,02159	158,41	499,75	0,01947	
29,82	0,02158	159,23	499,75	0,01952	
29,84	0,02151	160,33	499,65	0,01949	
29,86	0,02145	161,43	499,59	0,01938	
29,88	0,02153	160,74	499,70	0,01931	
29,90	0,02158	160,07	499,78	0,01935	
29,92	0,02154	160,66	499,72	0,01946	
29,94	0,02146	160,42	499,61	0,01956	
29,96	0,02149	158,54	499,59	0,01958	
29,98	0,02156	157,68	499,68	0,01952	
30,00	0,02158	158,31	499,72	0,01944	
30,02	0,02152	159,16	499,66	0,01934	
30,04	0,02145	159,16	499,58	0,01932	
30,06	0,02147	158,08	499,61	0,01938	
30,08	0,02156	156,62	499,74	0,01946	
30,10	0,02158	157,08	499,79	0,01956	
30,12	0,02153	158,62	499,71	0,01959	
30,14	0,02146	159,46	499,61	0,01949	
30,16	0,02147	158,68	499,60	0,01938	
30,18	0,02155	157,03	499,69	0,01937	
30,20	0,02156	155,88	499,74	0,01948	
30,22	0,02149	155,89	499,67	0,01951	
30,24	0,02144	155,75	499,58	0,01955	
30,26	0,02147	155,25	499,61	0,01957	
30,28	0,02156	155,06	499,75	0,01954	
30,30	0,02157	155,28	499,79	0,01946	
30,32	0,02153	155,65	499,69	0,01939	
30,34	0,02143	156,20	499,59	0,01936	
30,36	0,02149	155,85	499,66	0,01934	
30,38	0,02156	155,47	499,74	0,01942	
30,40	0,02153	155,70	499,70	0,01947	
30,42	0,02144	156,03	499,60	0,01950	
30,44	0,02145	154,34	499,59	0,01945	
30,46	0,02152	152,17	499,69	0,01938	
30,48	0,02156	151,69	499,73	0,01942	
30,50	0,02151	152,30	499,66	0,01947	
30,52	0,02147	152,78	499,59	0,01952	
30,54	0,02151	152,63	499,62	0,01960	
30,56	0,02158	152,26	499,71	0,01955	
30,58	0,02158	152,88	499,71	0,01942	
30,60	0,02151	154,26	499,63	0,01934	
30,62	0,02148	153,85	499,59	0,01934	
30,64	0,02155	152,66	499,68	0,01940	
30,66	0,02159	152,62	499,76	0,01950	
30,68	0,02155	154,35	499,70	0,01954	
30,70	0,02147	155,38	499,60	0,01941	
30,72	0,02149	154,10	499,59	0,01910	
30,74	0,02157	152,59	499,69	0,01881	
30,76	0,02160	152,09	499,75	0,01873	
30,78	0,02154	152,38	499,68	0,01881	
30,80	0,02146	152,88	499,58	0,01878	
30,82	0,02149	152,13	499,62	0,01872	
30,84	0,02159	150,64	499,75	0,01853	
30,86	0,02159	151,10	499,80	0,01824	
30,88	0,02152	152,24	499,71	0,01796	
30,90	0,02146	152,77	499,61	0,01735	
30,92	0,02153	151,38	499,65	0,01660	
30,94	0,02159	150,78	499,72	0,01586	
30,96	0,02155	151,77	499,67	0,01519	
30,98	0,02148	152,06	499,58	0,01484	
31,00	0,02150	149,44	499,61	0,01463	
31,02	0,02158	147,63	499,74	0,01410	
31,04	0,02159	148,60	499,78	0,01257	
31,06	0,02150	151,02	499,68	0,01141	
31,08	0,02143	151,37	499,59	0,01104	
31,10	0,02149	149,91	499,64	0,01087	
31,12	0,02156	148,87	499,71	0,01067	
31,14	0,02152	148,91	499,67	0,01058	
31,16	0,02146	148,72	499,58	0,01060	
31,18	0,02146	147,24	499,60	0,01050	
31,20	0,02156	145,63	499,74	0,01052	
31,22	0,02159	145,76	499,82	0,01068	
31,24	0,02153	147,65	499,73	0,01067	
31,26	0,02146	149,07	499,61	0,01061	
31,28	0,02171	148,43	499,61	0,01063	
31,30	0,02208	147,40	499,70	0,01052	
31,32	0,02223	147,86	499,72	0,01036	
31,34	0,02216	148,88	499,62	0,01038	
31,36	0,02212	147,67	499,58	0,01046	
31,38	0,02220	145,50	499,68	0,01053	
31,40	0,02223	145,48	499,78	0,01058	
31,42	0,02218	147,49	499,72	0,01050	
31,44	0,02211	148,67	499,58	0,01039	
31,46	0,02214	147,35	499,59	0,01041	
31,48	0,02224	145,60	499,80	0,01053	
31,50	0,02225	145,19	499,92	0,01058	
31,52	0,02220	145,50	499,82	0,01063	
31,54	0,02210	146,11	499,65	0,01077	
31,56	0,02214	145,42	499,62	0,01081	
31,58	0,02220	144,66	499,68	0,01061	
31,60	0,02217	144,56	499,66	0,01042	
31,62	0,02211	143,67	499,59	0,01036	
31,64	0,02213	141,55	499,61	0,01044	
31,66	0,02222	140,02	499,72	0,01051	
31,68	0,02225	140,89	499,73	0,01063	
31,70	0,02215	143,40	499,63	0,01063	
31,72	0,02209	144,17	499,56	0,01048	
31,74	0,02217	142,82	499,70	0,01039	
31,76	0,02224	142,44	499,85	0,01045	
31,78	0,02221	143,97	499,82	0,01049	
31,80	0,02223	144,57	499,66	0,01050	
31,82	0,02253	144,12	499,60	0,01070	
31,84	0,02279	143,63	499,66	0,01083	
31,86	0,02287	143,92	499,68	0,01062	
31,88	0,02282	143,39	499,61	0,01051	
31,90	0,02280	141,44	499,60	0,01048	
31,92	0,02288	138,75	499,70	0,01044	
31,94	0,02292	138,59	499,75	0,01047	
31,96	0,02283	141,48	499,65	0,01057	
31,98	0,02277	142,83	499,58	0,01067	
32,00	0,02285	140,78	499,69	0,01064	
32,02	0,02290	140,19	499,78	0,01052	
32,04	0,02285	141,53	499,72	0,01038	
32,06	0,02277	142,61	499,58	0,01037	
32,08	0,02280	141,38	499,60	0,01053	
32,10	0,02291	139,91	499,74	0,01070	
32,12	0,02294	140,65	499,77	0,01065	
32,14	0,02284	142,04	499,66	0,01055	
32,16	0,02292	140,95	499,58	0,01048	
32,18	0,02328	138,84	499,65	0,01033	
32,20	0,02354	138,90	499,72	0,01026	
32,22	0,02355	140,42	499,66	0,01038	
32,24	0,02348	139,85	499,58	0,01022	
32,26	0,02352	137,25	499,65	0,00797	
32,28	0,02360	136,01	499,76	0,01027	
32,30	0,02357	137,93	499,72	0,01506	
32,32	0,02347	140,43	499,60	0,00656	
32,34	0,02347	139,02	499,59	-0,00024	
32,36	0,02359	136,34	499,74	0,01533	
32,38	0,02361	136,48	499,80	0,03417	
32,40	0,02351	138,34	499,70	0,04264	
32,42	0,02345	139,00	499,58	0,04434	
32,44	0,02374	138,06	499,62	0,04460	
32,46	0,02413	137,47	499,74	0,04544	
32,48	0,02427	138,15	499,75	0,04644	
32,50	0,02418	139,10	499,63	0,04720	
32,52	0,02412	138,27	499,57	0,04770	
32,54	0,02421	136,90	499,68	0,04789	
32,56	0,02428	137,41	499,79	0,04793	
32,58	0,02422	138,66	499,74	0,04796	
32,60	0,02412	139,42	499,61	0,04816	
32,62	0,02414	138,70	499,60	0,04796	
32,64	0,02424	138,22	499,72	0,04728	
32,66	0,02427	138,45	499,76	0,04698	
32,68	0,02418	139,16	499,66	0,04680	
32,70	0,02415	139,00	499,58	0,04641	
32,72	0,02443	137,78	499,65	0,04589	
32,74	0,02478	137,43	499,74	0,04516	
32,76	0,02488	138,36	499,69	0,04478	
32,78	0,02482	139,17	499,57	0,04510	
32,80	0,02484	138,39	499,60	0,04573	
32,82	0,02493	137,32	499,77	0,04645	
32,84	0,02496	138,94	499,82	0,04723	
32,86	0,02488	141,56	499,70	0,04799	
32,88	0,02480	142,28	499,59	0,04857	
32,90	0,02488	140,47	499,67	0,04893	
32,92	0,02494	140,18	499,74	0,04902	
32,94	0,02487	141,62	499,66	0,04893	
32,96	0,02479	142,02	499,56	0,04886	
32,98	0,02484	139,17	499,64	0,04887	
33,00	0,02495	136,74	499,81	0,04880	
33,02	0,02495	138,49	499,83	0,04846	
33,04	0,02487	141,04	499,68	0,04790	
33,06	0,02506	141,32	499,61	0,04746	
33,08	0,02542	139,83	499,69	0,04718	
33,10	0,02555	140,05	499,71	0,04658	
33,12	0,02548	141,63	499,60	0,04575	
33,14	0,02547	140,53	499,58	0,04514	
33,16	0,02557	136,54	499,74	0,04531	
33,18	0,02560	135,39	499,83	0,04608	
33,20	0,02555	138,52	499,73	0,04669	
33,22	0,02548	141,07	499,60	0,04700	
33,24	0,02556	139,49	499,65	0,04747	
33,26	0,02562	138,82	499,70	0,04821	
33,28	0,02556	140,72	499,63	0,04894	
33,30	0,02550	141,07	499,57	0,04940	
33,32	0,02559	137,84	499,69	0,04955	
33,34	0,02576	135,71	499,83	0,04954	
33,36	0,02602	138,25	499,78	0,04958	
33,38	0,02610	141,57	499,63	0,04965	
33,40	0,02616	141,44	499,59	0,04977	
33,42	0,02626	140,05	499,69	0,04999	
33,44	0,02627	140,81	499,71	0,05014	
33,46	0,02618	141,77	499,62	0,04984	
33,48	0,02618	140,10	499,56	0,04925	
33,50	0,02632	136,92	499,69	0,04885	
33,52	0,02639	136,33	499,80	0,04866	
33,54	0,02634	138,74	499,76	0,04853	
33,56	0,02624	140,24	499,61	0,04835	
33,58	0,02623	139,60	499,56	0,04821	
33,60	0,02629	139,21	499,66	0,04807	
33,62	0,02631	139,96	499,75	0,04799	
33,64	0,02625	141,07	499,69	0,04810	
33,66	0,02628	141,71	499,58	0,04826	
33,68	0,02663	140,33	499,61	0,04832	
33,70	0,02693	139,43	499,73	0,04818	
33,72	0,02698	140,54	499,74	0,04796	
33,74	0,02687	141,96	499,62	0,04768	
33,76	0,02682	141,30	499,57	0,04751	
33,78	0,02692	139,47	499,70	0,04745	
33,80	0,02698	139,72	499,79	0,04749	
33,82	0,02692	141,35	499,72	0,04754	
33,84	0,02681	142,44	499,59	0,04761	
33,86	0,02685	141,77	499,60	0,04765	
33,88	0,02694	141,31	499,72	0,04762	
33,90	0,02695	141,72	499,74	0,04739	
33,92	0,02686	142,41	499,63	0,04712	
33,94	0,02684	141,45	499,58	0,04701	
33,96	0,02693	139,55	499,70	0,04713	
33,98	0,02698	139,81	499,78	0,04734	
34,00	0,02691	141,61	499,70	0,04737	
34,02	0,02694	142,67	499,60	0,04725	
34,04	0,02727	142,49	499,61	0,04707	
34,06	0,02753	142,23	499,68	0,04693	
34,08	0,02759	142,90	499,67	0,04680	
34,10	0,02754	142,98	499,61	0,04656	
34,12	0,02755	141,41	499,62	0,04632	
34,14	0,02763	140,56	499,72	0,04610	
34,16	0,02764	141,85	499,73	0,04587	
34,18	0,02756	144,37	499,63	0,04573	
34,20	0,02751	144,67	499,57	0,04578	
34,22	0,02760	142,99	499,69	0,04610	
34,24	0,02766	142,01	499,80	0,04676	
34,26	0,02761	143,32	499,74	0,04754	
34,28	0,02752	144,71	499,61	0,04805	
34,30	0,02757	142,97	499,63	0,04828	
34,32	0,02766	142,17	499,71	0,04835	
34,34	0,02764	143,79	499,67	0,04831	
34,36	0,02755	144,28	499,56	0,04825	
34,38	0,02758	141,44	499,63	0,04818	
34,40	0,02769	138,52	499,82	0,04812	
34,42	0,02769	139,37	499,86	0,04798	
34,44	0,02771	141,55	499,72	0,04763	
34,46	0,02793	142,63	499,61	0,04695	
34,48	0,02823	141,64	499,67	0,04631	
34,50	0,02833	142,02	499,69	0,04607	
34,52	0,02825	143,79	499,60	0,04613	
34,54	0,02822	142,50	499,57	0,04644	
34,56	0,02831	138,28	499,73	0,04685	
34,58	0,02835	136,54	499,83	0,04716	
34,60	0,02828	139,15	499,74	0,04714	
34,62	0,02817	141,50	499,59	0,04701	
34,64	0,02821	140,61	499,61	0,04700	
34,66	0,02833	139,49	499,73	0,04700	
34,68	0,02835	140,53	499,74	0,04705	
34,70	0,02823	142,06	499,63	0,04712	
34,72	0,02820	141,32	499,58	0,04738	
34,74	0,02830	138,77	499,70	0,04816	
34,76	0,02834	138,44	499,77	0,04918	
34,78	0,02830	140,73	499,67	0,04993	
34,80	0,02846	141,94	499,57	0,05034	
34,82	0,02880	140,42	499,65	0,05057	
34,84	0,02901	139,41	499,80	0,05116	
34,86	0,02899	140,71	499,78	0,05192	
34,88	0,02887	142,25	499,64	0,05226	
34,90	0,02888	141,46	499,60	0,05182	
34,92	0,02897	140,06	499,69	0,05093	
34,94	0,02901	140,70	499,73	0,05035	
34,96	0,02892	142,10	499,63	0,05018	
34,98	0,02886	141,13	499,56	0,04983	
35,00	0,02896	138,35	499,68	0,04936	
35,02	0,02904	137,34	499,82	0,04903	
35,04	0,02900	139,38	499,78	0,04880	
35,06	0,02887	141,92	499,63	0,04882	
35,08	0,02886	141,55	499,59	0,04931	
35,10	0,02905	139,73	499,70	0,05017	
35,12	0,02938	140,03	499,72	0,05110	
35,14	0,02949	141,39	499,61	0,05170	
35,16	0,02953	140,13	499,57	0,05195	
35,18	0,02965	137,05	499,73	0,05197	
35,20	0,02969	137,05	499,87	0,05179	
35,22	0,02965	139,92	499,81	0,05152	
35,24	0,02956	141,27	499,66	0,05136	
35,26	0,02957	140,88	499,63	0,05132	
35,28	0,02966	140,74	499,70	0,05134	
35,30	0,02963	141,75	499,67	0,05124	
35,32	0,02953	142,14	499,58	0,05106	
35,34	0,02957	139,90	499,62	0,05094	
35,36	0,02967	136,79	499,76	0,05083	
35,38	0,02967	138,08	499,78	0,05087	
35,40	0,02957	141,26	499,65	0,05111	
35,42	0,02956	142,12	499,59	0,05138	
35,44	0,02987	140,35	499,68	0,05150	
35,46	0,03020	140,07	499,74	0,05146	
35,48	0,03026	141,64	499,65	0,05121	
35,50	0,03023	142,01	499,57	0,05083	
35,52	0,03029	139,61	499,65	0,05062	
35,54	0,03036	138,73	499,78	0,05065	
35,56	0,03031	140,52	499,74	0,05094	
35,58	0,03019	142,31	499,61	0,05119	
35,60	0,03020	141,49	499,59	0,05138	
35,62	0,03031	140,03	499,70	0,05151	
35,64	0,03035	140,68	499,74	0,05148	
35,66	0,03026	142,06	499,64	0,05135	
35,68	0,03021	141,51	499,57	0,05124	
35,70	0,03029	139,60	499,66	0,05118	
35,72	0,03035	139,01	499,76	0,05117	
35,74	0,03030	140,72	499,71	0,05124	
35,76	0,03020	141,89	499,58	0,05134	
35,78	0,03024	140,61	499,61	0,05131	
35,80	0,03057	139,00	499,76	0,05114	
35,82	0,03088	139,70	499,80	0,05105	
35,84	0,03093	141,65	499,68	0,05102	
35,86	0,03088	142,21	499,58	0,05092	
35,88	0,03095	140,49	499,66	0,05088	
35,90	0,03103	140,10	499,75	0,05085	
35,92	0,03097	141,58	499,69	0,05077	
35,94	0,03088	142,14	499,57	0,05074	
35,96	0,03091	139,37	499,62	0,05069	
35,98	0,03099	136,76	499,76	0,05069	
36,00	0,03098	137,67	499,77	0,05069	
36,02	0,03087	139,57	499,63	0,05076	
36,04	0,03087	139,07	499,57	0,05092	
36,06	0,03098	137,67	499,68	0,05092	
36,08	0,03104	137,69	499,77	0,05073	
36,10	0,03099	138,71	499,70	0,05051	
36,12	0,03091	139,00	499,57	0,05047	
36,14	0,03118	137,19	499,64	0,05064	
36,16	0,03156	135,99	499,78	0,05082	
36,18	0,03166	137,22	499,78	0,05093	
36,20	0,03155	138,84	499,64	0,05101	
36,22	0,03154	138,15	499,59	0,05100	
36,24	0,03163	136,71	499,67	0,05096	
36,26	0,03166	137,39	499,69	0,05083	
36,28	0,03160	138,70	499,61	0,05077	
36,30	0,03159	137,45	499,61	0,05078	
36,32	0,03166	134,65	499,73	0,05084	
36,34	0,03170	135,43	499,79	0,05082	
36,36	0,03162	139,00	499,68	0,05071	
36,38	0,03155	140,26	499,58	0,05059	
36,40	0,03170	138,95	499,64	0,05053	
36,42	0,03208	138,31	499,73	0,05058	
36,44	0,03226	138,77	499,69	0,05080	
36,46	0,03223	138,85	499,57	0,05097	
36,48	0,03225	137,16	499,60	0,05096	
36,50	0,03236	135,57	499,74	0,05088	
36,52	0,03236	136,36	499,79	0,05071	
36,54	0,03225	138,38	499,67	0,05066	
36,56	0,03218	138,95	499,57	0,05077	
36,58	0,03225	137,15	499,65	0,05080	
36,60	0,03233	136,67	499,75	0,05085	
36,62	0,03230	138,05	499,70	0,05071	
36,64	0,03222	139,20	499,58	0,05040	
36,66	0,03225	137,96	499,61	0,05086	
36,68	0,03246	136,36	499,75	0,05126	
36,70	0,03275	137,59	499,76	0,05137	
36,72	0,03286	139,56	499,64	0,05158	
36,74	0,03289	139,25	499,57	0,05155	
36,76	0,03297	137,45	499,66	0,05175	
36,78	0,03304	137,33	499,78	0,05153	
36,80	0,03301	138,36	499,74	0,05147	
36,82	0,03291	139,24	499,61	0,05138	
36,84	0,03291	138,72	499,58	0,05135	
36,86	0,03301	138,20	499,71	0,05137	
36,88	0,03306	138,34	499,79	0,05139	
36,90	0,03297	138,93	499,70	0,05163	
36,92	0,03286	139,01	499,58	0,05159	
36,94	0,03291	137,25	499,63	0,05151	
36,96	0,03301	136,73	499,73	0,05138	
36,98	0,03300	137,96	499,71	0,05142	
37,00	0,03293	139,14	499,59	0,05155	
37,02	0,03315	138,27	499,58	0,05158	
37,04	0,03355	136,28	499,76	0,05163	
37,06	0,03370	136,51	499,87	0,05163	
37,08	0,03365	138,15	499,77	0,05163	
37,10	0,03354	139,29	499,61	0,05149	
37,12	0,03356	138,61	499,60	0,05140	
37,14	0,03365	138,01	499,71	0,05144	
37,16	0,03365	138,35	499,72	0,05154	
37,18	0,03356	139,15	499,60	0,05167	
37,20	0,03353	137,86	499,56	0,05157	
37,22	0,03364	135,34	499,72	0,05151	
37,24	0,03370	135,14	499,85	0,05141	
37,26	0,03363	137,24	499,77	0,05138	
37,28	0,03360	139,06	499,61	0,05140	
37,30	0,03395	138,02	499,63	0,05147	
37,32	0,03427	136,51	499,72	0,05160	
37,34	0,03429	137,51	499,68	0,05163	
37,36	0,03420	138,51	499,58	0,05161	
37,38	0,03422	135,65	499,62	0,05149	
37,40	0,03433	132,67	499,78	0,05145	
37,42	0,03435	134,58	499,80	0,05140	
37,44	0,03425	138,03	499,66	0,05143	
37,46	0,03423	138,79	499,61	0,05146	
37,48	0,03433	136,88	499,71	0,05146	
37,50	0,03437	136,98	499,74	0,05151	
37,52	0,03427	139,02	499,64	0,05148	
37,54	0,03421	139,13	499,57	0,05145	
37,56	0,03450	136,37	499,66	0,05138	
37,58	0,03487	135,32	499,76	0,05143	
37,60	0,03495	137,32	499,69	0,05151	
37,62	0,03487	138,69	499,57	0,05152	
37,64	0,03490	137,31	499,62	0,05153	
37,66	0,03503	135,70	499,79	0,05149	
37,68	0,03505	136,46	499,81	0,05144	
37,70	0,03494	138,42	499,67	0,05137	
37,72	0,03489	138,36	499,57	0,05130	
37,74	0,03499	136,42	499,70	0,05130	
37,76	0,03505	135,76	499,84	0,05140	
37,78	0,03500	136,86	499,78	0,05145	
37,80	0,03488	137,24	499,62	0,05145	
37,82	0,03492	136,33	499,63	0,05137	
37,84	0,03512	135,88	499,73	0,05122	
37,86	0,03538	137,43	499,70	0,05122	
37,88	0,03550	138,52	499,59	0,05135	
37,90	0,03557	135,81	499,60	0,05151	
37,92	0,03567	132,31	499,76	0,05149	
37,94	0,03569	132,60	499,82	0,05143	
37,96	0,03559	134,83	499,71	0,05135	
37,98	0,03554	135,62	499,59	0,05129	
38,00	0,03562	134,97	499,63	0,05126	
38,02	0,03571	134,77	499,74	0,05132	
38,04	0,03568	135,23	499,72	0,05137	
38,06	0,03557	135,82	499,60	0,05140	
38,08	0,03557	135,15	499,58	0,05146	
38,10	0,03588	134,03	499,70	0,05140	
38,12	0,03622	134,20	499,77	0,05128	
38,14	0,03626	135,30	499,67	0,05126	
38,16	0,03621	135,58	499,57	0,05134	
38,18	0,03628	134,50	499,65	0,05140	
38,20	0,03637	134,08	499,77	0,05144	
38,22	0,03635	135,99	499,75	0,05149	
38,24	0,03623	138,03	499,62	0,05143	
38,26	0,03620	137,38	499,56	0,05130	
38,28	0,03631	135,75	499,68	0,05124	
38,30	0,03639	135,08	499,80	0,05123	
38,32	0,03633	135,41	499,74	0,05130	
38,34	0,03622	136,08	499,60	0,05142	
38,36	0,03647	135,84	499,61	0,05150	
38,38	0,03687	135,25	499,74	0,05143	
38,40	0,03702	136,25	499,75	0,05130	
38,42	0,03695	138,30	499,63	0,05114	
38,44	0,03691	137,84	499,57	0,05110	
38,46	0,03700	135,56	499,69	0,05122	
38,48	0,03706	135,25	499,80	0,05139	
38,50	0,03701	137,22	499,75	0,05145	
38,52	0,03689	138,99	499,61	0,05143	
38,54	0,03690	138,19	499,60	0,05131	
38,56	0,03702	136,55	499,75	0,05118	
38,58	0,03704	137,11	499,80	0,05114	
38,60	0,03694	138,58	499,68	0,05124	
38,62	0,03696	138,91	499,59	0,05139	
38,64	0,03735	137,75	499,65	0,05138	
38,66	0,03765	137,41	499,73	0,05132	
38,68	0,03764	138,52	499,66	0,05131	
38,70	0,03759	138,72	499,59	0,05125	
38,72	0,03767	136,29	499,67	0,05123	
38,74	0,03773	135,34	499,75	0,05136	
38,76	0,03767	138,24	499,69	0,05148	
38,78	0,03758	139,93	499,58	0,05148	
38,80	0,03762	137,82	499,61	0,05148	
38,82	0,03772	136,08	499,73	0,05148	
38,84	0,03772	137,14	499,73	0,05133	
38,86	0,03759	138,89	499,60	0,05117	
38,88	0,03758	138,27	499,57	0,05119	
38,90	0,03792	136,16	499,72	0,05127	
38,92	0,03831	136,20	499,84	0,05134	
38,94	0,1005	137,79	499,77	0,05143	
38,96	0,2994	139,05	499,62	0,05143	
38,98	0,4479	138,09	499,59	0,05126	
39,00	0,4917	136,57	499,69	0,05113	
39,02	0,4924	136,77	499,72	0,05117	
39,04	0,4894	136,84	499,63	0,05134	
39,06	0,4892	135,89	499,58	0,05146	
39,08	0,4897	134,26	499,69	0,05154	
39,10	0,4898	134,32	499,79	0,05149	
39,12	0,4897	136,88	499,72	0,05137	
39,14	0,4896	138,52	499,59	0,05122	
39,16	0,4897	137,24	499,61	0,05116	
39,18	0,4899	135,58	499,74	0,05123	
39,20	0,4902	136,20	499,75	0,05134	
39,22	0,4903	138,11	499,63	0,05142	
39,24	0,4903	138,10	499,57	0,05137	
39,26	0,4904	137,37	499,70	0,05124	
39,28	0,4907	139,32	499,82	0,05107	
39,30	0,4910	144,21	499,76	0,05094	
39,32	0,4912	149,78	499,62	0,05086	
39,34	0,4918	154,37	499,60	0,05080	
39,36	0,4925	160,00	499,70	0,05066	
39,38	0,4932	168,44	499,72	0,05050	
39,40	0,4938	178,04	499,60	0,05030	
39,42	0,4946	186,25	499,55	0,05005	
39,44	0,4956	193,69	499,73	0,04980	
39,46	0,4966	204,64	499,92	0,04952	
39,48	0,4977	219,27	499,87	0,04928	
39,50	0,4988	234,52	499,69	0,04914	
39,52	0,5000	249,22	499,61	0,04896	
39,54	0,5011	264,26	499,68	0,04861	
39,56	0,5026	281,51	499,69	0,04814	
39,58	0,5041	299,98	499,59	0,04771	
39,60	0,5056	317,04	499,58	0,04736	
39,62	0,5073	332,89	499,75	0,04707	
39,64	0,5090	352,96	499,86	0,04679	
39,66	0,5107	377,25	499,76	0,04654	
39,68	0,5125	402,12	499,61	0,04618	
39,70	0,5144	425,05	499,61	0,04572	
39,72	0,5165	448,54	499,70	0,04516	
39,74	0,5186	474,41	499,70	0,04472	
39,76	0,5207	501,26	499,59	0,04445	
39,78	0,5230	526,40	499,58	0,04418	
39,80	0,5255	551,76	499,74	0,04379	
39,82	0,5279	581,49	499,81	0,04331	
39,84	0,5304	613,74	499,71	0,04277	
39,86	0,5329	645,83	499,59	0,04225	
39,88	0,5357	676,90	499,63	0,04175	
39,90	0,5385	708,74	499,75	0,04133	
39,92	0,5411	742,03	499,74	0,04098	
39,94	0,5439	776,24	499,61	0,04062	
39,96	0,5469	809,98	499,57	0,04017	
39,98	0,5501	843,39	499,72	0,03952	
40,00	0,5532	879,64	499,83	0,03871	
40,02	0,5564	918,11	499,75	0,03803	
40,04	0,5596	957,08	499,61	0,03760	
40,06	0,5630	995,11	499,60	0,03716	
40,08	0,5666	1033,6	499,70	0,03661	
40,10	0,5701	1073,4	499,72	0,03593	
40,12	0,5736	1114,3	499,61	0,03519	
40,14	0,5772	1154,6	499,54	0,03446	
40,16	0,5812	1193,9	499,71	0,03371	
40,18	0,5851	1235,7	499,88	0,03291	
40,20	0,5888	1279,4	499,83	0,03223	
40,22	0,5926	1322,4	499,65	0,03156	
40,24	0,5966	1363,7	499,62	0,03086	
40,26	0,6007	1403,7	499,73	0,03008	
40,28	0,6048	1444,9	499,73	0,02922	
40,30	0,6087	1485,6	499,61	0,02834	
40,32	0,6127	1523,2	499,58	0,02742	
40,34	0,6169	1558,6	499,71	0,02650	
40,36	0,6209	1596,7	499,79	0,02567	
40,38	0,6249	1635,8	499,69	0,02484	
40,40	0,6288	1672,3	499,57	0,02388	
40,42	0,6329	1706,0	499,64	0,02279	
40,44	0,6370	1739,4	499,77	0,02163	
40,46	0,6410	1774,1	499,75	0,02056	
40,48	0,6450	1807,9	499,61	0,01956	
40,50	0,6490	1838,5	499,61	0,01861	
40,52	0,6531	1867,2	499,73	0,01758	
40,54	0,6571	1897,8	499,73	0,01644	
40,56	0,6611	1929,4	499,61	0,01525	
40,58	0,6651	1957,1	499,57	0,01397	
40,60	0,6691	1981,0	499,71	0,01255	
40,62	0,6729	2006,8	499,80	0,01122	
40,64	0,6766	2034,0	499,71	0,01006	
40,66	0,6805	2058,6	499,58	0,00891	
40,68	0,6846	2079,8	499,63	0,00765	
40,70	0,6887	2100,3	499,77	0,00620	
40,72	0,6928	2122,2	499,79	0,00462	
40,74	0,6967	2144,1	499,65	0,00308	
40,76	0,7006	2163,7	499,56	0,00164	
40,78	0,7048	2181,8	499,67	0,00018	
40,80	0,7089	2199,8	499,81	-0,00126	
40,82	0,7129	2217,4	499,77	-0,00266	
40,84	0,7168	2234,6	499,62	-0,00423	
40,86	0,7208	2249,9	499,60	-0,00590	
40,88	0,7249	2265,1	499,70	-0,00757	
40,90	0,7290	2281,0	499,71	-0,00923	
40,92	0,7329	2296,3	499,60	-0,01074	
40,94	0,7369	2308,9	499,57	-0,01230	
40,96	0,7411	2319,8	499,74	-0,01397	
40,98	0,7452	2332,8	499,86	-0,01561	
41,00	0,7491	2347,3	499,78	-0,01733	
41,02	0,7527	2361,0	499,62	-0,01910	
41,04	0,7565	2372,8	499,62	-0,02090	
41,06	0,7606	2384,2	499,69	-0,02268	
41,08	0,7646	2396,5	499,67	-0,02432	
41,10	0,7685	2407,2	499,58	-0,02598	
41,12	0,7726	2415,0	499,61	-0,02780	
41,14	0,7767	2422,9	499,77	-0,02973	
41,16	0,7807	2433,9	499,81	-0,03169	
41,18	0,7847	2446,2	499,68	-0,03351	
41,20	0,7886	2457,0	499,57	-0,03533	
41,22	0,7927	2465,0	499,65	-0,03718	
41,24	0,7968	2473,1	499,78	-0,03894	
41,26	0,8009	2482,9	499,75	-0,04062	
41,28	0,8048	2492,0	499,62	-0,04242	
41,30	0,8088	2498,6	499,59	-0,04442	
41,32	0,8129	2505,1	499,69	-0,04643	
41,34	0,8170	2513,7	499,72	-0,04831	
41,36	0,8209	2522,9	499,62	-0,05013	
41,38	0,8249	2529,7	499,59	-0,05195	
41,40	0,8290	2535,1	499,70	-0,05379	
41,42	0,8331	2543,0	499,77	-0,05573	
41,44	0,8371	2553,4	499,67	-0,05778	
41,46	0,8410	2561,5	499,57	-0,05977	
41,48	0,8451	2566,8	499,65	-0,06171	
41,50	0,8492	2572,6	499,78	-0,06363	
41,52	0,8531	2580,7	499,76	-0,06550	
41,54	0,8569	2588,1	499,62	-0,06736	
41,56	0,8607	2593,2	499,58	-0,06925	
41,58	0,8648	2598,5	499,70	-0,07128	
41,60	0,8688	2605,2	499,79	-0,07338	
41,62	0,8727	2612,7	499,70	-0,07537	
41,64	0,8766	2619,2	499,58	-0,07721	
41,66	0,8807	2623,3	499,62	-0,07909	
41,68	0,8848	2628,2	499,75	-0,08099	
41,70	0,8888	2635,4	499,75	-0,08290	
41,72	0,8928	2642,1	499,61	-0,08492	
41,74	0,8968	2646,4	499,58	-0,08702	
41,76	0,9009	2650,2	499,75	-0,08912	
41,78	0,9050	2655,9	499,86	-0,09105	
41,80	0,9089	2662,9	499,76	-0,09287	
41,82	0,9129	2669,1	499,62	-0,09476	
41,84	0,9170	2673,0	499,64	-0,09677	
41,86	0,9211	2678,3	499,70	-0,09885	
41,88	0,9251	2684,8	499,65	-0,1010	
41,90	0,9290	2689,9	499,58	-0,1031	
41,92	0,9331	2693,0	499,64	-0,1051	
41,94	0,9372	2696,5	499,77	-0,1069	
41,96	0,9412	2702,8	499,76	-0,1088	
41,98	0,9449	2710,0	499,63	-0,1108	
42,00	0,9487	2715,1	499,59	-0,1130	
42,02	0,9526	2718,7	499,69	-0,1151	
42,04	0,9567	2723,7	499,74	-0,1171	
42,06	0,9606	2730,2	499,65	-0,1190	
42,08	0,9646	2734,9	499,57	-0,1209	
42,10	0,9687	2737,2	499,64	-0,1228	
42,12	0,9728	2740,8	499,74	-0,1249	
42,14	0,9768	2746,6	499,70	-0,1270	
42,16	0,9807	2751,9	499,58	-0,1292	
42,18	0,9848	2755,0	499,60	-0,1312	
42,20	0,9889	2758,1	499,78	-0,1332	
42,22	0,9929	2763,6	499,84	-0,1351	
42,24	0,9969	2769,6	499,73	-0,1370	
42,26	1,001	2773,8	499,60	-0,1390	
42,28	1,005	2776,6	499,63	-0,1412	
42,30	1,009	2780,4	499,72	-0,1433	
42,32	1,013	2784,8	499,69	-0,1453	
42,34	1,017	2789,0	499,58	-0,1472	
42,36	1,021	2791,7	499,59	-0,1491	
42,38	1,025	2793,8	499,78	-0,1511	
42,40	1,029	2797,8	499,88	-0,1533	
42,42	1,033	2803,5	499,78	-0,1553	
42,44	1,037	2809,2	499,63	-0,1574	
42,46	1,041	2813,6	499,61	-0,1594	
42,48	1,045	2817,0	499,68	-0,1614	
42,50	1,049	2820,4	499,68	-0,1633	
42,52	1,053	2824,2	499,60	-0,1652	
42,54	1,057	2827,3	499,59	-0,1673	
42,56	1,061	2829,4	499,70	-0,1694	
42,58	1,065	2832,4	499,77	-0,1717	
42,60	1,069	2837,5	499,69	-0,1738	
42,62	1,073	2842,5	499,58	-0,1758	
42,64	1,077	2845,2	499,63	-0,1777	
42,66	1,081	2847,5	499,76	-0,1797	
42,68	1,085	2851,2	499,77	-0,1817	
42,70	1,089	2855,9	499,65	-0,1837	
42,72	1,093	2859,6	499,60	-0,1859	
42,74	1,097	2861,8	499,70	-0,1880	
42,76	1,101	2866,0	499,73	-0,1900	
42,78	1,105	2871,7	499,63	-0,1919	
42,80	1,109	2875,1	499,56	-0,1939	
42,82	1,113	2875,6	499,66	-0,1959	
42,84	1,117	2877,7	499,78	-0,1981	
42,86	1,121	2881,9	499,73	-0,2002	
42,88	1,125	2886,3	499,60	-0,2023	
42,90	1,129	2889,0	499,60	-0,2043	
42,92	1,133	2891,1	499,72	-0,2063	
42,94	1,137	2895,2	499,76	-0,2082	
42,96	1,141	2900,3	499,66	-0,2103	
42,98	1,145	2902,8	499,58	-0,2124	
43,00	1,149	2904,0	499,64	-0,2145	
43,02	1,153	2906,4	499,73	-0,2167	
43,04	1,157	2910,6	499,69	-0,2186	
43,06	1,161	2914,6	499,59	-0,2206	
43,08	1,165	2917,1	499,62	-0,2227	
43,10	1,169	2919,9	499,74	-0,2248	
43,12	1,173	2924,7	499,75	-0,2269	
43,14	1,177	2929,6	499,64	-0,2291	
43,16	1,181	2931,9	499,58	-0,2311	
43,18	1,185	2932,7	499,67	-0,2331	
43,20	1,189	2935,3	499,75	-0,2351	
43,22	1,193	2939,4	499,69	-0,2371	
43,24	1,197	2942,6	499,58	-0,2392	
43,26	1,201	2944,4	499,61	-0,2413	
43,28	1,205	2946,4	499,76	-0,2435	
43,30	1,209	2949,9	499,81	-0,2455	
43,32	1,213	2954,2	499,69	-0,2475	
43,34	1,217	2957,2	499,61	-0,2495	
43,36	1,221	2958,7	499,66	-0,2515	
43,38	1,225	2962,0	499,69	-0,2537	
43,40	1,229	2966,4	499,62	-0,2558	
43,42	1,233	2968,9	499,57	-0,2580	
43,44	1,237	2968,3	499,68	-0,2601	
43,46	1,241	2969,8	499,79	-0,2621	
43,48	1,245	2974,7	499,74	-0,2641	
43,50	1,249	2979,3	499,61	-0,2661	
43,52	1,253	2982,1	499,58	-0,2682	
43,54	1,257	2983,2	499,71	-0,2704	
43,56	1,261	2985,7	499,78	-0,2726	
43,58	1,265	2989,2	499,70	-0,2747	
43,60	1,269	2991,8	499,59	-0,2766	
43,62	1,273	2992,4	499,63	-0,2787	
43,64	1,277	2993,9	499,74	-0,2808	
43,66	1,281	2997,7	499,72	-0,2830	
43,68	1,285	3001,7	499,60	-0,2851	
43,70	1,289	3002,6	499,60	-0,2872	
43,72	1,293	3002,8	499,73	-0,2893	
43,74	1,297	3006,0	499,77	-0,2914	
43,76	1,301	3010,9	499,67	-0,2935	
43,78	1,305	3013,5	499,57	-0,2956	
43,80	1,309	3014,7	499,65	-0,2978	
43,82	1,313	3017,0	499,76	-0,3000	
43,84	1,317	3021,0	499,72	-0,3021	
43,86	1,321	3024,5	499,60	-0,3041	
43,88	1,325	3025,7	499,61	-0,3062	
43,90	1,329	3026,3	499,74	-0,3083	
43,92	1,333	3029,2	499,77	-0,3104	
43,94	1,337	3033,6	499,66	-0,3126	
43,96	1,341	3036,1	499,57	-0,3148	
43,98	1,345	3036,6	499,64	-0,3170	
44,00	1,349	3038,3	499,75	-0,3191	
44,02	1,353	3041,4	499,73	-0,3211	
44,04	1,357	3044,7	499,61	-0,3231	
44,06	1,361	3046,6	499,58	-0,3251	
44,08	1,365	3047,2	499,70	-0,3273	
44,10	1,369	3049,5	499,77	-0,3296	
44,12	1,373	3053,6	499,68	-0,3318	
44,14	1,377	3056,3	499,58	-0,3339	
44,16	1,381	3056,4	499,62	-0,3359	
44,18	1,385	3057,7	499,75	-0,3380	
44,20	1,389	3061,3	499,75	-0,3402	
44,22	1,393	3065,4	499,63	-0,3425	
44,24	1,397	3067,2	499,59	-0,3447	
44,26	1,401	3067,4	499,70	-0,3469	
44,28	1,405	3070,0	499,76	-0,3490	
44,30	1,409	3074,6	499,66	-0,3510	
44,32	1,413	3076,8	499,58	-0,3530	
44,34	1,417	3076,5	499,67	-0,3553	
44,36	1,421	3077,7	499,79	-0,3576	
44,38	1,425	3081,2	499,75	-0,3598	
44,40	1,429	3084,2	499,62	-0,3619	
44,42	1,433	3085,5	499,62	-0,3640	
44,44	1,437	3086,4	499,72	-0,3660	
44,46	1,441	3089,5	499,73	-0,3681	
44,48	1,445	3092,9	499,62	-0,3702	
44,50	1,449	3093,8	499,59	-0,3725	
44,52	1,453	3093,4	499,71	-0,3748	
44,54	1,457	3095,9	499,78	-0,3769	
44,56	1,461	3100,3	499,70	-0,3790	
44,58	1,465	3103,1	499,59	-0,3812	
44,60	1,469	3103,2	499,64	-0,3833	
44,62	1,473	3104,7	499,72	-0,3854	
44,64	1,477	3108,2	499,69	-0,3877	
44,66	1,481	3110,7	499,57	-0,3899	
44,68	1,485	3111,1	499,61	-0,3921	
44,70	1,489	3110,9	499,79	-0,3942	
44,72	1,493	3113,6	499,84	-0,3963	
44,74	1,497	3118,2	499,72	-0,3984	
44,76	1,501	3120,9	499,63	-0,4007	
44,78	1,505	3122,0	499,67	-0,4030	
44,80	1,509	3124,6	499,68	-0,4053	
44,82	1,513	3128,6	499,60	-0,4074	
44,84	1,517	3129,7	499,60	-0,4096	
44,86	1,521	3127,9	499,76	-0,4116	
44,88	1,525	3128,8	499,85	-0,4137	
44,90	1,529	3133,2	499,75	-0,4160	
44,92	1,533	3137,0	499,61	-0,4182	
44,94	1,537	3138,5	499,61	-0,4205	
44,96	1,541	3140,0	499,69	-0,4226	
44,98	1,545	3142,4	499,69	-0,4247	
45,00	1,549	3144,3	499,59	-0,4267	
45,02	1,553	3144,1	499,61	-0,4289	
45,04	1,557	3143,9	499,79	-0,4312	
45,06	1,561	3146,7	499,86	-0,4335	
45,08	1,565	3150,9	499,74	-0,4358	
45,10	1,569	3154,1	499,62	-0,4380	
45,12	1,573	3155,0	499,69	-0,4402	
45,14	1,577	3157,2	499,74	-0,4423	
45,16	1,581	3160,1	499,66	-0,4444	
45,18	1,585	3161,2	499,56	-0,4466	
45,20	1,589	3159,7	499,65	-0,4490	
45,22	1,593	3159,4	499,80	-0,4513	
45,24	1,597	3163,0	499,78	-0,4536	
45,26	1,601	3166,9	499,64	-0,4556	
45,28	1,605	3168,3	499,59	-0,4578	
45,30	1,609	3168,3	499,69	-0,4600	
45,32	1,613	3169,9	499,75	-0,4622	
45,34	1,617	3172,9	499,66	-0,4645	
45,36	1,621	3174,4	499,58	-0,4668	
45,38	1,625	3174,0	499,66	-0,4691	
45,40	1,629	3175,2	499,75	-0,4713	
45,42	1,633	3178,7	499,70	-0,4734	
45,44	1,637	3181,4	499,58	-0,4756	
45,46	1,641	3181,7	499,61	-0,4778	
45,48	1,645	3181,5	499,77	-0,4802	
45,50	1,649	3183,8	499,83	-0,4826	
45,52	1,653	3187,2	499,71	-0,4848	
45,54	1,657	3190,2	499,60	-0,4868	
45,56	1,661	3191,5	499,66	-0,4890	
45,58	1,665	3193,2	499,72	-0,4907	
45,60	1,669	3196,2	499,65	-0,4920	
45,62	1,673	3197,7	499,57	-0,4939	
45,64	1,677	3196,4	499,66	-0,4961	
45,66	1,681	3196,0	499,83	-0,4983	
45,68	1,685	3198,6	499,84	-0,5004	
45,70	1,689	3201,6	499,69	-0,5026	
45,72	1,693	3203,4	499,64	-0,5049	
45,74	1,697	3203,9	499,72	-0,5072	
45,76	1,701	3206,9	499,70	-0,5095	
45,78	1,705	3210,1	499,59	-0,5118	
45,80	1,709	3209,5	499,60	-0,5142	
45,82	1,713	3207,2	499,75	-0,5174	
45,84	1,717	3208,7	499,82	-0,5206	
45,86	1,721	3212,4	499,71	-0,5231	
45,88	1,725	3215,2	499,60	-0,5255	
45,90	1,729	3216,0	499,67	-0,5278	
45,92	1,733	3217,7	499,77	-0,5301	
45,94	1,737	3220,5	499,71	-0,5324	
45,96	1,741	3223,2	499,60	-0,5345	
45,98	1,745	3222,9	499,63	-0,5367	
46,00	1,749	3222,9	499,70	-0,5390	
46,02	1,753	3225,7	499,66	-0,5414	
46,04	1,757	3227,7	499,57	-0,5438	
46,06	1,761	3226,6	499,65	-0,5462	
46,08	1,765	3226,1	499,81	-0,5485	
46,10	1,769	3229,0	499,82	-0,5507	
46,12	1,773	3233,0	499,67	-0,5529	
46,14	1,777	3234,8	499,63	-0,5552	
46,16	1,781	3235,0	499,73	-0,5577	
46,18	1,785	3237,4	499,73	-0,5601	
46,20	1,789	3240,6	499,61	-0,5623	
46,22	1,793	3240,8	499,59	-0,5646	
46,24	1,797	3238,8	499,74	-0,5668	
46,26	1,801	3240,2	499,80	-0,5692	
46,28	1,805	3243,6	499,70	-0,5715	
46,30	1,809	3245,2	499,62	-0,5738	
46,32	1,813	3245,3	499,65	-0,5762	
46,34	1,817	3247,6	499,65	-0,5786	
46,36	1,821	3250,5	499,60	-0,5810	
46,38	1,825	3250,6	499,66	-0,5833	
46,40	1,829	3249,3	499,76	-0,5856	
46,42	1,833	3251,5	499,73	-0,5879	
46,44	1,837	3256,0	499,61	-0,5903	
46,46	1,841	3257,4	499,60	-0,5928	
46,48	1,845	3256,9	499,74	-0,5952	
46,50	1,849	3258,4	499,77	-0,5975	
46,52	1,853	3261,0	499,66	-0,5997	
46,54	1,857	3262,2	499,58	-0,6020	
46,56	1,861	3261,9	499,66	-0,6044	
46,58	1,865	3262,4	499,75	-0,6069	
46,60	1,869	3265,0	499,69	-0,6093	
46,62	1,873	3267,5	499,58	-0,6117	
46,64	1,877	3266,8	499,63	-0,6139	
46,66	1,881	3266,3	499,76	-0,6162	
46,68	1,885	3268,3	499,77	-0,6186	
46,70	1,889	3271,1	499,64	-0,6209	
46,72	1,893	3272,2	499,60	-0,6234	
46,74	1,897	3272,1	499,71	-0,6258	
46,76	1,901	3273,7	499,76	-0,6281	
46,78	1,905	3276,7	499,67	-0,6304	
46,80	1,909	3278,3	499,59	-0,6327	
46,82	1,913	3277,2	499,67	-0,6352	
46,84	1,917	3278,1	499,73	-0,6376	
46,86	1,921	3281,6	499,65	-0,6400	
46,88	1,925	3283,7	499,56	-0,6425	
46,90	1,929	3282,1	499,66	-0,6451	
46,92	1,933	3281,4	499,82	-0,6475	
46,94	1,937	3284,1	499,80	-0,6498	
46,96	1,941	3287,5	499,66	-0,6520	
46,98	1,945	3288,2	499,59	-0,6544	
47,00	1,949	3288,2	499,67	-0,6568	
47,02	1,953	3289,8	499,71	-0,6593	
47,04	1,957	3291,6	499,64	-0,6617	
47,06	1,961	3292,5	499,56	-0,6641	
47,08	1,965	3292,2	499,66	-0,6666	
47,10	1,969	3292,7	499,81	-0,6689	
47,12	1,973	3295,2	499,80	-0,6713	
47,14	1,977	3298,0	499,65	-0,6737	
47,16	1,981	3299,0	499,59	-0,6763	
47,18	1,985	3299,0	499,68	-0,6788	
47,20	1,989	3300,2	499,73	-0,6811	
47,22	1,993	3301,7	499,65	-0,6834	
47,24	1,997	3302,0	499,57	-0,6858	
47,26	2,001	3301,3	499,66	-0,6882	
47,28	2,005	3302,2	499,79	-0,6908	
47,30	2,009	3305,2	499,75	-0,6933	
47,32	2,013	3308,2	499,61	-0,6958	
47,34	2,017	3308,3	499,63	-0,6982	
47,36	2,021	3308,2	499,74	-0,7006	
47,38	2,025	3310,1	499,72	-0,7029	
47,40	2,029	3312,1	499,61	-0,7054	
47,42	2,033	3311,5	499,61	-0,7079	
47,44	2,037	3310,3	499,73	-0,7104	
47,46	2,041	3312,3	499,74	-0,7129	
47,48	2,045	3316,4	499,62	-0,7153	
47,50	2,049	3317,7	499,59	-0,7176	
47,52	2,053	3316,4	499,71	-0,7200	
47,54	2,057	3317,2	499,79	-0,7225	
47,56	2,061	3320,2	499,70	-0,7250	
47,58	2,065	3322,0	499,60	-0,7275	
47,60	2,069	3321,6	499,65	-0,7301	
47,62	2,073	3322,5	499,70	-0,7325	
47,64	2,077	3324,7	499,64	-0,7349	
47,66	2,081	3325,6	499,58	-0,7372	
47,68	2,085	3323,3	499,68	-0,7396	
47,70	2,089	3322,6	499,82	-0,7422	
47,72	2,093	3325,2	499,79	-0,7447	
47,74	2,097	3328,3	499,64	-0,7472	
47,76	2,101	3329,3	499,62	-0,7495	
47,78	2,105	3330,1	499,74	-0,7520	
47,80	2,109	3332,9	499,75	-0,7545	
47,82	2,113	3335,4	499,63	-0,7570	
47,84	2,117	3335,2	499,59	-0,7595	
47,86	2,121	3333,5	499,71	-0,7620	
47,88	2,125	3334,9	499,76	-0,7645	
47,90	2,129	3337,9	499,66	-0,7669	
47,92	2,133	3339,1	499,58	-0,7692	
47,94	2,137	3338,3	499,67	-0,7717	
47,96	2,141	3339,1	499,77	-0,7742	
47,98	2,145	3341,2	499,71	-0,7768	
48,00	2,149	3342,3	499,59	-0,7794	
48,02	2,153	3341,1	499,63	-0,7819	
48,04	2,157	3341,1	499,75	-0,7843	
48,06	2,161	3343,4	499,74	-0,7867	
48,08	2,165	3345,5	499,62	-0,7891	
48,10	2,169	3345,3	499,60	-0,7916	
48,12	2,173	3345,2	499,70	-0,7943	
48,14	2,177	3347,2	499,73	-0,7969	
48,16	2,181	3350,6	499,63	-0,7993	
48,18	2,185	3351,5	499,58	-0,8017	
48,20	2,189	3350,3	499,68	-0,8042	
48,22	2,193	3351,0	499,74	-0,8067	
48,24	2,197	3353,9	499,65	-0,8093	
48,26	2,201	3355,0	499,58	-0,8119	
48,28	2,205	3353,9	499,67	-0,8144	
48,30	2,209	3354,5	499,77	-0,8169	
48,32	2,213	3357,2	499,71	-0,8194	
48,34	2,217	3358,9	499,60	-0,8218	
48,36	2,221	3357,6	499,64	-0,8243	
48,38	2,225	3357,2	499,75	-0,8269	
48,40	2,229	3359,7	499,74	-0,8295	
48,42	2,233	3362,3	499,62	-0,8321	
48,44	2,237	3362,3	499,60	-0,8346	
48,46	2,241	3361,8	499,71	-0,8371	
48,48	2,245	3362,9	499,74	-0,8396	
48,50	2,249	3365,1	499,64	-0,8421	
48,52	2,253	3365,2	499,60	-0,8448	
48,54	2,257	3364,4	499,69	-0,8474	
48,56	2,261	3365,8	499,74	-0,8499	
48,58	2,265	3368,4	499,65	-0,8525	
48,60	2,269	3369,2	499,57	-0,8550	
48,62	2,273	3367,8	499,69	-0,8574	
48,64	2,277	3367,9	499,83	-0,8599	
48,66	2,281	3370,3	499,79	-0,8625	
48,68	2,285	3372,6	499,65	-0,8651	
48,70	2,289	3373,1	499,62	-0,8676	
48,72	2,293	3372,8	499,70	-0,8702	
48,74	2,297	3374,2	499,69	-0,8728	
48,76	2,301	3375,8	499,59	-0,8753	
48,78	2,305	3376,0	499,60	-0,8778	
48,80	2,309	3375,0	499,74	-0,8805	
48,82	2,313	3376,0	499,80	-0,8831	
48,84	2,317	3379,4	499,69	-0,8857	
48,86	2,321	3381,9	499,61	-0,8882	
48,88	2,325	3381,2	499,69	-0,8908	
48,90	2,329	3381,6	499,72	-0,8933	
48,92	2,333	3384,2	499,63	-0,8958	
48,94	2,337	3384,6	499,60	-0,8984	
48,96	2,341	3382,0	499,70	-0,9011	
48,98	2,345	3382,2	499,73	-0,9036	
49,00	2,349	3384,8	499,62	-0,9062	
49,02	2,353	3386,1	499,57	-0,9088	
49,04	2,357	3384,3	499,72	-0,9114	
49,06	2,361	3383,9	499,87	-0,9140	
49,08	2,365	3386,6	499,80	-0,9165	
49,10	2,369	3389,2	499,65	-0,9192	
49,12	2,373	3388,8	499,69	-0,9219	
49,14	2,377	3389,5	499,80	-0,9246	
49,16	2,381	3393,1	499,73	-0,9271	
49,18	2,385	3395,6	499,61	-0,9296	
49,20	2,389	3393,8	499,63	-0,9322	
49,22	2,393	3392,5	499,70	-0,9349	
49,24	2,397	3394,5	499,64	-0,9376	
49,26	2,401	3395,9	499,58	-0,9403	
49,28	2,405	3394,5	499,69	-0,9429	
49,30	2,409	3394,1	499,79	-0,9455	
49,32	2,413	3396,8	499,71	-0,9481	
49,34	2,417	3399,0	499,61	-0,9507	
49,36	2,421	3397,7	499,69	-0,9533	
49,38	2,425	3397,4	499,75	-0,9560	
49,40	2,429	3400,3	499,66	-0,9587	
49,42	2,433	3401,3	499,58	-0,9614	
49,44	2,437	3398,9	499,67	-0,9640	
49,46	2,441	3398,3	499,76	-0,9666	
49,48	2,445	3400,7	499,70	-0,9692	
49,50	2,449	3402,9	499,59	-0,9718	
49,52	2,453	3403,1	499,63	-0,9746	
49,54	2,457	3403,6	499,77	-0,9773	
49,56	2,461	3406,1	499,77	-0,9801	
49,58	2,465	3409,0	499,63	-0,9826	
49,60	2,469	3408,9	499,60	-0,9852	
49,62	2,473	3407,3	499,73	-0,9879	
49,64	2,477	3408,7	499,77	-0,9906	
49,66	2,481	3411,9	499,65	-0,9932	
49,68	2,485	3412,1	499,59	-0,9960	
49,70	2,489	3409,8	499,69	-0,9988	
49,72	2,493	3409,8	499,76	-1,001	
49,74	2,497	3412,0	499,66	-1,004	
49,76	2,501	3413,2	499,55	-1,007	
49,78	2,505	3411,4	499,70	-1,010	
49,80	2,509	3410,8	499,93	-1,012	
49,82	2,513	3413,4	499,91	-1,015	
49,84	2,517	3416,1	499,72	-1,018	
49,86	2,521	3415,9	499,64	-1,020	
49,88	2,525	3415,0	499,70	-1,023	
49,90	2,529	3417,1	499,67	-1,026	
49,92	2,533	3419,0	499,58	-1,029	
49,94	2,537	3417,0	499,65	-1,031	
49,96	2,541	3414,5	499,77	-1,034	
49,98	2,545	3416,5	499,73	-1,037	
50,00	2,549	3420,5	499,59	-1,039	
50,02	2,553	3421,2	499,61	-1,042	
50,04	2,557	3420,1	499,79	-1,045	
50,06	2,561	3421,0	499,83	-1,048	
50,08	2,565	3422,8	499,69	-1,050	
50,10	2,569	3423,2	499,60	-1,053	
50,12	2,573	3422,2	499,69	-1,056	
50,14	2,577	3423,2	499,71	-1,059	
50,16	2,581	3425,5	499,61	-1,061	
50,18	2,585	3425,4	499,59	-1,064	
50,20	2,589	3422,3	499,77	-1,067	
50,22	2,593	3422,6	499,88	-1,070	
50,24	2,597	3426,5	499,77	-1,073	
50,26	2,601	3428,6	499,62	-1,075	
50,28	2,605	3427,4	499,69	-1,078	
50,30	2,609	3427,3	499,80	-1,081	
50,32	2,613	3429,5	499,73	-1,084	
50,34	2,617	3430,2	499,61	-1,087	
50,36	2,621	3428,3	499,64	-1,089	
50,38	2,625	3427,7	499,71	-1,092	
50,40	2,629	3430,2	499,64	-1,095	
50,42	2,633	3430,9	499,57	-1,098	
50,44	2,637	3428,5	499,67	-1,101	
50,46	2,641	3427,5	499,83	-1,103	
50,48	2,645	3430,4	499,82	-1,106	
50,50	2,649	3434,5	499,66	-1,109	
50,52	2,653	3436,1	499,63	-1,112	
50,54	2,657	3434,8	499,77	-1,115	
50,56	2,661	3435,5	499,78	-1,118	
50,58	2,665	3436,9	499,65	-1,120	
50,60	2,669	3435,9	499,62	-1,123	
50,62	2,673	3434,0	499,68	-1,126	
50,64	2,677	3435,5	499,66	-1,129	
50,66	2,681	3437,6	499,58	-1,132	
50,68	2,685	3436,0	499,65	-1,134	
50,70	2,689	3433,1	499,79	-1,137	
50,72	2,693	3434,8	499,77	-1,140	
50,74	2,697	3438,4	499,64	-1,143	
50,76	2,701	3438,9	499,61	-1,145	
50,78	2,705	3437,4	499,72	-1,148	
50,80	2,709	3438,0	499,75	-1,151	
50,82	2,713	3440,2	499,64	-1,154	
50,84	2,717	3440,3	499,59	-1,157	
50,86	2,721	3439,0	499,69	-1,160	
50,88	2,725	3439,8	499,76	-1,163	
50,90	2,729	3442,2	499,68	-1,165	
50,92	2,733	3443,2	499,60	-1,168	
50,94	2,737	3442,5	499,67	-1,171	
50,96	2,742	3443,2	499,73	-1,174	
50,98	2,745	3445,3	499,66	-1,177	
51,00	2,749	3446,3	499,58	-1,179	
51,02	2,753	3444,1	499,68	-1,182	
51,04	2,757	3443,3	499,79	-1,185	
51,06	2,761	3445,1	499,75	-1,188	
51,08	2,765	3446,8	499,61	-1,191	
51,10	2,769	3446,2	499,62	-1,194	
51,12	2,773	3445,8	499,74	-1,196	
51,14	2,777	3447,6	499,76	-1,199	
51,16	2,781	3449,7	499,65	-1,202	
51,18	2,785	3449,4	499,62	-1,205	
51,20	2,789	3448,3	499,71	-1,208	
51,22	2,793	3449,7	499,74	-1,211	
51,24	2,797	3452,3	499,63	-1,213	
51,26	2,801	3452,3	499,59	-1,216	
51,28	2,805	3449,4	499,69	-1,219	
51,30	2,809	3449,3	499,74	-1,222	
51,32	2,813	3451,9	499,66	-1,225	
51,34	2,817	3453,2	499,59	-1,227	
51,36	2,821	3452,0	499,67	-1,230	
51,38	2,825	3452,1	499,72	-1,233	
51,40	2,829	3454,6	499,65	-1,236	
51,42	2,833	3455,6	499,59	-1,239	
51,44	2,837	3454,2	499,68	-1,242	
51,46	2,841	3454,0	499,77	-1,244	
51,48	2,845	3456,5	499,71	-1,247	
51,50	2,849	3458,1	499,61	-1,250	
51,52	2,853	3456,8	499,63	-1,253	
51,54	2,857	3456,8	499,72	-1,256	
51,56	2,861	3458,6	499,70	-1,259	
51,58	2,865	3460,0	499,59	-1,261	
51,60	2,869	3459,6	499,59	-1,264	
51,62	2,873	3458,3	499,76	-1,267	
51,64	2,877	3458,7	499,86	-1,270	
51,66	2,881	3461,1	499,76	-1,273	
51,68	2,885	3463,2	499,63	-1,276	
51,70	2,889	3462,7	499,69	-1,278	
51,72	2,893	3462,2	499,77	-1,281	
51,74	2,897	3462,8	499,70	-1,284	
51,76	2,901	3463,2	499,61	-1,287	
51,78	2,905	3461,2	499,66	-1,290	
51,80	2,909	3460,3	499,72	-1,293	
51,82	2,913	3463,4	499,65	-1,295	
51,84	2,917	3465,9	499,58	-1,298	
51,86	2,921	3464,1	499,69	-1,301	
51,88	2,925	3463,4	499,81	-1,304	
51,90	2,929	3466,0	499,75	-1,307	
51,92	2,933	3468,2	499,62	-1,310	
51,94	2,937	3466,9	499,65	-1,312	
51,96	2,942	3466,6	499,72	-1,315	
51,98	2,945	3468,7	499,66	-1,318	
52,00	2,949	3469,8	499,58	-1,321	
52,02	2,953	3467,5	499,65	-1,324	
52,04	2,957	3465,4	499,78	-1,327	
52,06	2,961	3467,0	499,77	-1,330	
52,08	2,965	3469,6	499,64	-1,332	
52,10	2,969	3469,5	499,61	-1,335	
52,12	2,973	3468,5	499,71	-1,338	
52,14	2,977	3469,9	499,72	-1,341	
52,16	2,981	3472,5	499,61	-1,344	
52,18	2,985	3472,4	499,60	-1,347	
52,20	2,989	3469,9	499,75	-1,350	
52,22	2,993	3470,1	499,81	-1,352	
52,24	2,997	3472,3	499,71	-1,355	
52,26	3,001	3473,3	499,61	-1,358	
52,28	3,005	3472,5	499,65	-1,361	
52,30	3,009	3473,3	499,72	-1,364	
52,32	3,013	3475,6	499,66	-1,367	
52,34	3,017	3476,6	499,58	-1,370	
52,36	3,021	3475,0	499,66	-1,373	
52,38	3,026	3473,7	499,77	-1,376	
52,40	3,030	3474,8	499,72	-1,378	
52,42	3,033	3476,6	499,60	-1,381	
52,44	3,037	3476,1	499,61	-1,384	
52,46	3,041	3475,0	499,73	-1,387	
52,48	3,045	3476,5	499,75	-1,390	
52,50	3,049	3478,8	499,64	-1,393	
52,52	3,053	3478,6	499,58	-1,396	
52,54	3,057	3477,1	499,68	-1,399	
52,56	3,061	3477,1	499,78	-1,402	
52,58	3,065	3478,9	499,72	-1,405	
52,60	3,069	3480,0	499,62	-1,407	
52,62	3,073	3478,7	499,67	-1,410	
52,64	3,077	3478,7	499,72	-1,413	
52,66	3,081	3481,3	499,64	-1,416	
52,68	3,085	3482,0	499,59	-1,419	
52,70	3,089	3479,2	499,71	-1,422	
52,72	3,093	3478,0	499,81	-1,425	
52,74	3,097	3480,6	499,73	-1,428	
52,76	3,101	3482,8	499,61	-1,431	
52,78	3,105	3481,7	499,64	-1,434	
52,80	3,109	3481,1	499,69	-1,437	
52,82	3,113	3482,4	499,64	-1,439	
52,84	3,117	3483,2	499,58	-1,442	
52,86	3,121	3481,1	499,69	-1,445	
52,88	3,125	3480,2	499,82	-1,448	
52,90	3,129	3482,6	499,78	-1,451	
52,92	3,133	3485,9	499,64	-1,454	
52,94	3,137	3486,0	499,67	-1,457	
52,96	3,141	3485,1	499,79	-1,460	
52,98	3,145	3486,3	499,75	-1,463	
53,00	3,149	3487,7	499,62	-1,466	
53,02	3,153	3485,5	499,66	-1,469	
53,04	3,157	3483,5	499,74	-1,472	
53,06	3,161	3485,1	499,68	-1,475	
53,08	3,165	3486,5	499,58	-1,477	
53,10	3,169	3484,4	499,65	-1,480	
53,12	3,173	3482,8	499,77	-1,483	
53,14	3,177	3484,8	499,74	-1,486	
53,16	3,181	3486,9	499,63	-1,489	
53,18	3,185	3486,5	499,63	-1,492	
53,20	3,189	3486,2	499,69	-1,495	
53,22	3,193	3488,8	499,64	-1,498	
53,24	3,197	3490,5	499,58	-1,501	
53,26	3,201	3487,8	499,69	-1,504	
53,28	3,205	3486,2	499,80	-1,507	
53,30	3,209	3488,9	499,74	-1,510	
53,32	3,213	3491,7	499,62	-1,513	
53,34	3,217	3490,6	499,65	-1,516	
53,36	3,222	3489,6	499,73	-1,519	
53,38	3,225	3491,3	499,68	-1,522	
53,40	3,229	3492,1	499,59	-1,525	
53,42	3,233	3489,5	499,65	-1,528	
53,44	3,237	3487,2	499,80	-1,531	
53,46	3,241	3488,0	499,80	-1,534	
53,48	3,245	3489,9	499,67	-1,537	
53,50	3,249	3490,4	499,64	-1,539	
53,52	3,253	3490,2	499,72	-1,543	
53,54	3,257	3491,5	499,71	-1,546	
53,56	3,261	3493,4	499,60	-1,549	
53,58	3,265	3492,6	499,61	-1,551	
53,60	3,269	3490,2	499,74	-1,554	
53,62	3,273	3491,0	499,75	-1,557	
53,64	3,277	3493,1	499,64	-1,560	
53,66	3,281	3492,8	499,62	-1,563	
53,68	3,285	3491,8	499,68	-1,566	
53,70	3,289	3493,3	499,65	-1,570	
53,72	3,293	3495,6	499,59	-1,572	
53,74	3,297	3494,0	499,67	-1,575	
53,76	3,301	3491,3	499,81	-1,579	
53,78	3,306	3492,6	499,79	-1,582	
53,80	3,309	3495,7	499,65	-1,585	
53,82	3,313	3496,0	499,63	-1,587	
53,84	3,317	3494,6	499,73	-1,590	
53,86	3,321	3495,8	499,71	-1,593	
53,88	3,325	3497,3	499,60	-1,596	
53,90	3,329	3495,6	499,63	-1,600	
53,92	3,333	3493,2	499,78	-1,603	
53,94	3,337	3494,1	499,81	-1,606	
53,96	3,341	3496,3	499,68	-1,609	
53,98	3,345	3496,8	499,62	-1,612	
54,00	3,349	3495,2	499,73	-1,615	
54,02	3,353	3496,0	499,76	-1,618	
54,04	3,357	3498,7	499,65	-1,621	
54,06	3,361	3497,8	499,60	-1,624	
54,08	3,365	3494,5	499,70	-1,627	
54,10	3,369	3494,2	499,74	-1,630	
54,12	3,373	3496,1	499,64	-1,633	
54,14	3,377	3496,4	499,58	-1,636	
54,16	3,381	3494,5	499,70	-1,639	
54,18	3,385	3494,3	499,82	-1,642	
54,20	3,389	3497,3	499,76	-1,645	
54,22	3,393	3499,7	499,63	-1,648	
54,24	3,397	3498,8	499,63	-1,651	
54,26	3,402	3498,0	499,69	-1,654	
54,28	3,406	3499,2	499,65	-1,657	
54,30	3,409	3499,6	499,58	-1,660	
54,32	3,414	3497,2	499,67	-1,664	
54,34	3,418	3495,2	499,85	-1,667	
54,36	3,422	3496,5	499,84	-1,670	
54,38	3,425	3499,3	499,69	-1,673	
54,40	3,429	3499,5	499,66	-1,676	
54,42	3,433	3497,9	499,75	-1,679	
54,44	3,437	3498,6	499,71	-1,682	
54,46	3,441	3499,8	499,61	-1,685	
54,48	3,445	3498,3	499,67	-1,688	
54,50	3,449	3496,6	499,74	-1,691	
54,52	3,453	3498,9	499,67	-1,694	
54,54	3,457	3501,4	499,57	-1,697	
54,56	3,461	3499,6	499,67	-1,701	
54,58	3,465	3497,5	499,88	-1,704	
54,60	3,469	3498,3	499,90	-1,707	
54,62	3,473	3500,0	499,74	-1,710	
54,64	3,477	3500,4	499,64	-1,713	
54,66	3,481	3499,7	499,70	-1,716	
54,68	3,485	3501,2	499,70	-1,719	
54,70	3,489	3503,1	499,61	-1,722	
54,72	3,493	3501,4	499,63	-1,725	
54,74	3,498	3497,8	499,74	-1,728	
54,76	3,502	3497,8	499,76	-1,731	
54,78	3,505	3500,4	499,64	-1,735	
54,80	3,509	3500,2	499,62	-1,738	
54,82	3,513	3498,2	499,73	-1,741	
54,84	3,517	3499,2	499,76	-1,744	
54,86	3,521	3502,2	499,65	-1,747	
54,88	3,525	3502,6	499,61	-1,750	
54,90	3,529	3500,2	499,71	-1,753	
54,92	3,533	3500,4	499,73	-1,756	
54,94	3,537	3502,6	499,63	-1,759	
54,96	3,541	3502,6	499,59	-1,763	
54,98	3,545	3500,2	499,71	-1,766	
55,00	3,549	3500,3	499,77	-1,769	
55,02	3,553	3502,6	499,67	-1,772	
55,04	3,557	3503,8	499,61	-1,775	
55,06	3,561	3502,3	499,71	-1,778	
55,08	3,565	3502,4	499,75	-1,782	
55,10	3,569	3504,2	499,65	-1,785	
55,12	3,573	3503,4	499,61	-1,788	
55,14	3,577	3500,1	499,70	-1,791	
55,16	3,581	3500,5	499,71	-1,794	
55,18	3,585	3502,9	499,62	-1,797	
55,20	3,589	3502,7	499,62	-1,800	
55,22	3,594	3500,6	499,74	-1,804	
55,24	3,598	3501,3	499,75	-1,807	
55,26	3,601	3503,3	499,64	-1,810	
55,28	3,605	3503,0	499,64	-1,813	
55,30	3,609	3501,4	499,70	-1,816	
55,32	3,613	3502,9	499,66	-1,819	
55,34	3,617	3504,8	499,59	-1,823	
55,36	3,621	3502,7	499,66	-1,826	
55,38	3,625	3500,6	499,77	-1,829	
55,40	3,629	3501,8	499,72	-1,832	
55,42	3,633	3503,6	499,61	-1,835	
55,44	3,637	3503,0	499,64	-1,838	
55,46	3,641	3501,8	499,75	-1,842	
55,48	3,645	3503,1	499,72	-1,845	
55,50	3,649	3504,5	499,61	-1,848	
55,52	3,653	3503,2	499,63	-1,851	
55,54	3,657	3501,7	499,77	-1,855	
55,56	3,661	3503,1	499,78	-1,858	
55,58	3,665	3505,2	499,66	-1,861	
55,60	3,669	3504,0	499,63	-1,864	
55,62	3,673	3502,1	499,70	-1,867	
55,64	3,677	3503,4	499,68	-1,870	
55,66	3,681	3505,0	499,60	-1,874	
55,68	3,686	3502,7	499,66	-1,877	
55,70	3,690	3500,1	499,77	-1,880	
55,72	3,694	3501,2	499,73	-1,883	
55,74	3,698	3503,1	499,62	-1,886	
55,76	3,701	3502,1	499,65	-1,890	
55,78	3,705	3500,6	499,74	-1,893	
55,80	3,709	3501,7	499,69	-1,896	
55,82	3,713	3503,2	499,59	-1,899	
55,84	3,717	3502,1	499,65	-1,903	
55,86	3,721	3501,3	499,75	-1,906	
55,88	3,725	3503,1	499,70	-1,909	
55,90	3,729	3504,3	499,60	-1,912	
55,92	3,733	3502,5	499,64	-1,915	
55,94	3,737	3501,3	499,74	-1,919	
55,96	3,741	3503,2	499,71	-1,922	
55,98	3,745	3505,2	499,60	-1,925	
56,00	3,749	3503,8	499,62	-1,928	
56,02	3,753	3501,3	499,75	-1,932	
56,04	3,757	3501,7	499,76	-1,935	
56,06	3,761	3503,4	499,64	-1,938	
56,08	3,765	3503,1	499,61	-1,942	
56,10	3,769	3501,4	499,71	-1,945	
56,12	3,774	3501,7	499,74	-1,948	
56,14	3,777	3503,4	499,64	-1,951	
56,16	3,781	3502,8	499,62	-1,955	
56,18	3,786	3500,6	499,69	-1,958	
56,20	3,790	3501,3	499,68	-1,961	
56,22	3,793	3503,0	499,59	-1,964	
56,24	3,797	3501,9	499,64	-1,968	
56,26	3,801	3499,8	499,77	-1,971	
56,28	3,805	3501,1	499,77	-1,974	
56,30	3,809	3503,8	499,63	-1,977	
56,32	3,813	3503,5	499,60	-1,981	
56,34	3,817	3501,3	499,74	-1,984	
56,36	3,821	3501,5	499,80	-1,987	
56,38	3,825	3503,0	499,69	-1,990	
56,40	3,829	3503,0	499,60	-1,994	
56,42	3,833	3501,2	499,67	-1,997	
56,44	3,837	3500,8	499,74	-2,000	
56,46	3,841	3502,4	499,67	-2,004	
56,48	3,845	3502,7	499,59	-2,007	
56,50	3,849	3500,0	499,67	-2,010	
56,52	3,853	3499,7	499,74	-2,014	
56,54	3,857	3502,2	499,68	-2,017	
56,56	3,861	3503,6	499,60	-2,020	
56,58	3,865	3501,6	499,66	-2,023	
56,60	3,870	3500,5	499,73	-2,027	
56,62	3,874	3502,3	499,66	-2,030	
56,64	3,878	3502,7	499,59	-2,033	
56,66	3,882	3499,9	499,68	-2,037	
56,68	3,886	3499,0	499,76	-2,040	
56,70	3,890	3501,4	499,69	-2,043	
56,72	3,894	3503,0	499,60	-2,047	
56,74	3,898	3500,7	499,68	-2,050	
56,76	3,901	3500,0	499,73	-2,053	
56,78	3,905	3502,2	499,65	-2,057	
56,80	3,909	3502,7	499,59	-2,060	
56,82	3,913	3499,9	499,71	-2,063	
56,84	3,917	3499,7	499,79	-2,067	
56,86	3,921	3502,1	499,70	-2,070	
56,88	3,925	3503,4	499,62	-2,073	
56,90	3,929	3501,2	499,72	-2,077	
56,92	3,933	3500,7	499,78	-2,080	
56,94	3,937	3502,6	499,68	-2,083	
56,96	3,941	3502,8	499,62	-2,087	
56,98	3,945	3499,9	499,70	-2,090	
57,00	3,949	3499,8	499,71	-2,093	
57,02	3,953	3502,1	499,61	-2,097	
57,04	3,957	3501,2	499,61	-2,100	
57,06	3,962	3498,3	499,77	-2,103	
57,08	3,966	3498,2	499,84	-2,107	
57,10	3,970	3499,8	499,72	-2,110	
57,12	3,974	3500,3	499,65	-2,113	
57,14	3,978	3498,8	499,76	-2,117	
57,16	3,981	3499,5	499,79	-2,120	
57,18	3,985	3502,2	499,67	-2,123	
57,20	3,989	3501,7	499,68	-2,127	
57,22	3,993	3498,6	499,80	-2,130	
57,24	3,997	3499,0	499,78	-2,134	
57,26	4,001	3502,0	499,65	-2,137	
57,28	4,005	3501,1	499,68	-2,140	
57,30	4,009	3498,7	499,77	-2,144	
57,32	4,013	3499,9	499,70	-2,147	
57,34	4,017	3501,2	499,63	-2,150	
57,36	4,021	3498,3	499,75	-2,154	
57,38	4,025	3496,4	499,81	-2,157	
57,40	4,029	3498,5	499,70	-2,161	
57,42	4,033	3499,2	499,63	-2,164	
57,44	4,037	3496,7	499,68	-2,167	
57,46	4,041	3496,5	499,68	-2,171	
57,48	4,045	3498,3	499,59	-2,174	
57,50	4,049	3497,0	499,63	-2,177	
57,52	4,054	3494,1	499,81	-2,181	
57,54	4,058	3494,6	499,86	-2,184	
57,56	4,062	3496,6	499,72	-2,188	
57,58	4,066	3497,2	499,65	-2,191	
57,60	4,070	3496,4	499,73	-2,194	
57,62	4,074	3497,8	499,73	-2,198	
57,64	4,078	3499,8	499,63	-2,201	
57,66	4,081	3498,2	499,64	-2,205	
57,68	4,085	3495,1	499,74	-2,208	
57,70	4,089	3496,0	499,71	-2,211	
57,72	4,093	3499,0	499,61	-2,215	
57,74	4,097	3498,2	499,63	-2,218	
57,76	4,101	3495,8	499,75	-2,222	
57,78	4,105	3495,9	499,75	-2,225	
57,80	4,109	3497,0	499,64	-2,228	
57,82	4,113	3495,7	499,66	-2,232	
57,84	4,117	3493,9	499,76	-2,235	
57,86	4,121	3495,5	499,72	-2,239	
57,88	4,125	3497,3	499,61	-2,242	
57,90	4,129	3495,0	499,66	-2,245	
57,92	4,133	3492,6	499,74	-2,249	
57,94	4,137	3494,2	499,69	-2,252	
57,96	4,141	3495,6	499,59	-2,256	
57,98	4,145	3493,4	499,66	-2,259	
58,00	4,150	3492,3	499,80	-2,262	
58,02	4,154	3494,3	499,78	-2,266	
58,04	4,158	3496,4	499,65	-2,269	
58,06	4,162	3494,8	499,68	-2,273	
58,08	4,166	3493,2	499,75	-2,276	
58,10	4,170	3494,8	499,68	-2,280	
58,12	4,173	3496,3	499,61	-2,283	
58,14	4,177	3493,7	499,69	-2,286	
58,16	4,181	3491,9	499,73	-2,290	
58,18	4,185	3494,0	499,64	-2,293	
58,20	4,189	3494,2	499,60	-2,297	
58,22	4,193	3491,2	499,74	-2,300	
58,24	4,197	3491,1	499,84	-2,304	
58,26	4,201	3493,4	499,75	-2,307	
58,28	4,205	3494,4	499,62	-2,311	
58,30	4,209	3492,3	499,73	-2,314	
58,32	4,213	3491,2	499,84	-2,317	
58,34	4,217	3492,4	499,77	-2,321	
58,36	4,221	3493,6	499,64	-2,324	
58,38	4,225	3491,3	499,70	-2,328	
58,40	4,229	3489,6	499,77	-2,331	
58,42	4,233	3491,7	499,67	-2,335	
58,44	4,237	3492,4	499,62	-2,338	
58,46	4,242	3488,9	499,71	-2,341	
58,48	4,246	3487,5	499,72	-2,345	
58,50	4,249	3490,4	499,61	-2,348	
58,52	4,254	3490,6	499,62	-2,352	
58,54	4,258	3487,6	499,76	-2,355	
58,56	4,262	3487,7	499,79	-2,359	
58,58	4,265	3489,7	499,66	-2,362	
58,60	4,269	3489,7	499,62	-2,366	
58,62	4,273	3488,0	499,73	-2,369	
58,64	4,277	3488,3	499,74	-2,373	
58,66	4,281	3489,9	499,63	-2,376	
58,68	4,285	3489,3	499,63	-2,380	
58,70	4,289	3486,3	499,72	-2,383	
58,72	4,293	3486,2	499,70	-2,387	
58,74	4,297	3488,7	499,60	-2,390	
58,76	4,301	3487,6	499,63	-2,394	
58,78	4,305	3484,2	499,76	-2,397	
58,80	4,309	3484,3	499,75	-2,401	
58,82	4,313	3486,3	499,64	-2,404	
58,84	4,317	3485,3	499,67	-2,407	
58,86	4,321	3483,0	499,76	-2,411	
58,88	4,325	3484,2	499,70	-2,414	
58,90	4,329	3486,3	499,62	-2,418	
58,92	4,333	3484,4	499,70	-2,421	
58,94	4,338	3482,9	499,77	-2,425	
58,96	4,342	3484,9	499,68	-2,429	
58,98	4,345	3485,7	499,61	-2,432	
59,00	4,350	3483,0	499,72	-2,435	
59,02	4,354	3482,1	499,80	-2,439	
59,04	4,358	3483,6	499,71	-2,443	
59,06	4,362	3484,2	499,61	-2,446	
59,08	4,366	3482,2	499,69	-2,450	
59,10	4,370	3481,1	499,78	-2,453	
59,12	4,373	3482,5	499,71	-2,457	
59,14	4,377	3483,3	499,61	-2,460	
59,16	4,381	3480,7	499,66	-2,463	
59,18	4,385	3479,3	499,71	-2,467	
59,20	4,389	3481,3	499,63	-2,471	
59,22	4,393	3482,2	499,60	-2,474	
59,24	4,397	3479,7	499,75	-2,478	
59,26	4,401	3478,8	499,83	-2,481	
59,28	4,405	3480,9	499,72	-2,485	
59,30	4,409	3481,5	499,63	-2,488	
59,32	4,413	3479,1	499,72	-2,492	
59,34	4,417	3478,7	499,75	-2,495	
59,36	4,421	3480,5	499,64	-2,499	
59,38	4,425	3479,9	499,62	-2,502	
59,40	4,430	3476,4	499,73	-2,506	
59,42	4,434	3476,0	499,75	-2,509	
59,44	4,437	3478,5	499,65	-2,513	
59,46	4,442	3477,7	499,65	-2,516	
59,48	4,446	3475,5	499,70	-2,520	
59,50	4,450	3476,6	499,65	-2,523	
59,52	4,453	3478,2	499,59	-2,527	
59,54	4,457	3475,3	499,70	-2,531	
59,56	4,461	3472,9	499,83	-2,534	
59,58	4,465	3474,6	499,76	-2,538	
59,60	4,469	3476,5	499,63	-2,541	
59,62	4,473	3475,4	499,67	-2,545	
59,64	4,477	3474,3	499,76	-2,548	
59,66	4,481	3475,6	499,69	-2,552	
59,68	4,485	3475,9	499,61	-2,555	
59,70	4,489	3472,9	499,67	-2,559	
59,72	4,493	3471,1	499,73	-2,562	
59,74	4,497	3472,3	499,65	-2,566	
59,76	4,501	3472,5	499,60	-2,569	
59,78	4,505	3469,6	499,71	-2,573	
59,80	4,509	3468,7	499,77	-2,577	
59,82	4,513	3470,9	499,68	-2,580	
59,84	4,517	3471,4	499,63	-2,584	
59,86	4,521	3469,1	499,70	-2,587	
59,88	4,526	3469,1	499,72	-2,591	
59,90	4,529	3471,7	499,61	-2,594	
59,92	4,533	3470,9	499,62	-2,598	
59,94	4,538	3467,5	499,78	-2,602	
59,96	4,542	3467,5	499,84	-2,605	
59,98	4,546	3469,4	499,71	-2,609	
60,00	4,550	3470,0	499,63	-2,612	
60,02	4,554	3467,8	499,76	-2,616	
60,04	4,558	3467,8	499,80	-2,620	
60,06	4,561	3469,3	499,68	-2,623	
60,08	4,565	3468,4	499,65	-2,627	
60,10	4,569	3464,3	499,80	-2,630	
60,12	4,573	3463,6	499,82	-2,634	
60,14	4,577	3465,7	499,69	-2,637	
60,16	4,581	3465,7	499,66	-2,641	
60,18	4,585	3462,7	499,76	-2,645	
60,20	4,589	3462,5	499,73	-2,648	
60,22	4,593	3465,0	499,62	-2,652	
60,24	4,597	3464,1	499,68	-2,655	
60,26	4,601	3462,2	499,76	-2,659	
60,28	4,605	3464,0	499,70	-2,663	
60,30	4,609	3465,3	499,61	-2,666	
60,32	4,613	3462,3	499,68	-2,670	
60,34	4,617	3460,3	499,72	-2,674	
60,36	4,621	3462,0	499,64	-2,677	
60,38	4,625	3462,4	499,61	-2,681	
60,40	4,629	3459,6	499,75	-2,684	
60,42	4,633	3458,7	499,82	-2,688	
60,44	4,637	3460,8	499,71	-2,692	
60,46	4,641	3461,2	499,65	-2,695	
60,48	4,645	3458,1	499,81	-2,699	
60,50	4,649	3457,0	499,87	-2,702	
60,52	4,653	3458,8	499,74	-2,706	
60,54	4,657	3458,9	499,66	-2,709	
60,56	4,661	3455,5	499,74	-2,713	
60,58	4,665	3455,4	499,75	-2,717	
60,60	4,669	3457,8	499,64	-2,720	
60,62	4,673	3456,1	499,74	-2,724	
60,64	4,677	3452,4	499,91	-2,728	
60,66	4,681	3452,9	499,86	-2,731	
60,68	4,685	3455,5	499,69	-2,735	
60,70	4,689	3454,4	499,69	-2,739	
60,72	4,693	3452,3	499,78	-2,742	
60,74	4,697	3453,6	499,72	-2,746	
60,76	4,701	3454,5	499,62	-2,750	
60,78	4,705	3451,4	499,76	-2,753	
60,80	4,709	3449,3	499,89	-2,757	
60,82	4,713	3451,1	499,79	-2,760	
60,84	4,717	3453,1	499,65	-2,764	
60,86	4,721	3451,1	499,71	-2,768	
60,88	4,726	3448,8	499,79	-2,771	
60,90	4,730	3449,8	499,71	-2,775	
60,92	4,733	3450,3	499,64	-2,779	
60,94	4,737	3447,2	499,74	-2,782	
60,96	4,741	3446,2	499,79	-2,786	
60,98	4,745	3448,3	499,68	-2,790	
61,00	4,749	3448,9	499,65	-2,793	
61,02	4,753	3445,6	499,83	-2,797	
61,04	4,757	3444,3	499,89	-2,801	
61,06	4,761	3445,6	499,75	-2,804	
61,08	4,765	3445,7	499,67	-2,808	
61,10	4,769	3442,8	499,79	-2,811	
61,12	4,773	3442,3	499,82	-2,815	
61,14	4,777	3443,6	499,69	-2,819	
61,16	4,781	3442,7	499,69	-2,822	
61,18	4,785	3439,6	499,82	-2,826	
61,20	4,789	3439,9	499,81	-2,830	
61,22	4,793	3442,2	499,67	-2,833	
61,24	4,797	3441,1	499,67	-2,837	
61,26	4,801	3438,3	499,79	-2,841	
61,28	4,805	3439,3	499,75	-2,845	
61,30	4,809	3441,1	499,63	-2,848	
61,32	4,813	3439,0	499,76	-2,852	
61,34	4,818	3436,0	499,96	-2,856	
61,36	4,822	3437,0	499,91	-2,859	
61,38	4,825	3438,7	499,72	-2,863	
61,40	4,829	3436,9	499,68	-2,867	
61,42	4,834	3434,2	499,76	-2,870	
61,44	4,838	3435,0	499,70	-2,874	
61,46	4,841	3436,2	499,62	-2,878	
61,48	4,845	3433,4	499,69	-2,881	
61,50	4,849	3430,7	499,74	-2,885	
61,52	4,853	3431,8	499,65	-2,889	
61,54	4,857	3432,1	499,62	-2,892	
61,56	4,861	3429,3	499,73	-2,896	
61,58	4,865	3429,0	499,73	-2,900	
61,60	4,869	3431,6	499,62	-2,904	
61,62	4,873	3430,9	499,62	-2,907	
61,64	4,877	3428,6	499,73	-2,911	
61,66	4,881	3429,3	499,72	-2,915	
61,68	4,885	3431,1	499,61	-2,918	
61,70	4,889	3428,6	499,66	-2,922	
61,72	4,893	3425,5	499,76	-2,926	
61,74	4,897	3426,7	499,72	-2,930	
61,76	4,901	3428,9	499,62	-2,933	
61,78	4,905	3426,7	499,68	-2,937	
61,80	4,909	3424,5	499,75	-2,941	
61,82	4,913	3425,4	499,67	-2,944	
61,84	4,917	3425,5	499,61	-2,948	
61,86	4,921	3421,9	499,71	-2,952	
61,88	4,925	3420,0	499,78	-2,955	
61,90	4,929	3421,6	499,69	-2,959	
61,92	4,933	3422,2	499,62	-2,963	
61,94	4,937	3419,4	499,68	-2,967	
61,96	4,941	3418,9	499,72	-2,970	
61,98	4,945	3421,3	499,63	-2,974	
62,00	4,949	3420,6	499,62	-2,978	
62,02	4,953	3416,6	499,73	-2,981	
62,04	4,957	3416,3	499,74	-2,985	
62,06	4,961	3418,5	499,64	-2,989	
62,08	4,965	3417,4	499,65	-2,993	
62,10	4,969	3415,1	499,70	-2,996	
62,12	4,973	3415,9	499,64	-3,000	
62,14	4,977	3416,4	499,59	-3,004	
62,16	4,981	3413,6	499,73	-3,008	
62,18	4,985	3411,4	499,84	-3,011	
62,20	4,989	3413,3	499,75	-3,015	
62,22	4,993	3415,0	499,64	-3,019	
62,24	4,997	3412,6	499,74	-3,023	
62,26	5,001	3410,8	499,81	-3,026	
62,28	5,005	3411,8	499,70	-3,030	
62,30	5,009	3412,0	499,66	-3,034	
62,32	5,014	3407,8	499,87	-3,037	
62,34	5,018	3406,0	499,97	-3,041	
62,36	5,022	3407,7	499,83	-3,045	
62,38	5,025	3408,1	499,66	-3,049	
62,40	5,030	3405,2	499,68	-3,052	
62,42	5,034	3403,9	499,72	-3,056	
62,44	5,037	3405,4	499,64	-3,060	
62,46	5,041	3405,4	499,65	-3,063	
62,48	5,045	3401,9	499,81	-3,067	
62,50	5,049	3400,6	499,84	-3,071	
62,52	5,053	3402,1	499,70	-3,075	
62,54	5,057	3402,1	499,65	-3,079	
62,56	5,061	3399,8	499,76	-3,082	
62,58	5,065	3400,2	499,76	-3,086	
62,60	5,069	3401,6	499,64	-3,090	
62,62	5,073	3399,3	499,74	-3,094	
62,64	5,077	3395,8	499,96	-3,097	
62,66	5,081	3396,5	499,95	-3,101	
62,68	5,085	3398,1	499,76	-3,105	
62,70	5,089	3396,5	499,67	-3,109	
62,72	5,093	3393,7	499,74	-3,113	
62,74	5,098	3394,2	499,73	-3,116	
62,76	5,101	3395,7	499,62	-3,120	
62,78	5,105	3393,3	499,70	-3,124	
62,80	5,110	3389,4	499,82	-3,128	
62,82	5,113	3389,9	499,76	-3,131	
62,84	5,117	3391,6	499,62	-3,135	
62,86	5,121	3389,2	499,72	-3,139	
62,88	5,125	3386,2	499,89	-3,143	
62,90	5,129	3387,2	499,85	-3,146	
62,92	5,133	3389,1	499,68	-3,150	
62,94	5,137	3387,4	499,67	-3,154	
62,96	5,141	3384,9	499,76	-3,158	
62,98	5,145	3385,7	499,71	-3,161	
63,00	5,149	3386,6	499,65	-3,165	
63,02	5,153	3384,1	499,85	-3,169	
63,04	5,157	3381,5	500,01	-3,173	
63,06	5,161	3381,8	499,90	-3,177	
63,08	5,165	3383,0	499,71	-3,180	
63,10	5,169	3381,7	499,70	-3,184	
63,12	5,173	3379,6	499,78	-3,188	
63,14	5,177	3379,1	499,70	-3,192	
63,16	5,181	3379,3	499,64	-3,195	
63,18	5,185	3375,7	499,86	-3,199	
63,20	5,189	3372,7	500,04	-3,203	
63,22	5,193	3373,8	499,95	-3,207	
63,24	5,197	3375,7	499,74	-3,211	
63,26	5,201	3374,3	499,71	-3,214	
63,28	5,206	3372,3	499,80	-3,218	
63,30	5,210	3372,2	499,75	-3,222	
63,32	5,213	3372,8	499,63	-3,226	
63,34	5,217	3370,6	499,76	-3,230	
63,36	5,221	3368,0	499,91	-3,233	
63,38	5,225	3368,2	499,83	-3,237	
63,40	5,229	3369,5	499,66	-3,241	
63,42	5,233	3368,2	499,71	-3,245	
63,44	5,237	3365,3	499,86	-3,249	
63,46	5,241	3364,9	499,82	-3,252	
63,48	5,245	3365,8	499,67	-3,256	
63,50	5,249	3363,9	499,69	-3,260	
63,52	5,253	3361,5	499,78	-3,264	
63,54	5,257	3362,7	499,70	-3,267	
63,56	5,261	3363,6	499,65	-3,271	
63,58	5,265	3360,1	499,87	-3,275	
63,60	5,269	3358,1	500,01	-3,279	
63,62	5,273	3359,9	499,88	-3,283	
63,64	5,277	3360,8	499,70	-3,287	
63,66	5,281	3358,1	499,70	-3,290	
63,68	5,285	3356,8	499,73	-3,294	
63,70	5,289	3357,7	499,65	-3,298	
63,72	5,293	3356,2	499,64	-3,302	
63,74	5,297	3352,1	499,77	-3,306	
63,76	5,302	3350,8	499,80	-3,309	
63,78	5,306	3353,1	499,67	-3,313	
63,80	5,310	3352,6	499,68	-3,317	
63,82	5,313	3349,6	499,83	-3,321	
63,84	5,317	3349,8	499,83	-3,324	
63,86	5,321	3351,3	499,68	-3,328	
63,88	5,325	3349,5	499,71	-3,332	
63,90	5,329	3346,3	499,86	-3,336	
63,92	5,333	3346,6	499,82	-3,340	
63,94	5,337	3348,6	499,66	-3,344	
63,96	5,341	3346,5	499,72	-3,347	
63,98	5,345	3343,0	499,88	-3,351	
64,00	5,349	3343,7	499,84	-3,355	
64,02	5,353	3345,1	499,68	-3,359	
64,04	5,357	3342,5	499,79	-3,363	
64,06	5,361	3339,5	499,97	-3,367	
64,08	5,365	3340,2	499,92	-3,371	
64,10	5,369	3340,8	499,72	-3,374	
64,12	5,373	3338,6	499,69	-3,378	
64,14	5,377	3335,8	499,78	-3,382	
64,16	5,381	3335,8	499,73	-3,386	
64,18	5,385	3336,0	499,63	-3,390	
64,20	5,390	3332,9	499,70	-3,393	
64,22	5,394	3330,5	499,76	-3,397	
64,24	5,398	3331,4	499,66	-3,401	
64,26	5,402	3331,7	499,63	-3,405	
64,28	5,406	3328,8	499,75	-3,409	
64,30	5,409	3328,2	499,78	-3,413	
64,32	5,413	3330,6	499,66	-3,417	
64,34	5,417	3330,0	499,63	-3,420	
64,36	5,421	3326,6	499,76	-3,424	
64,38	5,425	3326,5	499,77	-3,428	
64,40	5,429	3327,9	499,64	-3,432	
64,42	5,433	3325,7	499,70	-3,436	
64,44	5,437	3321,9	499,91	-3,440	
64,46	5,441	3321,6	499,92	-3,444	
64,48	5,445	3322,8	499,74	-3,447	
64,50	5,449	3322,0	499,67	-3,451	
64,52	5,453	3319,0	499,76	-3,455	
64,54	5,457	3318,1	499,75	-3,459	
64,56	5,461	3318,6	499,65	-3,463	
64,58	5,465	3316,7	499,70	-3,467	
64,60	5,469	3313,7	499,79	-3,471	
64,62	5,473	3313,8	499,71	-3,475	
64,64	5,477	3315,0	499,64	-3,478	
64,66	5,481	3312,6	499,77	-3,482	
64,68	5,486	3310,4	499,84	-3,486	
64,70	5,490	3311,1	499,72	-3,490	
64,72	5,493	3311,3	499,69	-3,494	
64,74	5,498	3307,3	499,91	-3,498	
64,76	5,502	3306,1	499,99	-3,502	
64,78	5,506	3307,1	499,83	-3,505	
64,80	5,509	3306,6	499,66	-3,509	
64,82	5,513	3303,2	499,67	-3,513	
64,84	5,517	3302,6	499,67	-3,517	
64,86	5,521	3304,0	499,59	-3,521	
64,88	5,525	3302,7	499,62	-3,525	
64,90	5,529	3298,8	499,85	-3,529	
64,92	5,533	3298,0	499,94	-3,533	
64,94	5,537	3299,7	499,80	-3,537	
64,96	5,541	3300,0	499,66	-3,540	
64,98	5,545	3297,8	499,73	-3,544	
65,00	5,549	3297,2	499,78	-3,548	
65,02	5,553	3297,8	499,67	-3,552	
65,04	5,557	3295,5	499,73	-3,556	
65,06	5,561	3291,3	499,96	-3,560	
65,08	5,565	3290,3	499,98	-3,564	
65,10	5,569	3291,5	499,79	-3,567	
65,12	5,573	3290,8	499,66	-3,571	
65,14	5,577	3288,5	499,67	-3,575	
65,16	5,582	3287,9	499,66	-3,579	
65,18	5,585	3287,2	499,58	-3,583	
65,20	5,589	3284,0	499,67	-3,587	
65,22	5,593	3280,4	499,86	-3,591	
65,24	5,597	3280,7	499,85	-3,595	
65,26	5,601	3283,8	499,69	-3,598	
65,28	5,605	3283,3	499,72	-3,602	
65,30	5,609	3280,8	499,89	-3,606	
65,32	5,613	3280,8	499,88	-3,610	
65,34	5,617	3281,4	499,70	-3,614	
65,36	5,621	3278,8	499,73	-3,618	
65,38	5,625	3274,9	499,91	-3,622	
65,40	5,629	3274,3	499,91	-3,626	
65,42	5,633	3275,1	499,73	-3,630	
65,44	5,637	3273,4	499,66	-3,633	
65,46	5,641	3269,6	499,75	-3,637	
65,48	5,645	3269,3	499,73	-3,641	
65,50	5,649	3269,9	499,64	-3,645	
65,52	5,653	3267,0	499,70	-3,649	
65,54	5,657	3264,2	499,79	-3,653	
65,56	5,661	3265,6	499,71	-3,657	
65,58	5,665	3266,3	499,65	-3,661	
65,60	5,669	3263,0	499,73	-3,665	
65,62	5,674	3261,5	499,74	-3,669	
65,64	5,677	3263,1	499,64	-3,673	
65,66	5,682	3261,4	499,78	-3,676	
65,68	5,686	3257,7	499,96	-3,680	
65,70	5,690	3258,0	499,91	-3,684	
65,72	5,693	3259,5	499,71	-3,688	
65,74	5,697	3257,9	499,65	-3,692	
65,76	5,701	3254,6	499,73	-3,696	
65,78	5,705	3254,1	499,70	-3,700	
65,80	5,709	3254,9	499,62	-3,704	
65,82	5,713	3251,6	499,74	-3,708	
65,84	5,717	3247,9	499,87	-3,712	
65,86	5,721	3248,6	499,79	-3,715	
65,88	5,725	3249,8	499,65	-3,719	
65,90	5,729	3247,2	499,72	-3,723	
65,92	5,733	3244,9	499,81	-3,727	
65,94	5,737	3245,5	499,72	-3,731	
65,96	5,741	3245,1	499,65	-3,735	
65,98	5,745	3241,2	499,73	-3,739	
66,00	5,749	3238,9	499,75	-3,743	
66,02	5,753	3240,3	499,64	-3,747	
66,04	5,757	3239,4	499,68	-3,751	
66,06	5,762	3235,5	499,83	-3,755	
66,08	5,766	3235,0	499,81	-3,759	
66,10	5,769	3236,9	499,67	-3,763	
66,12	5,773	3235,0	499,75	-3,766	
66,14	5,778	3231,3	499,96	-3,770	
66,16	5,782	3230,6	499,93	-3,774	
66,18	5,785	3231,0	499,74	-3,778	
66,20	5,789	3228,5	499,69	-3,782	
66,22	5,793	3224,7	499,76	-3,786	
66,24	5,797	3224,1	499,72	-3,790	
66,26	5,801	3224,7	499,64	-3,794	
66,28	5,805	3221,5	499,77	-3,798	
66,30	5,809	3218,2	499,86	-3,802	
66,32	5,813	3219,3	499,75	-3,806	
66,34	5,817	3219,8	499,68	-3,810	
66,36	5,821	3216,2	499,87	-3,814	
66,38	5,825	3214,0	499,96	-3,818	
66,40	5,829	3214,5	499,82	-3,821	
66,42	5,833	3214,6	499,66	-3,825	
66,44	5,837	3211,2	499,72	-3,829	
66,46	5,841	3209,4	499,77	-3,833	
66,48	5,845	3210,2	499,67	-3,837	
66,50	5,849	3208,8	499,72	-3,841	
66,52	5,853	3204,9	499,97	-3,845	
66,54	5,857	3203,5	500,04	-3,849	
66,56	5,861	3204,2	499,86	-3,853	
66,58	5,865	3203,8	499,67	-3,857	
66,60	5,869	3200,9	499,70	-3,861	
66,62	5,874	3198,6	499,76	-3,865	
66,64	5,878	3198,3	499,67	-3,869	
66,66	5,881	3198,3	499,65	-3,873	
66,68	5,885	3194,8	499,93	-3,877	
66,70	5,889	3192,2	500,10	-3,881	
66,72	5,893	3192,7	499,98	-3,885	
66,74	5,897	3192,8	499,76	-3,889	
66,76	5,901	3190,4	499,65	-3,892	
66,78	5,905	3187,9	499,68	-3,896	
66,80	5,909	3187,2	499,64	-3,900	
66,82	5,913	3185,7	499,59	-3,904	
66,84	5,917	3182,2	499,71	-3,908	
66,86	5,921	3179,1	499,84	-3,912	
66,88	5,925	3179,7	499,76	-3,916	
66,90	5,929	3181,4	499,64	-3,920	
66,92	5,933	3179,6	499,81	-3,924	
66,94	5,937	3177,1	500,00	-3,928	
66,96	5,941	3176,5	499,92	-3,932	
66,98	5,945	3176,0	499,73	-3,936	
67,00	5,949	3173,3	499,67	-3,940	
67,02	5,953	3170,4	499,69	-3,944	
67,04	5,957	3170,5	499,62	-3,947	
67,06	5,961	3169,5	499,60	-3,951	
67,08	5,966	3165,1	499,75	-3,955	
67,10	5,970	3162,7	499,84	-3,959	
67,12	5,974	3163,6	499,72	-3,963	
67,14	5,978	3164,2	499,64	-3,967	
67,16	5,982	3161,3	499,78	-3,971	
67,18	5,985	3160,0	499,85	-3,975	
67,20	5,989	3160,4	499,73	-3,979	
67,22	5,993	3158,9	499,67	-3,983	
67,24	5,997	3154,3	499,81	-3,987	
67,26	6,001	3152,5	499,85	-3,991	
67,28	6,005	3153,3	499,71	-3,995	
67,30	6,009	3152,0	499,69	-3,999	
67,32	6,013	3148,1	499,83	-4,003	
67,34	6,017	3146,5	499,82	-4,007	
67,36	6,021	3147,1	499,68	-4,011	
67,38	6,025	3144,8	499,75	-4,015	
67,40	6,029	3141,0	499,94	-4,019	
67,42	6,033	3140,2	499,91	-4,023	
67,44	6,037	3140,5	499,72	-4,027	
67,46	6,041	3138,5	499,70	-4,030	
67,48	6,045	3134,9	499,85	-4,034	
67,50	6,050	3133,8	499,86	-4,038	
67,52	6,053	3133,9	499,71	-4,042	
67,54	6,057	3131,9	499,69	-4,046	
67,56	6,062	3128,3	499,82	-4,050	
67,58	6,066	3127,2	499,81	-4,054	
67,60	6,069	3127,4	499,66	-4,058	
67,62	6,073	3124,7	499,73	-4,062	
67,64	6,077	3120,9	499,90	-4,066	
67,66	6,081	3120,1	499,87	-4,070	
67,68	6,085	3120,5	499,70	-4,074	
67,70	6,089	3118,0	499,68	-4,078	
67,72	6,093	3114,1	499,78	-4,082	
67,74	6,097	3113,2	499,74	-4,086	
67,76	6,101	3113,0	499,65	-4,090	
67,78	6,105	3109,5	499,85	-4,094	
67,80	6,109	3105,6	500,08	-4,098	
67,82	6,113	3105,6	500,03	-4,102	
67,84	6,117	3105,7	499,81	-4,106	
67,86	6,121	3103,7	499,67	-4,110	
67,88	6,125	3100,7	499,73	-4,114	
67,90	6,129	3099,4	499,74	-4,118	
67,92	6,133	3099,0	499,64	-4,122	
67,94	6,137	3096,6	499,76	-4,126	
67,96	6,142	3091,9	499,99	-4,130	
67,98	6,146	3091,0	499,99	-4,134	
68,00	6,150	3092,5	499,79	-4,138	
68,02	6,153	3091,5	499,68	-4,142	
68,04	6,158	3087,5	499,81	-4,146	
68,06	6,162	3086,1	499,87	-4,150	
68,08	6,165	3085,8	499,74	-4,154	
68,10	6,169	3084,2	499,66	-4,158	
68,12	6,173	3079,4	499,81	-4,162	
68,14	6,178	3077,2	499,86	-4,166	
68,16	6,181	3077,4	499,73	-4,170	
68,18	6,185	3075,7	499,69	-4,174	
68,20	6,189	3070,7	499,88	-4,178	
68,22	6,193	3068,4	499,92	-4,182	
68,24	6,197	3068,4	499,77	-4,186	
68,26	6,201	3067,4	499,69	-4,189	
68,28	6,205	3064,0	499,80	-4,193	
68,30	6,209	3062,6	499,81	-4,197	
68,32	6,213	3063,4	499,67	-4,201	
68,34	6,217	3061,5	499,73	-4,205	
68,36	6,221	3056,8	499,98	-4,210	
68,38	6,225	3055,4	500,02	-4,214	
68,40	6,229	3055,9	499,83	-4,218	
68,42	6,233	3054,7	499,69	-4,222	
68,44	6,238	3051,2	499,85	-4,226	
68,46	6,242	3049,2	499,97	-4,230	
68,48	6,246	3047,8	499,85	-4,234	
68,50	6,249	3046,2	499,70	-4,238	
68,52	6,254	3042,5	499,80	-4,242	
68,54	6,257	3039,9	499,88	-4,246	
68,56	6,261	3039,3	499,76	-4,249	
68,58	6,265	3038,2	499,67	-4,253	
68,60	6,269	3033,9	499,80	-4,257	
68,62	6,273	3030,9	499,87	-4,261	
68,64	6,277	3031,3	499,75	-4,265	
68,66	6,281	3030,6	499,66	-4,269	
68,68	6,285	3025,9	499,79	-4,273	
68,70	6,289	3024,0	499,86	-4,278	
68,72	6,293	3024,4	499,74	-4,282	
68,74	6,297	3023,5	499,66	-4,286	
68,76	6,301	3018,7	499,81	-4,290	
68,78	6,305	3015,9	499,86	-4,294	
68,80	6,309	3016,2	499,73	-4,298	
68,82	6,313	3014,9	499,67	-4,302	
68,84	6,317	3010,6	499,80	-4,306	
68,86	6,321	3008,7	499,81	-4,310	
68,88	6,325	3009,2	499,67	-4,314	
68,90	6,329	3006,9	499,74	-4,318	
68,92	6,334	3001,3	500,03	-4,322	
68,94	6,338	2998,8	500,13	-4,326	
68,96	6,342	2998,6	499,96	-4,330	
68,98	6,346	2997,6	499,74	-4,334	
69,00	6,350	2994,5	499,72	-4,338	
69,02	6,353	2991,9	499,78	-4,342	
69,04	6,357	2990,7	499,70	-4,346	
69,06	6,361	2988,9	499,65	-4,350	
69,08	6,365	2984,5	499,79	-4,354	
69,10	6,369	2981,6	499,84	-4,358	
69,12	6,373	2981,8	499,71	-4,362	
69,14	6,377	2980,4	499,71	-4,366	
69,16	6,381	2975,5	499,91	-4,370	
69,18	6,385	2973,2	499,95	-4,374	
69,20	6,389	2972,8	499,78	-4,378	
69,22	6,393	2970,7	499,69	-4,382	
69,24	6,397	2965,9	499,79	-4,386	
69,26	6,401	2964,3	499,79	-4,390	
69,28	6,405	2964,6	499,66	-4,394	
69,30	6,409	2962,5	499,71	-4,398	
69,32	6,414	2957,6	499,91	-4,402	
69,34	6,418	2955,9	499,92	-4,406	
69,36	6,421	2956,1	499,75	-4,410	
69,38	6,425	2954,0	499,68	-4,414	
69,40	6,430	2949,7	499,80	-4,418	
69,42	6,434	2948,3	499,79	-4,422	
69,44	6,438	2948,1	499,66	-4,426	
69,46	6,442	2944,7	499,69	-4,430	
69,48	6,446	2939,4	499,83	-4,434	
69,50	6,450	2937,7	499,81	-4,438	
69,52	6,454	2937,8	499,67	-4,442	
69,54	6,457	2934,5	499,77	-4,446	
69,56	6,461	2929,7	499,95	-4,450	
69,58	6,465	2927,9	499,91	-4,454	
69,60	6,469	2926,9	499,72	-4,458	
69,62	6,473	2923,5	499,72	-4,462	
69,64	6,477	2919,3	499,85	-4,467	
69,66	6,481	2917,8	499,82	-4,471	
69,68	6,485	2917,3	499,66	-4,475	
69,70	6,489	2914,1	499,74	-4,479	
69,72	6,493	2909,6	499,96	-4,483	
69,74	6,497	2907,9	499,95	-4,487	
69,76	6,501	2906,7	499,76	-4,491	
69,78	6,505	2903,9	499,70	-4,495	
69,80	6,509	2900,0	499,83	-4,499	
69,82	6,513	2898,1	499,84	-4,503	
69,84	6,517	2897,2	499,68	-4,507	
69,86	6,521	2893,9	499,69	-4,511	
69,88	6,526	2888,0	499,91	-4,515	
69,90	6,530	2885,4	499,95	-4,519	
69,92	6,534	2884,4	499,77	-4,523	
69,94	6,537	2882,7	499,67	-4,527	
69,96	6,541	2878,2	499,83	-4,531	
69,98	6,545	2875,6	499,89	-4,536	
70,00	6,549	2874,4	499,75	-4,540	
70,02	6,553	2872,7	499,67	-4,544	
70,04	6,557	2867,8	499,86	-4,548	
70,06	6,561	2864,7	499,94	-4,552	
70,08	6,565	2863,6	499,80	-4,556	
70,10	6,569	2861,7	499,66	-4,560	
70,12	6,573	2856,8	499,78	-4,564	
70,14	6,577	2853,4	499,89	-4,568	
70,16	6,581	2852,0	499,78	-4,572	
70,18	6,585	2850,2	499,66	-4,576	
70,20	6,589	2845,2	499,78	-4,580	
70,22	6,593	2841,6	499,86	-4,584	
70,24	6,597	2841,1	499,73	-4,589	
70,26	6,601	2839,5	499,66	-4,593	
70,28	6,605	2833,9	499,83	-4,597	
70,30	6,610	2830,4	499,90	-4,601	
70,32	6,614	2829,2	499,76	-4,605	
70,34	6,617	2826,6	499,65	-4,609	
70,36	6,622	2821,0	499,75	-4,613	
70,38	6,626	2817,6	499,80	-4,617	
70,40	6,630	2816,8	499,68	-4,621	
70,42	6,634	2814,0	499,70	-4,625	
70,44	6,638	2807,9	499,95	-4,629	
70,46	6,642	2804,4	500,02	-4,633	
70,48	6,646	2802,8	499,85	-4,637	
70,50	6,650	2800,2	499,69	-4,641	
70,52	6,653	2795,0	499,83	-4,646	
70,54	6,657	2791,5	499,97	-4,650	
70,56	6,661	2789,4	499,86	-4,654	
70,58	6,665	2786,7	499,69	-4,658	
70,60	6,669	2781,5	499,75	-4,662	
70,62	6,673	2777,2	499,86	-4,666	
70,64	6,677	2775,8	499,78	-4,670	
70,66	6,681	2774,3	499,66	-4,675	
70,68	6,685	2769,3	499,76	-4,679	
70,70	6,689	2764,6	499,84	-4,683	
70,72	6,693	2763,4	499,73	-4,687	
70,74	6,697	2761,4	499,65	-4,691	
70,76	6,702	2756,1	499,74	-4,695	
70,78	6,706	2752,0	499,77	-4,699	
70,80	6,710	2750,9	499,65	-4,703	
70,82	6,714	2747,1	499,72	-4,707	
70,84	6,718	2740,2	499,98	-4,712	
70,86	6,722	2736,4	500,04	-4,716	
70,88	6,726	2734,0	499,86	-4,720	
70,90	6,730	2730,6	499,68	-4,724	
70,92	6,733	2724,8	499,74	-4,728	
70,94	6,737	2720,8	499,81	-4,732	
70,96	6,741	2717,8	499,71	-4,736	
70,98	6,745	2714,4	499,67	-4,740	
71,00	6,749	2708,2	499,91	-4,744	
71,02	6,753	2704,1	500,05	-4,749	
71,04	6,757	2702,5	499,92	-4,753	
71,06	6,761	2700,2	499,72	-4,757	
71,08	6,765	2694,5	499,75	-4,761	
71,10	6,769	2689,8	499,83	-4,765	
71,12	6,773	2687,5	499,74	-4,769	
71,14	6,777	2684,6	499,65	-4,774	
71,16	6,781	2678,7	499,78	-4,778	
71,18	6,785	2673,7	499,89	-4,782	
71,20	6,789	2671,4	499,78	-4,786	
71,22	6,793	2668,7	499,67	-4,790	
71,24	6,798	2662,6	499,78	-4,794	
71,26	6,802	2657,8	499,84	-4,798	
71,28	6,806	2655,3	499,72	-4,803	
71,30	6,810	2652,0	499,67	-4,807	
71,32	6,814	2645,2	499,85	-4,811	
71,34	6,818	2639,9	499,92	-4,815	
71,36	6,822	2637,4	499,77	-4,819	
71,38	6,826	2633,6	499,70	-4,823	
71,40	6,830	2626,3	499,90	-4,828	
71,42	6,833	2620,9	499,99	-4,832	
71,44	6,837	2618,1	499,84	-4,836	
71,46	6,841	2614,5	499,68	-4,840	
71,48	6,845	2608,4	499,79	-4,845	
71,50	6,849	2603,2	499,91	-4,849	
71,52	6,853	2599,2	499,81	-4,853	
71,54	6,857	2595,3	499,68	-4,857	
71,56	6,861	2588,7	499,85	-4,861	
71,58	6,865	2582,5	500,01	-4,866	
71,60	6,869	2578,3	499,91	-4,870	
71,62	6,873	2574,1	499,72	-4,874	
71,64	6,877	2567,6	499,69	-4,878	
71,66	6,882	2561,6	499,73	-4,883	
71,68	6,885	2558,3	499,65	-4,887	
71,70	6,889	2554,2	499,63	-4,891	
71,72	6,894	2546,2	499,80	-4,895	
71,74	6,898	2539,8	499,85	-4,900	
71,76	6,902	2537,2	499,72	-4,904	
71,78	6,906	2532,6	499,69	-4,908	
71,80	6,910	2524,0	499,88	-4,913	
71,82	6,914	2517,8	499,94	-4,917	
71,84	6,918	2513,2	499,78	-4,921	
71,86	6,922	2507,2	499,68	-4,925	
71,88	6,926	2498,8	499,81	-4,930	
71,90	6,929	2492,8	499,88	-4,934	
71,92	6,933	2488,7	499,76	-4,938	
71,94	6,937	2483,3	499,66	-4,942	
71,96	6,941	2475,3	499,77	-4,947	
71,98	6,945	2468,6	499,82	-4,951	
72,00	6,949	2464,5	499,69	-4,956	
72,02	6,953	2458,9	499,69	-4,960	
72,04	6,957	2449,6	499,89	-4,964	
72,06	6,961	2442,7	499,93	-4,969	
72,08	6,965	2438,2	499,77	-4,973	
72,10	6,969	2431,5	499,68	-4,977	
72,12	6,973	2421,4	499,77	-4,982	
72,14	6,978	2413,8	499,78	-4,986	
72,16	6,981	2408,7	499,66	-4,991	
72,18	6,985	2401,6	499,75	-4,995	
72,20	6,990	2391,0	500,04	-4,999	
72,22	6,994	2383,2	500,11	-5,004	
72,24	6,998	2376,8	499,94	-5,008	
72,26	7,002	2369,5	499,72	-5,013	
72,28	7,006	2360,6	499,72	-5,017	
72,30	7,010	2352,2	499,83	-5,021	
72,32	7,014	2345,2	499,78	-5,026	
72,34	7,018	2337,9	499,65	-5,031	
72,36	7,021	2327,8	499,75	-5,035	
72,38	7,025	2317,7	499,89	-5,040	
72,40	7,029	2310,6	499,82	-5,044	
72,42	7,033	2304,0	499,67	-5,049	
72,44	7,037	2293,8	499,80	-5,053	
72,46	7,041	2282,0	500,05	-5,058	
72,48	7,045	2272,7	500,04	-5,063	
72,50	7,049	2264,0	499,84	-5,067	
72,52	7,053	2254,0	499,68	-5,072	
72,54	7,057	2241,4	499,78	-5,076	
72,56	7,061	2230,7	499,88	-5,081	
72,58	7,065	2221,0	499,78	-5,085	
72,60	7,069	2211,2	499,67	-5,090	
72,62	7,073	2198,9	499,86	-5,095	
72,64	7,078	2187,4	500,04	-5,100	
72,66	7,082	2177,8	499,95	-5,105	
72,68	7,086	2167,4	499,75	-5,109	
72,70	7,090	2154,3	499,71	-5,114	
72,72	7,094	2140,5	499,80	-5,119	
72,74	7,098	2128,9	499,77	-5,123	
72,76	7,102	2117,6	499,64	-5,128	
72,78	7,106	2103,2	499,78	-5,133	
72,80	7,110	2086,9	499,98	-5,138	
72,82	7,114	2072,9	499,96	-5,143	
72,84	7,118	2060,4	499,76	-5,148	
72,86	7,122	2046,1	499,71	-5,153	
72,88	7,125	2028,9	499,91	-5,158	
72,90	7,129	2012,6	499,97	-5,163	
72,92	7,133	1996,4	499,82	-5,168	
72,94	7,137	1979,6	499,69	-5,173	
72,96	7,141	1960,0	499,84	-5,179	
72,98	7,145	1940,8	499,95	-5,184	
73,00	7,149	1922,3	499,83	-5,190	
73,02	7,153	1903,3	499,69	-5,195	
73,04	7,157	1880,8	499,85	-5,201	
73,06	7,161	1856,9	500,03	-5,207	
73,08	7,165	1833,2	499,98	-5,213	
73,10	7,169	1806,3	499,78	-5,220	
73,12	7,173	1774,4	499,69	-5,227	
73,14	7,178	1737,1	499,83	-5,234	
73,16	7,182	1698,1	499,87	-5,240	
73,18	7,186	1658,9	499,74	-5,246	
73,20	7,190	1619,6	499,65	-5,252	
73,22	7,194	1580,1	499,77	-5,257	
73,24	7,198	1545,5	499,82	-5,263	
73,26	7,202	1517,1	499,71	-5,268	
73,28	7,205	1490,4	499,67	-5,274	
73,30	7,209	1462,9	499,82	-5,279	
73,32	7,213	1438,9	499,86	-5,285	
73,34	7,217	1419,1	499,73	-5,290	
73,36	7,221	1400,3	499,67	-5,295	
73,38	7,225	1378,6	499,81	-5,300	
73,40	7,229	1357,5	499,86	-5,306	
73,42	7,233	1338,9	499,73	-5,311	
73,44	7,237	1320,8	499,69	-5,316	
73,46	7,241	1299,7	499,86	-5,322	
73,48	7,245	1280,0	499,90	-5,327	
73,50	7,249	1263,5	499,76	-5,332	
73,52	7,253	1247,3	499,67	-5,337	
73,54	7,257	1228,2	499,82	-5,342	
73,56	7,262	1210,7	499,89	-5,347	
73,58	7,266	1195,8	499,76	-5,352	
73,60	7,269	1181,0	499,69	-5,357	
73,62	7,274	1162,9	499,90	-5,362	
73,64	7,278	1145,7	500,04	-5,367	
73,66	7,282	1129,6	499,94	-5,372	
73,68	7,286	1113,5	499,73	-5,377	
73,70	7,290	1097,0	499,70	-5,380	
73,72	7,294	1079,9	499,90	-5,382	
73,74	7,298	1064,0	499,96	-5,385	
73,76	7,302	1049,8	499,81	-5,389	
73,78	7,305	1036,5	499,67	-5,394	
73,80	7,309	1020,4	499,75	-5,399	
73,82	7,313	1004,9	499,84	-5,404	
73,84	7,317	990,63	499,76	-5,409	
73,86	7,321	976,70	499,64	-5,414	
73,88	7,325	960,79	499,80	-5,419	
73,90	7,329	944,01	499,97	-5,424	
73,92	7,333	928,92	499,91	-5,429	
73,94	7,337	915,65	499,73	-5,437	
73,96	7,341	901,73	499,70	-5,445	
73,98	7,345	886,95	499,83	-5,451	
74,00	7,349	874,07	499,82	-5,456	
74,02	7,353	863,00	499,68	-5,460	
74,04	7,357	850,62	499,72	-5,465	
74,06	7,362	836,39	499,88	-5,471	
74,08	7,365	823,52	499,88	-5,476	
74,10	7,369	811,91	499,73	-5,480	
74,12	7,373	799,86	499,69	-5,485	
74,14	7,377	785,44	499,83	-5,490	
74,16	7,382	772,63	499,85	-5,495	
74,18	7,385	761,29	499,71	-5,499	
74,20	7,389	749,97	499,69	-5,504	
74,22	7,394	736,08	499,88	-5,509	
74,24	7,397	722,46	499,94	-5,514	
74,26	7,401	710,17	499,80	-5,519	
74,28	7,405	698,80	499,67	-5,523	
74,30	7,409	685,41	499,77	-5,528	
74,32	7,413	672,53	499,88	-5,533	
74,34	7,417	662,10	499,80	-5,538	
74,36	7,421	652,85	499,66	-5,542	
74,38	7,425	641,72	499,73	-5,546	
74,40	7,429	629,05	499,83	-5,550	
74,42	7,433	617,57	499,77	-5,553	
74,44	7,437	605,70	499,66	-5,554	
74,46	7,439	590,18	499,62	-5,555	
74,48	7,441	573,52	499,65	-5,556	
74,50	7,442	560,44	499,66	-5,557	
74,52	7,442	550,27	499,63	-5,558	
74,54	7,442	540,42	499,65	-5,558	
74,56	7,442	531,77	499,68	-5,559	
74,58	7,442	525,75	499,64	-5,559	
74,60	7,442	520,99	499,62	-5,559	
74,62	7,442	515,05	499,72	-5,560	
74,64	7,442	509,00	499,77	-5,560	
74,66	7,442	505,38	499,67	-5,560	
74,68	7,442	502,49	499,67	-5,561	
74,70	7,442	496,63	499,90	-5,561	
74,72	7,442	490,80	500,01	-5,562	
74,74	7,442	487,67	499,90	-5,562	
74,76	7,442	484,92	499,71	-5,562	
74,78	7,442	480,89	499,74	-5,562	
74,80	7,442	476,59	499,97	-5,563	
74,82	7,442	474,69	500,03	-5,563	
74,84	7,442	474,46	499,90	-5,563	
74,86	7,442	474,95	499,72	-5,563	
74,88	7,442	474,82	499,73	-5,563	
74,90	7,442	474,51	499,82	-5,564	
74,92	7,442	474,57	499,78	-5,564	
74,94	7,442	475,04	499,65	-5,564	
74,96	7,442	474,77	499,71	-5,564	
74,98	7,442	474,28	499,87	-5,565	
75,00	7,442	474,29	499,88	-5,565	
75,02	7,442	474,61	499,74	-5,565	
75,04	7,442	474,95	499,66	-5,565	
75,06	7,442	474,47	499,80	-5,565	
75,08	7,442	474,30	499,87	-5,565	
75,10	7,442	474,50	499,78	-5,565	
75,12	7,442	475,02	499,66	-5,565	
75,14	7,442	474,69	499,72	-5,566	
75,16	7,442	474,37	499,82	-5,566	
75,18	7,442	474,43	499,77	-5,566	
75,20	7,442	474,97	499,65	-5,566	
75,22	7,442	474,82	499,73	-5,566	
75,24	7,442	474,39	499,92	-5,566	
75,26	7,442	474,41	499,92	-5,567	
75,28	7,442	473,66	499,78	-5,567	
75,30	7,442	461,27	499,66	-5,567	
75,32	7,442	442,98	499,80	-5,567	
75,34	7,442	434,43	499,95	-5,567	
75,36	7,442	432,41	499,90	-5,567	
75,38	7,442	431,67	499,74	-5,567	
75,40	7,442	431,00	499,68	-5,567	
75,42	7,442	428,91	499,88	-5,567	
75,44	7,442	427,62	500,00	-5,568	
75,46	7,442	427,33	499,91	-5,568	
75,48	7,442	426,53	499,73	-5,568	
75,50	7,442	424,69	499,70	-5,568	
75,52	7,442	423,28	499,83	-5,568	
75,54	7,442	423,51	499,85	-5,568	
75,56	7,442	424,15	499,73	-5,568	
75,58	7,442	424,12	499,65	-5,568	
75,60	7,442	421,17	499,76	-5,568	
75,62	7,442	419,52	499,84	-5,569	
75,64	7,442	420,08	499,76	-5,569	
75,66	7,442	421,11	499,65	-5,569	
75,68	7,442	419,00	499,79	-5,569	
75,70	7,442	416,41	499,96	-5,569	
75,72	7,442	416,42	499,92	-5,569	
75,74	7,442	416,21	499,75	-5,569	
75,76	7,442	415,13	499,67	-5,569	
75,78	7,442	413,42	499,77	-5,569	
75,80	7,442	413,19	499,82	-5,569	
75,82	7,442	413,95	499,70	-5,569	
75,84	7,442	413,84	499,69	-5,570	
75,86	7,442	409,81	499,97	-5,570	
75,88	7,442	407,43	500,14	-5,570	
75,90	7,442	407,27	500,06	-5,570	
75,92	7,442	406,30	499,87	-5,570	
75,94	7,442	405,32	499,69	-5,570	
75,96	7,442	405,00	499,71	-5,570	
75,98	7,442	404,45	499,81	-5,570	
76,00	7,442	404,09	499,79	-5,570	
76,02	7,442	404,48	499,67	-5,570	
76,04	7,442	403,39	499,75	-5,570	
76,06	7,442	400,49	499,97	-5,571	
76,08	7,442	399,75	500,00	-5,571	
76,10	7,442	400,33	499,85	-5,571	
76,12	7,442	400,66	499,69	-5,571	
76,14	7,442	398,95	499,77	-5,571	
76,16	7,442	397,44	499,95	-5,571	
76,18	7,442	397,14	499,93	-5,571	
76,20	7,442	397,35	499,77	-5,571	
76,22	7,442	397,52	499,65	-5,571	
76,24	7,442	395,78	499,73	-5,571	
76,26	7,442	395,11	499,80	-5,571	
76,28	7,442	396,24	499,71	-5,571	
76,30	7,442	396,28	499,64	-5,572	
76,32	7,442	393,23	499,77	-5,572	
76,34	7,442	391,65	499,87	-5,572	
76,36	7,442	392,82	499,79	-5,572	
76,38	7,442	394,22	499,66	-5,572	
76,40	7,442	392,77	499,71	-5,572	
76,42	7,442	390,49	499,87	-5,572	
76,44	7,442	390,16	499,86	-5,572	
76,46	7,442	390,76	499,72	-5,572	
76,48	7,442	390,46	499,66	-5,572	
76,50	7,442	388,48	499,75	-5,572	
76,52	7,442	388,79	499,76	-5,572	
76,54	7,442	390,34	499,65	-5,572	
76,56	7,442	389,91	499,68	-5,573	
76,58	7,442	385,94	499,91	-5,573	
76,60	7,442	384,79	500,00	-5,573	
76,62	7,442	385,79	499,88	-5,573	
76,64	7,442	385,72	499,71	-5,573	
76,66	7,442	384,29	499,74	-5,573	
76,68	7,442	383,08	499,95	-5,573	
76,70	7,442	383,26	499,99	-5,573	
76,72	7,442	382,65	499,83	-5,573	
76,74	7,442	381,66	499,69	-5,573	
76,76	7,442	380,07	499,80	-5,574	
76,78	7,442	379,76	499,95	-5,574	
76,80	7,442	380,26	499,90	-5,574	
76,82	7,442	380,85	499,73	-5,574	
76,84	7,442	380,58	499,66	-5,574	
76,86	7,442	379,09	499,75	-5,574	
76,88	7,442	379,33	499,79	-5,574	
76,90	7,442	380,54	499,68	-5,574	
76,92	7,442	380,42	499,71	-5,574	
76,94	7,442	377,50	499,91	-5,574	
76,96	7,442	376,00	499,96	-5,574	
76,98	7,442	376,57	499,83	-5,574	
77,00	7,442	377,54	499,67	-5,574	
77,02	7,442	377,02	499,72	-5,574	
77,04	7,442	376,23	499,86	-5,575	
77,06	7,442	376,62	499,85	-5,575	
77,08	7,442	376,91	499,71	-5,575	
77,10	7,442	375,57	499,64	-5,575	
77,12	7,442	373,35	499,74	-5,575	
77,14	7,442	372,93	499,79	-5,575	
77,16	7,442	373,74	499,70	-5,575	
77,18	7,442	374,06	499,68	-5,575	
77,20	7,442	371,97	499,90	-5,575	
77,22	7,442	371,57	499,99	-5,575	
77,24	7,442	372,89	499,88	-5,575	
77,26	7,442	373,08	499,70	-5,575	
77,28	7,442	371,26	499,74	-5,575	
77,30	7,442	369,68	499,94	-5,576	
77,32	7,442	369,92	499,97	-5,576	
77,34	7,442	370,42	499,82	-5,576	
77,36	7,442	369,93	499,67	-5,576	
77,38	7,442	368,08	499,77	-5,576	
77,40	7,442	367,04	499,91	-5,576	
77,42	7,442	366,99	499,87	-5,576	
77,44	7,442	367,44	499,70	-5,576	
77,46	7,442	367,10	499,65	-5,576	
77,48	7,442	365,60	499,76	-5,576	
77,50	7,442	365,88	499,79	-5,576	
77,52	7,442	367,03	499,68	-5,576	
77,54	7,442	367,54	499,65	-5,576	
77,56	7,442	365,32	499,87	-5,577	
77,58	7,442	363,67	500,00	-5,577	
77,60	7,442	363,55	499,91	-5,577	
77,62	7,442	363,98	499,73	-5,577	
77,64	7,442	364,12	499,70	-5,577	
77,66	7,442	362,90	499,92	-5,577	
77,68	7,442	361,75	500,04	-5,577	
77,70	7,442	360,89	499,93	-5,577	
77,72	7,442	360,77	499,73	-5,577	
77,74	7,442	360,94	499,69	-5,577	
77,76	7,442	360,47	499,89	-5,577	
77,78	7,442	360,34	499,99	-5,578	
77,80	7,442	360,50	499,87	-5,578	
77,82	7,442	361,04	499,70	-5,578	
77,84	7,442	359,97	499,78	-5,578	
77,86	7,442	358,70	499,97	-5,578	
77,88	7,442	358,89	499,96	-5,578	
77,90	7,442	358,36	499,79	-5,578	
77,92	7,442	357,74	499,69	-5,578	
77,94	7,442	355,67	499,84	-5,578	
77,96	7,442	355,45	499,95	-5,578	
77,98	7,442	356,42	499,86	-5,578	
78,00	7,442	357,32	499,69	-5,578	
78,02	7,442	356,48	499,69	-5,578	
78,04	7,442	355,24	499,82	-5,578	
78,06	7,442	356,00	499,82	-5,578	
78,08	7,442	357,21	499,68	-5,578	
78,10	7,442	356,98	499,69	-5,578	
78,12	7,442	354,42	499,91	-5,579	
78,14	7,442	354,22	499,98	-5,579	
78,16	7,442	354,81	499,86	-5,579	
78,18	7,442	354,74	499,69	-5,579	
78,20	7,442	353,58	499,73	-5,579	
78,22	7,442	352,65	499,88	-5,579	
78,24	7,442	353,04	499,86	-5,579	
78,26	7,442	353,89	499,71	-5,579	
78,28	7,442	353,55	499,69	-5,579	
78,30	7,442	351,43	499,84	-5,579	
78,32	7,442	351,71	499,87	-5,579	
78,34	7,442	353,20	499,74	-5,579	
78,36	7,442	353,56	499,64	-5,579	
78,38	7,442	351,12	499,73	-5,579	
78,40	7,442	350,31	499,80	-5,580	
78,42	7,442	352,16	499,71	-5,580	
78,44	7,442	353,15	499,68	-5,580	
78,46	7,442	349,49	499,91	-5,580	
78,48	7,442	347,44	500,05	-5,580	
78,50	7,442	348,32	499,96	-5,580	
78,52	7,442	348,21	499,77	-5,580	
78,54	7,442	347,79	499,66	-5,580	
78,56	7,442	346,99	499,81	-5,580	
78,58	7,442	346,70	499,92	-5,580	
78,60	7,442	346,87	499,84	-5,580	
78,62	7,442	347,04	499,64	-5,580	
78,64	7,442	347,18	499,43	-5,580	
78,66	7,442	349,35	499,22	-5,580	
78,68	7,442	353,30	499,01	-5,580	
78,70	7,442	356,20	498,80	-5,580	
78,72	7,442	358,28	498,59	-5,580	
78,74	7,442	360,96	498,39	-5,580	
78,76	7,442	364,16	498,19	-5,580	
78,78	7,442	367,50	497,98	-5,580	
78,80	7,442	370,84	497,75	-5,580	
78,82	7,442	373,57	497,54	-5,580	
78,84	7,442	376,27	497,32	-5,579	
78,86	7,442	378,93	497,10	-5,579	
78,88	7,442	381,51	496,89	-5,579	
78,90	7,442	384,40	496,66	-5,579	
78,92	7,442	386,92	496,43	-5,579	
78,94	7,442	389,61	496,21	-5,579	
78,96	7,442	392,79	495,97	-5,579	
78,98	7,442	395,78	495,73	-5,579	
79,00	7,442	398,32	495,48	-5,579	
79,02	7,442	401,12	495,22	-5,579	
79,04	7,442	403,66	494,95	-5,579	
79,06	7,442	406,33	494,69	-5,579	
79,08	7,442	409,06	494,44	-5,579	
79,10	7,442	411,58	494,18	-5,579	
79,12	7,442	413,84	493,90	-5,579	
79,14	7,442	416,44	493,61	-5,579	
79,16	7,442	419,21	493,34	-5,579	
79,18	7,442	421,74	493,06	-5,579	
79,20	7,442	423,93	492,77	-5,579	
79,22	7,442	426,14	492,49	-5,579	
79,24	7,442	428,45	492,20	-5,579	
79,26	7,442	430,65	491,92	-5,579	
79,28	7,442	432,89	491,63	-5,579	
79,30	7,442	435,20	491,34	-5,579	
79,32	7,442	437,01	491,05	-5,579	
79,34	7,442	438,71	490,77	-5,579	
79,36	7,442	440,69	490,47	-5,579	
79,38	7,442	442,86	490,17	-5,579	
79,40	7,442	444,55	489,86	-5,579	
79,42	7,442	446,49	489,56	-5,579	
79,44	7,442	448,75	489,26	-5,579	
79,46	7,442	450,56	488,96	-5,579	
79,48	7,442	452,28	488,65	-5,579	
79,50	7,442	453,87	488,34	-5,579	
79,52	7,442	455,62	488,04	-5,579	
79,54	7,442	457,34	487,71	-5,579	
79,56	7,442	459,12	487,39	-5,579	
79,58	7,442	460,74	487,07	-5,579	
79,60	7,442	462,43	486,76	-5,579	
79,62	7,442	463,98	486,44	-5,579	
79,64	7,442	465,66	486,11	-5,579	
79,66	7,442	467,24	485,79	-5,579	
79,68	7,442	468,31	485,49	-5,579	
79,70	7,442	469,87	485,17	-5,579	
79,72	7,442	471,44	484,84	-5,579	
79,74	7,442	473,28	484,52	-5,579	
79,76	7,442	474,49	484,19	-5,579	
79,78	7,442	475,87	483,86	-5,579	
79,80	7,442	477,36	483,54	-5,579	
79,82	7,442	479,07	483,22	-5,580	
79,84	7,442	480,67	482,90	-5,580	
79,86	7,442	481,52	482,57	-5,580	
79,88	7,442	482,72	482,24	-5,580	
79,90	7,442	484,12	481,90	-5,580	
79,92	7,442	484,85	481,57	-5,580	
79,94	7,442	485,96	481,24	-5,580	
79,96	7,442	487,37	480,91	-5,580	
79,98	7,442	488,17	480,58	-5,580	
80,00	7,442	489,35	480,26	-5,580	
80,02	7,442	490,77	479,95	-5,580	
80,04	7,442	491,48	479,63	-5,580	
80,06	7,442	492,07	479,31	-5,580	
80,08	7,442	493,53	478,99	-5,580	
80,10	7,442	494,63	478,67	-5,580	
80,12	7,442	495,39	478,35	-5,580	
80,14	7,442	496,88	478,04	-5,580	
80,16	7,442	497,93	477,72	-5,580	
80,18	7,442	498,29	477,40	-5,580	
80,20	7,442	499,33	477,09	-5,580	
80,22	7,442	500,80	476,78	-5,581	
80,24	7,442	501,58	476,45	-5,581	
80,26	7,442	502,76	476,12	-5,581	
80,28	7,442	504,19	475,79	-5,581	
80,30	7,442	504,92	475,46	-5,581	
80,32	7,442	505,15	475,15	-5,581	
80,34	7,442	506,26	474,83	-5,581	
80,36	7,442	507,80	474,51	-5,581	
80,38	7,442	508,52	474,19	-5,581	
80,40	7,442	508,64	473,87	-5,581	
80,42	7,442	509,58	473,54	-5,581	
80,44	7,442	510,96	473,22	-5,581	
80,46	7,442	511,66	472,91	-5,581	
80,48	7,442	512,20	472,60	-5,582	
80,50	7,442	513,61	472,30	-5,582	
80,52	7,442	514,74	472,00	-5,582	
80,54	7,442	515,11	471,68	-5,582	
80,56	7,442	515,19	471,38	-5,582	
80,58	7,442	516,23	471,07	-5,582	
80,60	7,442	517,73	470,76	-5,582	
80,62	7,442	518,40	470,45	-5,582	
80,64	7,442	518,43	470,14	-5,582	
80,66	7,442	518,44	469,83	-5,582	
80,68	7,442	519,48	469,52	-5,582	
80,70	7,442	521,02	469,22	-5,582	
80,72	7,442	521,74	468,92	-5,582	
80,74	7,442	521,82	468,60	-5,583	
80,76	7,442	521,76	468,29	-5,583	
80,78	7,442	521,78	467,98	-5,583	
80,80	7,442	522,81	467,67	-5,583	
80,82	7,442	524,22	467,37	-5,583	
80,84	7,442	524,98	467,06	-5,583	
80,86	7,442	525,19	466,75	-5,583	
80,88	7,442	525,22	466,44	-5,583	
80,90	7,442	525,27	466,13	-5,583	
80,92	7,442	526,22	465,83	-5,583	
80,94	7,442	527,62	465,53	-5,583	
80,96	7,442	528,33	465,22	-5,583	
80,98	7,442	528,49	464,92	-5,583	
81,00	7,442	528,97	464,63	-5,583	
81,02	7,442	530,47	464,32	-5,583	
81,04	7,442	531,56	464,02	-5,583	
81,06	7,442	531,98	463,73	-5,583	
81,08	7,442	532,00	463,43	-5,584	
81,10	7,442	531,91	463,13	-5,584	
81,12	7,442	531,91	462,83	-5,584	
81,14	7,442	532,00	462,54	-5,584	
81,16	7,442	532,42	462,24	-5,584	
81,18	7,442	533,82	461,94	-5,584	
81,20	7,442	534,95	461,65	-5,584	
81,22	7,442	535,27	461,36	-5,584	
81,24	7,442	535,29	461,06	-5,584	
81,26	7,442	535,37	460,78	-5,584	
81,28	7,442	535,43	460,49	-5,585	
81,30	7,442	535,46	460,19	-5,585	
81,32	7,442	536,49	459,88	-5,585	
81,34	7,442	537,93	459,57	-5,585	
81,36	7,442	538,63	459,28	-5,585	
81,38	7,442	538,77	459,00	-5,585	
81,40	7,442	538,64	458,71	-5,585	
81,42	7,442	538,59	458,41	-5,585	
81,44	7,442	538,70	458,12	-5,585	
81,46	7,442	539,09	457,83	-5,585	
81,48	7,442	540,52	457,54	-5,585	
81,50	7,442	541,68	457,25	-5,585	
81,52	7,442	542,02	456,96	-5,585	
81,54	7,442	542,03	456,66	-5,585	
81,56	7,442	542,01	456,37	-5,586	
81,58	7,442	542,03	456,08	-5,586	
81,60	7,442	542,05	455,79	-5,586	
81,62	7,442	542,03	455,51	-5,586	
81,64	7,442	542,01	455,23	-5,586	
81,66	7,442	542,40	454,95	-5,586	
81,68	7,442	543,85	454,66	-5,586	
81,70	7,442	545,05	454,37	-5,586	
81,72	7,442	545,43	454,09	-5,586	
81,74	7,442	545,43	453,81	-5,586	
81,76	7,442	545,43	453,53	-5,586	
81,78	7,442	545,43	453,25	-5,587	
81,80	7,442	545,47	452,98	-5,587	
81,82	7,442	545,50	452,71	-5,587	
81,84	7,442	546,49	452,43	-5,587	
81,86	7,442	548,03	452,14	-5,587	
81,88	7,442	548,84	451,85	-5,587	
81,90	7,442	548,92	451,58	-5,587	
81,92	7,442	548,83	451,30	-5,587	
81,94	7,442	548,82	451,01	-5,587	
81,96	7,442	548,81	450,73	-5,587	
81,98	7,442	548,87	450,45	-5,587	
82,00	7,442	548,95	450,18	-5,587	
82,02	7,442	548,98	449,90	-5,588	
82,04	7,442	548,98	449,62	-5,588	
82,06	7,442	550,00	449,34	-5,588	
82,08	7,442	551,48	449,08	-5,588	
82,10	7,442	552,17	448,81	-5,588	
82,12	7,442	552,27	448,53	-5,588	
82,14	7,442	552,24	448,25	-5,588	
82,16	7,442	552,21	447,96	-5,588	
82,18	7,442	552,22	447,69	-5,588	
82,20	7,442	552,17	447,42	-5,588	
82,22	7,442	552,10	447,15	-5,588	
82,24	7,442	552,13	446,87	-5,589	
82,26	7,442	552,14	446,59	-5,589	
82,28	7,442	552,23	446,31	-5,589	
82,30	7,442	553,29	446,04	-5,589	
82,32	7,442	554,79	445,78	-5,589	
82,34	7,442	555,48	445,51	-5,589	
82,36	7,442	555,54	445,22	-5,589	
82,38	7,442	555,56	444,96	-5,589	
82,40	7,442	555,54	444,70	-5,589	
82,42	7,442	555,47	444,43	-5,589	
82,44	7,442	555,42	444,17	-5,589	
82,46	7,442	555,45	443,91	-5,590	
82,48	7,442	555,46	443,64	-5,590	
82,50	7,442	555,52	443,37	-5,590	
82,52	7,442	556,48	443,11	-5,590	
82,54	7,442	557,90	442,86	-5,590	
82,56	7,442	558,66	442,59	-5,590	
82,58	7,442	558,76	442,32	-5,590	
82,60	7,442	558,73	442,06	-5,590	
82,62	7,442	558,73	441,79	-5,590	
82,64	7,442	558,69	441,50	-5,590	
82,66	7,442	558,67	441,22	-5,591	
82,68	7,442	558,67	440,95	-5,591	
82,70	7,442	558,66	440,67	-5,591	
82,72	7,442	558,69	440,39	-5,591	
82,74	7,442	558,68	440,11	-5,591	
82,76	7,442	558,71	439,84	-5,591	
82,78	7,442	559,75	439,57	-5,591	
82,80	7,442	561,26	439,31	-5,591	
82,82	7,442	562,07	439,05	-5,591	
82,84	7,442	562,17	438,77	-5,592	
82,86	7,442	562,09	438,50	-5,592	
82,88	7,442	562,09	438,24	-5,592	
82,90	7,442	562,12	437,99	-5,592	
82,92	7,442	562,13	437,73	-5,592	
82,94	7,442	562,18	437,45	-5,592	
82,96	7,442	562,23	437,19	-5,592	
82,98	7,442	562,61	436,94	-5,592	
83,00	7,442	564,03	436,69	-5,592	
83,02	7,442	565,13	436,44	-5,592	
83,04	7,442	565,50	436,19	-5,593	
83,06	7,442	565,46	435,93	-5,593	
83,08	7,442	565,37	435,67	-5,593	
83,10	7,442	565,33	435,41	-5,593	
83,12	7,442	565,34	435,16	-5,593	
83,14	7,442	565,40	434,90	-5,593	
83,16	7,442	565,41	434,62	-5,593	
83,18	7,442	565,46	434,36	-5,593	
83,20	7,442	565,49	434,12	-5,594	
83,22	7,442	565,42	433,87	-5,594	
83,24	7,442	565,41	433,62	-5,594	
83,26	7,442	565,49	433,36	-5,594	
83,28	7,442	565,56	433,09	-5,594	
83,30	7,442	565,61	432,82	-5,594	
83,32	7,442	566,00	432,55	-5,594	
83,34	7,442	567,43	432,28	-5,594	
83,36	7,442	568,53	432,01	-5,594	
83,38	7,442	568,89	431,75	-5,595	
83,40	7,442	568,86	431,48	-5,595	
83,42	7,442	568,81	431,22	-5,595	
83,44	7,442	568,81	430,96	-5,595	
83,46	7,442	568,82	430,71	-5,595	
83,48	7,442	568,85	430,45	-5,595	
83,50	7,442	568,85	430,19	-5,595	
83,52	7,442	568,82	429,93	-5,595	
83,54	7,442	568,78	429,68	-5,595	
83,56	7,442	568,76	429,43	-5,596	
83,58	7,442	568,74	429,19	-5,596	
83,60	7,442	568,75	428,95	-5,596	
83,62	7,442	568,84	428,71	-5,596	
83,64	7,442	568,93	428,46	-5,596	
83,66	7,442	568,92	428,21	-5,596	
83,68	7,442	568,79	427,96	-5,596	
83,70	7,442	568,67	427,72	-5,596	
83,72	7,442	568,65	427,47	-5,596	
83,74	7,442	568,76	427,22	-5,596	
83,76	7,442	569,81	426,96	-5,597	
83,78	7,442	571,29	426,71	-5,597	
83,80	7,442	572,00	426,44	-5,597	
83,82	7,442	572,06	426,20	-5,597	
83,84	7,442	572,07	425,96	-5,597	
83,86	7,442	572,07	425,73	-5,597	
83,88	7,442	572,07	425,48	-5,597	
83,90	7,442	572,10	425,22	-5,598	
83,92	7,442	572,11	424,97	-5,598	
83,94	7,442	572,06	424,71	-5,598	
83,96	7,442	572,04	424,46	-5,598	
83,98	7,442	572,10	424,21	-5,598	
84,00	7,442	572,18	423,95	-5,598	
84,02	7,442	572,19	423,69	-5,598	
84,04	7,442	572,16	423,45	-5,598	
84,06	7,442	572,09	423,20	-5,598	
84,08	7,442	572,02	422,96	-5,598	
84,10	7,442	572,06	422,72	-5,599	
84,12	7,442	572,07	422,46	-5,599	
84,14	7,442	572,05	422,20	-5,599	
84,16	7,442	572,02	421,95	-5,599	
84,18	7,442	572,07	421,70	-5,599	
84,20	7,442	572,14	421,44	-5,599	
84,22	7,442	572,21	421,19	-5,599	
84,24	7,442	572,19	420,94	-5,599	
84,26	7,442	572,50	420,70	-5,600	
84,28	7,442	573,90	420,46	-5,600	
84,30	7,442	575,05	420,22	-5,600	
84,32	7,442	575,42	419,97	-5,600	
84,34	7,442	575,42	419,72	-5,600	
84,36	7,442	575,40	419,47	-5,600	
84,38	7,442	575,44	419,23	-5,600	
84,40	7,442	575,47	419,00	-5,600	
84,42	7,442	575,50	418,75	-5,600	
84,44	7,442	575,55	418,50	-5,601	
84,46	7,442	575,51	418,26	-5,601	
84,48	7,442	575,45	418,01	-5,601	
84,50	7,442	575,45	417,76	-5,601	
84,52	7,442	575,52	417,52	-5,601	
84,54	7,442	575,53	417,28	-5,601	
84,56	7,442	575,48	417,03	-5,601	
84,58	7,442	575,39	416,79	-5,602	
84,60	7,442	575,33	416,55	-5,602	
84,62	7,442	575,32	416,31	-5,602	
84,64	7,442	575,34	416,08	-5,602	
84,66	7,442	575,37	415,82	-5,602	
84,68	7,442	575,38	415,57	-5,602	
84,70	7,442	575,39	415,33	-5,602	
84,72	7,442	575,46	415,10	-5,602	
84,74	7,442	575,44	414,86	-5,602	
84,76	7,442	575,34	414,62	-5,602	
84,78	7,442	575,31	414,38	-5,603	
84,80	7,442	575,39	414,14	-5,603	
84,82	7,442	575,43	413,90	-5,603	
84,84	7,442	575,42	413,66	-5,603	
84,86	7,442	575,43	413,43	-5,603	
84,88	7,442	575,41	413,19	-5,603	
84,90	7,442	575,40	412,95	-5,603	
84,92	7,442	575,50	412,71	-5,603	
84,94	7,442	575,50	412,48	-5,604	
84,96	7,442	575,41	412,24	-5,604	
84,98	7,442	575,37	412,00	-5,604	
85,00	7,442	575,42	411,75	-5,604	
85,02	7,442	575,47	411,52	-5,604	
85,04	7,442	575,46	411,28	-5,604	
85,06	7,442	575,41	411,04	-5,604	
85,08	7,442	575,37	410,82	-5,604	
85,10	7,442	575,38	410,59	-5,605	
85,12	7,442	575,39	410,35	-5,605	
85,14	7,442	576,04	410,10	-5,605	
85,16	7,442	576,16	409,85	-5,605	
85,18	7,442	576,30	409,62	-5,605	
85,20	7,442	576,06	409,39	-5,605	
85,22	7,442	575,57	409,15	-5,605	
85,24	7,442	575,77	408,92	-5,605	
85,26	7,442	577,22	408,67	-5,605	
85,28	7,442	578,43	408,42	-5,606	
85,30	7,442	578,76	408,18	-5,606	
85,32	7,442	578,71	407,95	-5,606	
85,34	7,442	578,74	407,72	-5,606	
85,36	7,442	578,79	407,49	-5,606	
85,38	7,442	578,78	407,25	-5,606	
85,40	7,442	578,72	407,02	-5,606	
85,42	7,442	578,75	406,78	-5,606	
85,44	7,442	578,83	406,56	-5,607	
85,46	7,442	578,81	406,35	-5,607	
85,48	7,442	577,89	406,11	-5,607	
85,50	7,442	576,45	405,87	-5,607	
85,52	7,442	575,77	405,64	-5,607	
85,54	7,442	576,57	405,41	-5,607	
85,56	7,442	577,98	405,18	-5,607	
85,58	7,442	578,10	404,96	-5,607	
85,60	7,442	578,18	404,74	-5,607	
85,62	7,442	578,26	404,52	-5,607	
85,64	7,442	577,11	404,27	-5,608	
85,66	7,442	575,97	404,03	-5,608	
85,68	7,442	575,55	403,81	-5,608	
85,70	7,442	575,55	403,61	-5,608	
85,72	7,442	575,53	403,39	-5,608	
85,74	7,442	575,48	403,16	-5,608	
85,76	7,442	575,50	402,92	-5,608	
85,78	7,442	575,59	402,68	-5,608	
85,80	7,442	575,57	402,47	-5,609	
85,82	7,442	575,51	402,26	-5,609	
85,84	7,442	575,51	402,03	-5,609	
85,86	7,442	575,51	401,79	-5,609	
85,88	7,442	575,52	401,57	-5,609	
85,90	7,442	575,57	401,35	-5,609	
85,92	7,442	575,61	401,14	-5,609	
85,94	7,442	575,64	400,94	-5,609	
85,96	7,442	575,61	400,72	-5,609	
85,98	7,442	575,57	400,48	-5,610	
86,00	7,442	575,55	400,25	-5,610	
86,02	7,442	575,54	400,04	-5,610	
86,04	7,442	575,57	399,83	-5,610	
86,06	7,442	575,58	399,63	-5,610	
86,08	7,442	575,60	399,41	-5,610	
86,10	7,442	575,58	399,18	-5,610	
86,12	7,442	575,56	398,97	-5,611	
86,14	7,442	575,53	398,76	-5,611	
86,16	7,442	575,55	398,54	-5,611	
86,18	7,442	575,59	398,33	-5,611	
86,20	7,442	575,55	398,12	-5,611	
86,22	7,442	575,53	397,91	-5,611	
86,24	7,442	575,53	397,70	-5,611	
86,26	7,442	575,50	397,47	-5,611	
86,28	7,442	575,49	397,25	-5,611	
86,30	7,442	575,56	397,02	-5,611	
86,32	7,442	575,55	396,81	-5,611	