Zeit  1 - Standardmessrate [s]	ZwickWeg [mm]	ZwickKraft [N]	Pyrometer [°C]	Maytec [mm]
0	0,4931	170,95	150,05	-0,00583	
0,02000	0,4931	170,98	150,05	-0,00578	
0,04000	0,4931	171,55	150,05	-0,00569	
0,06000	0,4931	173,01	150,05	-0,00560	
0,08000	0,4931	173,32	150,05	-0,00558	
0,1000	0,4931	172,19	150,05	-0,00565	
0,1200	0,4931	171,80	150,05	-0,00579	
0,1400	0,4931	171,43	150,05	-0,00588	
0,1600	0,4931	171,01	150,05	-0,00586	
0,1800	0,4931	170,80	150,05	-0,00573	
0,2000	0,4931	171,18	150,05	-0,00559	
0,2200	0,4931	172,14	150,04	-0,00556	
0,2400	0,4931	173,32	150,05	-0,00563	
0,2600	0,4931	173,95	150,05	-0,00578	
0,2800	0,4931	174,06	150,05	-0,00589	
0,3000	0,4931	173,52	150,05	-0,00585	
0,3200	0,4931	173,25	150,05	-0,00577	
0,3400	0,4931	173,52	150,05	-0,00564	
0,3600	0,4931	172,70	150,05	-0,00552	
0,3800	0,4931	171,40	150,05	-0,00554	
0,4000	0,4931	170,76	150,05	-0,00566	
0,4200	0,4931	170,68	150,05	-0,00581	
0,4400	0,4931	170,71	150,05	-0,00589	
0,4600	0,4931	170,71	150,05	-0,00581	
0,4800	0,4931	170,70	150,05	-0,00568	
0,5000	0,4931	170,72	150,05	-0,00559	
0,5200	0,4931	171,35	150,05	-0,00569	
0,5400	0,4931	172,85	150,05	-0,00581	
0,5600	0,4931	173,68	150,05	-0,00591	
0,5800	0,4931	173,19	150,05	-0,00592	
0,6000	0,4931	172,16	150,05	-0,00583	
0,6200	0,4931	171,21	150,05	-0,00573	
0,6400	0,4931	170,83	150,05	-0,00571	
0,6600	0,4931	170,78	150,05	-0,00568	
0,6800	0,4931	170,80	150,05	-0,00565	
0,7000	0,4931	170,81	150,05	-0,00571	
0,7200	0,4931	170,83	150,05	-0,00580	
0,7400	0,4931	170,79	150,05	-0,00578	
0,7600	0,4931	171,35	150,05	-0,00563	
0,7800	0,4931	172,90	150,05	-0,00559	
0,8000	0,4931	174,00	150,05	-0,00561	
0,8200	0,4931	174,27	150,05	-0,00564	
0,8400	0,4931	174,22	150,05	-0,00573	
0,8600	0,4931	174,19	150,05	-0,00584	
0,8800	0,4931	174,22	150,05	-0,00588	
0,9000	0,4931	174,27	150,05	-0,00581	
0,9200	0,4931	174,14	150,05	-0,00572	
0,9400	0,4931	172,89	150,05	-0,00560	
0,9600	0,4931	171,47	150,05	-0,00558	
0,9800	0,4931	171,47	150,05	-0,00573	
1,000	0,4930	172,85	150,05	-0,00587	
1,020	0,4927	173,91	150,05	-0,00585	
1,040	0,4925	174,23	150,05	-0,00579	
1,060	0,4924	174,28	150,05	-0,00578	
1,080	0,4925	174,26	150,05	-0,00567	
1,100	0,4925	174,24	150,04	-0,00562	
1,120	0,4925	173,64	150,05	-0,00575	
1,140	0,4924	172,14	150,05	-0,00584	
1,160	0,4924	171,15	150,05	-0,00582	
1,180	0,4924	170,86	150,05	-0,00569	
1,200	0,4924	170,87	150,04	-0,00562	
1,220	0,4925	171,07	150,05	-0,00560	
1,240	0,4924	172,28	150,05	-0,00562	
1,260	0,4924	173,47	150,04	-0,00573	
1,280	0,4924	172,84	150,05	-0,00582	
1,300	0,4924	171,52	150,04	-0,00577	
1,320	0,4924	171,08	150,05	-0,00571	
1,340	0,4924	172,24	150,05	-0,00566	
1,360	0,4924	173,45	150,05	-0,00560	
1,380	0,4924	172,76	150,05	-0,00558	
1,400	0,4924	171,39	150,05	-0,00562	
1,420	0,4924	170,76	150,05	-0,00575	
1,440	0,4924	170,71	150,05	-0,00585	
1,460	0,4924	170,80	150,05	-0,00584	
1,480	0,4924	170,80	150,05	-0,00573	
1,500	0,4924	170,74	150,05	-0,00561	
1,520	0,4924	170,75	150,05	-0,00560	
1,540	0,4924	170,83	150,05	-0,00565	
1,560	0,4924	170,88	150,05	-0,00577	
1,580	0,4924	171,39	150,05	-0,00594	
1,600	0,4924	172,87	150,05	-0,00593	
1,620	0,4924	174,00	150,05	-0,00577	
1,640	0,4924	174,31	150,05	-0,00564	
1,660	0,4924	174,22	150,05	-0,00559	
1,680	0,4924	173,56	150,05	-0,00564	
1,700	0,4924	172,10	150,05	-0,00571	
1,720	0,4924	171,15	150,05	-0,00577	
1,740	0,4924	170,93	150,05	-0,00575	
1,760	0,4925	171,55	150,05	-0,00566	
1,780	0,4925	173,04	150,05	-0,00559	
1,800	0,4924	174,02	150,05	-0,00556	
1,820	0,4924	174,22	150,05	-0,00560	
1,840	0,4925	174,16	150,04	-0,00568	
1,860	0,4924	174,14	150,05	-0,00569	
1,880	0,4925	174,19	150,05	-0,00569	
1,900	0,4925	174,10	150,05	-0,00570	
1,920	0,4925	172,91	150,05	-0,00571	
1,940	0,4924	171,54	150,05	-0,00562	
1,960	0,4924	171,01	150,04	-0,00557	
1,980	0,4925	170,91	150,04	-0,00561	
2,000	0,4925	171,52	150,04	-0,00575	
2,020	0,4925	173,02	150,04	-0,00584	
2,040	0,4924	174,03	150,04	-0,00582	
2,060	0,4924	174,23	150,04	-0,00575	
2,080	0,4924	174,20	150,04	-0,00570	
2,100	0,4924	174,25	150,04	-0,00562	
2,120	0,4924	173,72	150,04	-0,00561	
2,140	0,4924	172,17	150,04	-0,00571	
2,160	0,4924	171,11	150,04	-0,00584	
2,180	0,4924	170,86	150,04	-0,00578	
2,200	0,4924	170,87	150,04	-0,00570	
2,220	0,4924	170,94	150,04	-0,00566	
2,240	0,4924	170,91	150,04	-0,00564	
2,260	0,4924	170,80	150,04	-0,00563	
2,280	0,4924	170,92	150,05	-0,00570	
2,300	0,4925	172,16	150,05	-0,00578	
2,320	0,4924	173,58	150,05	-0,00580	
2,340	0,4924	174,17	150,05	-0,00576	
2,360	0,4924	174,20	150,05	-0,00570	
2,380	0,4924	174,16	150,04	-0,00562	
2,400	0,4924	174,14	150,05	-0,00560	
2,420	0,4924	173,99	150,05	-0,00565	
2,440	0,4925	172,77	150,05	-0,00580	
2,460	0,4925	171,43	150,05	-0,00589	
2,480	0,4925	170,91	150,05	-0,00584	
2,500	0,4925	170,92	150,05	-0,00575	
2,520	0,4925	171,11	150,05	-0,00563	
2,540	0,4925	172,26	150,05	-0,00557	
2,560	0,4925	173,61	150,05	-0,00564	
2,580	0,4925	174,04	150,05	-0,00569	
2,600	0,4925	172,91	150,05	-0,00571	
2,620	0,4925	171,41	150,05	-0,00574	
2,640	0,4925	170,81	150,05	-0,00570	
2,660	0,4924	170,94	150,05	-0,00567	
2,680	0,4925	171,73	150,05	-0,00567	
2,700	0,4924	172,80	150,05	-0,00562	
2,720	0,4924	173,73	150,05	-0,00567	
2,740	0,4924	173,51	150,05	-0,00576	
2,760	0,4924	172,06	150,05	-0,00586	
2,780	0,4924	171,05	150,05	-0,00583	
2,800	0,4924	170,77	150,05	-0,00570	
2,820	0,4924	170,79	150,05	-0,00560	
2,840	0,4924	170,84	150,05	-0,00557	
2,860	0,4925	170,85	150,05	-0,00562	
2,880	0,4925	170,87	150,05	-0,00567	
2,900	0,4925	170,90	150,05	-0,00578	
2,920	0,4925	170,84	150,05	-0,00590	
2,940	0,4925	170,79	150,05	-0,00583	
2,960	0,4925	170,78	150,05	-0,00571	
2,980	0,4924	170,80	150,05	-0,00565	
3,000	0,4925	170,85	150,05	-0,00565	
3,020	0,4925	170,89	150,05	-0,00578	
3,040	0,4925	170,82	150,05	-0,00584	
3,060	0,4925	170,76	150,05	-0,00583	
3,080	0,4924	170,78	150,05	-0,00581	
3,100	0,4924	170,79	150,05	-0,00569	
3,120	0,4924	170,79	150,05	-0,00561	
3,140	0,4925	170,93	150,05	-0,00559	
3,160	0,4925	172,11	150,05	-0,00566	
3,180	0,4924	173,51	150,05	-0,00583	
3,200	0,4925	174,15	150,05	-0,00593	
3,220	0,4924	174,09	150,05	-0,00584	
3,240	0,4924	172,91	150,05	-0,00568	
3,260	0,4925	171,53	150,05	-0,00558	
3,280	0,4925	170,94	150,05	-0,00560	
3,300	0,4925	170,91	150,05	-0,00572	
3,320	0,4924	171,01	150,05	-0,00586	
3,340	0,4925	171,05	150,05	-0,00589	
3,360	0,4924	171,04	150,05	-0,00574	
3,380	0,4925	171,02	150,05	-0,00564	
3,400	0,4924	171,01	150,05	-0,00566	
3,420	0,4924	170,98	150,05	-0,00565	
3,440	0,4925	171,45	150,05	-0,00563	
3,460	0,4925	171,78	150,05	-0,00574	
3,480	0,4925	171,41	150,05	-0,00584	
3,500	0,4925	171,05	150,05	-0,00580	
3,520	0,4925	170,94	150,05	-0,00569	
3,540	0,4925	170,93	150,05	-0,00562	
3,560	0,4925	170,97	150,05	-0,00558	
3,580	0,4925	171,00	150,05	-0,00560	
3,600	0,4925	170,98	150,05	-0,00575	
3,620	0,4925	170,97	150,05	-0,00584	
3,640	0,4925	171,53	150,05	-0,00578	
3,660	0,4925	173,03	150,05	-0,00566	
3,680	0,4925	174,11	150,05	-0,00555	
3,700	0,4925	174,42	150,05	-0,00553	
3,720	0,4925	174,42	150,05	-0,00560	
3,740	0,4925	174,35	150,05	-0,00572	
3,760	0,4924	174,33	150,05	-0,00583	
3,780	0,4924	174,35	150,05	-0,00589	
3,800	0,4924	174,35	150,05	-0,00575	
3,820	0,4925	174,34	150,05	-0,00564	
3,840	0,4924	174,29	150,05	-0,00561	
3,860	0,4925	173,71	150,05	-0,00563	
3,880	0,4924	172,20	150,05	-0,00577	
3,900	0,4924	171,19	150,05	-0,00590	
3,920	0,4924	170,96	150,05	-0,00591	
3,940	0,4924	170,89	150,05	-0,00580	
3,960	0,4924	171,37	150,05	-0,00566	
3,980	0,4924	172,95	150,05	-0,00559	
4,000	0,4924	173,98	150,05	-0,00566	
4,020	0,4924	173,55	150,05	-0,00580	
4,040	0,4924	172,45	150,05	-0,00588	
4,060	0,4925	171,43	150,05	-0,00587	
4,080	0,4925	171,01	150,05	-0,00579	
4,100	0,4925	170,89	150,05	-0,00566	
4,120	0,4925	170,83	150,05	-0,00557	
4,140	0,4925	171,38	150,05	-0,00553	
4,160	0,4924	172,87	150,05	-0,00562	
4,180	0,4924	173,87	150,05	-0,00579	
4,200	0,4924	174,14	150,05	-0,00584	
4,220	0,4924	174,13	150,05	-0,00571	
4,240	0,4925	174,11	150,05	-0,00557	
4,260	0,4924	173,56	150,05	-0,00555	
4,280	0,4924	172,10	150,05	-0,00558	
4,300	0,4925	171,24	150,05	-0,00565	
4,320	0,4923	172,16	150,05	-0,00571	
4,340	0,4920	173,54	150,05	-0,00579	
4,360	0,4918	174,13	150,05	-0,00581	
4,380	0,4918	174,24	150,05	-0,00569	
4,400	0,4917	174,26	150,05	-0,00560	
4,420	0,4917	174,32	150,05	-0,00558	
4,440	0,4918	173,76	150,05	-0,00564	
4,460	0,4918	172,26	150,05	-0,00576	
4,480	0,4917	171,25	150,05	-0,00585	
4,500	0,4918	170,94	150,05	-0,00574	
4,520	0,4918	170,91	150,05	-0,00562	
4,540	0,4917	170,90	150,05	-0,00557	
4,560	0,4917	170,85	150,05	-0,00555	
4,580	0,4918	170,86	150,05	-0,00562	
4,600	0,4918	171,44	150,05	-0,00573	
4,620	0,4917	172,98	150,05	-0,00575	
4,640	0,4918	174,05	150,05	-0,00571	
4,660	0,4918	174,28	150,05	-0,00564	
4,680	0,4918	174,23	150,05	-0,00554	
4,700	0,4918	174,24	150,05	-0,00553	
4,720	0,4918	174,31	150,05	-0,00560	
4,740	0,4917	174,32	150,05	-0,00569	
4,760	0,4917	174,32	150,05	-0,00578	
4,780	0,4918	174,38	150,05	-0,00579	
4,800	0,4918	173,86	150,05	-0,00571	
4,820	0,4917	172,32	150,05	-0,00559	
4,840	0,4918	171,23	150,05	-0,00548	
4,860	0,4918	170,89	150,05	-0,00552	
4,880	0,4917	170,90	150,05	-0,00573	
4,900	0,4918	170,91	150,05	-0,00587	
4,920	0,4918	170,85	150,05	-0,00588	
4,940	0,4917	170,84	150,05	-0,00576	
4,960	0,4917	170,88	150,05	-0,00562	
4,980	0,4918	170,91	150,05	-0,00561	
5,000	0,4918	170,94	150,05	-0,00562	
5,020	0,4917	170,94	150,05	-0,00570	
5,040	0,4918	170,93	150,05	-0,00592	
5,060	0,4918	171,00	150,05	-0,00591	
5,080	0,4917	171,01	150,05	-0,00575	
5,100	0,4918	170,96	150,05	-0,00562	
5,120	0,4918	170,89	150,05	-0,00557	
5,140	0,4918	170,96	150,05	-0,00557	
5,160	0,4918	171,01	150,05	-0,00567	
5,180	0,4918	171,10	150,05	-0,00583	
5,200	0,4918	171,71	150,05	-0,00590	
5,220	0,4917	171,58	150,05	-0,00588	
5,240	0,4917	171,11	150,05	-0,00581	
5,260	0,4918	170,91	150,05	-0,00572	
5,280	0,4917	170,88	150,05	-0,00566	
5,300	0,4917	170,83	150,05	-0,00573	
5,320	0,4918	170,79	150,05	-0,00584	
5,340	0,4918	170,80	150,04	-0,00591	
5,360	0,4917	170,82	150,05	-0,00590	
5,380	0,4918	170,82	150,05	-0,00575	
5,400	0,4918	170,91	150,05	-0,00561	
5,420	0,4917	171,60	150,05	-0,00561	
5,440	0,4918	172,16	150,05	-0,00567	
5,460	0,4918	171,73	150,05	-0,00578	
5,480	0,4917	171,09	150,05	-0,00586	
5,500	0,4917	170,78	150,05	-0,00581	
5,520	0,4918	170,79	150,05	-0,00571	
5,540	0,4918	170,87	150,05	-0,00562	
5,560	0,4917	171,43	150,05	-0,00556	
5,580	0,4918	172,81	150,05	-0,00559	
5,600	0,4918	172,65	150,05	-0,00575	
5,620	0,4917	171,54	150,05	-0,00585	
5,640	0,4917	170,97	150,05	-0,00585	
5,660	0,4918	170,86	150,05	-0,00571	
5,680	0,4918	170,86	150,05	-0,00557	
5,700	0,4918	170,86	150,05	-0,00555	
5,720	0,4918	170,93	150,05	-0,00563	
5,740	0,4918	170,95	150,05	-0,00570	
5,760	0,4918	170,83	150,05	-0,00579	
5,780	0,4918	170,69	150,05	-0,00586	
5,800	0,4918	170,75	150,05	-0,00583	
5,820	0,4917	171,43	150,05	-0,00578	
5,840	0,4918	172,98	150,05	-0,00565	
5,860	0,4918	173,95	150,05	-0,00563	
5,880	0,4917	174,15	150,05	-0,00575	
5,900	0,4917	174,11	150,05	-0,00586	
5,920	0,4918	174,10	150,05	-0,00584	
5,940	0,4917	174,15	150,05	-0,00585	
5,960	0,4917	174,09	150,05	-0,00577	
5,980	0,4918	172,98	150,05	-0,00566	
6,000	0,4918	171,62	150,05	-0,00569	
6,020	0,4917	171,09	150,05	-0,00580	
6,040	0,4918	170,98	150,04	-0,00582	
6,060	0,4918	171,46	150,05	-0,00582	
6,080	0,4918	172,95	150,05	-0,00580	
6,100	0,4918	173,95	150,05	-0,00572	
6,120	0,4918	174,22	150,05	-0,00562	
6,140	0,4918	174,24	150,05	-0,00557	
6,160	0,4917	174,14	150,05	-0,00566	
6,180	0,4918	172,97	150,05	-0,00584	
6,200	0,4918	171,53	150,05	-0,00588	
6,220	0,4917	170,87	150,05	-0,00582	
6,240	0,4917	170,76	150,05	-0,00573	
6,260	0,4918	170,80	150,05	-0,00565	
6,280	0,4918	170,90	150,05	-0,00561	
6,300	0,4917	170,98	150,05	-0,00571	
6,320	0,4918	170,99	150,05	-0,00584	
6,340	0,4918	170,96	150,05	-0,00585	
6,360	0,4917	170,97	150,05	-0,00590	
6,380	0,4918	170,97	150,05	-0,00581	
6,400	0,4918	170,98	150,05	-0,00567	
6,420	0,4918	170,99	150,05	-0,00564	
6,440	0,4918	170,97	150,05	-0,00567	
6,460	0,4918	170,96	150,05	-0,00572	
6,480	0,4918	171,51	150,05	-0,00577	
6,500	0,4917	173,04	150,05	-0,00585	
6,520	0,4918	174,08	150,05	-0,00583	
6,540	0,4918	174,38	150,05	-0,00573	
6,560	0,4917	174,25	150,05	-0,00566	
6,580	0,4918	173,04	150,05	-0,00561	
6,600	0,4918	171,65	150,05	-0,00568	
6,620	0,4917	171,04	150,05	-0,00585	
6,640	0,4917	170,89	150,04	-0,00594	
6,660	0,4918	170,88	150,05	-0,00589	
6,680	0,4918	170,89	150,05	-0,00574	
6,700	0,4917	170,91	150,04	-0,00559	
6,720	0,4918	170,93	150,05	-0,00559	
6,740	0,4918	170,92	150,05	-0,00573	
6,760	0,4917	170,89	150,05	-0,00584	
6,780	0,4918	170,94	150,05	-0,00587	
6,800	0,4918	171,02	150,05	-0,00582	
6,820	0,4918	171,02	150,05	-0,00573	
6,840	0,4918	170,98	150,05	-0,00563	
6,860	0,4918	170,96	150,05	-0,00552	
6,880	0,4918	170,93	150,05	-0,00558	
6,900	0,4917	171,41	150,05	-0,00575	
6,920	0,4918	172,86	150,05	-0,00588	
6,940	0,4918	173,92	150,05	-0,00591	
6,960	0,4917	174,30	150,05	-0,00579	
6,980	0,4917	174,33	150,05	-0,00565	
7,000	0,4918	174,26	150,05	-0,00557	
7,020	0,4918	174,19	150,05	-0,00553	
7,040	0,4917	174,17	150,05	-0,00559	
7,060	0,4918	174,23	150,05	-0,00578	
7,080	0,4918	174,17	150,05	-0,00589	
7,100	0,4917	173,01	150,05	-0,00586	
7,120	0,4917	171,55	150,05	-0,00575	
7,140	0,4918	170,93	150,05	-0,00565	
7,160	0,4917	170,85	150,05	-0,00563	
7,180	0,4917	170,91	150,05	-0,00572	
7,200	0,4918	170,87	150,05	-0,00579	
7,220	0,4918	170,84	150,05	-0,00586	
7,240	0,4917	170,86	150,05	-0,00586	
7,260	0,4918	170,91	150,05	-0,00570	
7,280	0,4918	170,94	150,05	-0,00559	
7,300	0,4917	170,86	150,05	-0,00558	
7,320	0,4917	170,78	150,05	-0,00566	
7,340	0,4918	170,78	150,05	-0,00583	
7,360	0,4918	171,39	150,05	-0,00598	
7,380	0,4917	172,84	150,05	-0,00593	
7,400	0,4918	172,76	150,05	-0,00576	
7,420	0,4918	171,66	150,05	-0,00565	
7,440	0,4917	171,02	150,05	-0,00565	
7,460	0,4917	170,92	150,05	-0,00574	
7,480	0,4918	170,91	150,05	-0,00591	
7,500	0,4918	170,92	150,05	-0,00597	
7,520	0,4917	170,92	150,05	-0,00595	
7,540	0,4918	170,94	150,05	-0,00590	
7,560	0,4918	170,93	150,05	-0,00580	
7,580	0,4917	170,91	150,05	-0,00561	
7,600	0,4918	170,87	150,05	-0,00554	
7,620	0,4918	170,90	150,05	-0,00564	
7,640	0,4917	170,99	150,05	-0,00583	
7,660	0,4917	171,14	150,05	-0,00587	
7,680	0,4918	172,26	150,05	-0,00585	
7,700	0,4918	173,64	150,05	-0,00578	
7,720	0,4917	174,25	150,05	-0,00565	
7,740	0,4918	174,37	150,05	-0,00558	
7,760	0,4918	174,31	150,05	-0,00562	
7,780	0,4917	174,22	150,05	-0,00574	
7,800	0,4917	173,72	150,05	-0,00583	
7,820	0,4918	173,31	150,05	-0,00581	
7,840	0,4917	173,71	150,05	-0,00570	
7,860	0,4917	174,14	150,05	-0,00557	
7,880	0,4918	174,25	150,05	-0,00550	
7,900	0,4918	174,19	150,05	-0,00554	
7,920	0,4917	174,11	150,05	-0,00571	
7,940	0,4917	174,12	150,05	-0,00583	
7,960	0,4918	174,04	150,05	-0,00584	
7,980	0,4917	172,90	150,05	-0,00575	
8,000	0,4917	171,45	150,05	-0,00565	
8,020	0,4918	170,74	150,05	-0,00565	
8,040	0,4918	170,59	150,05	-0,00574	
8,060	0,4917	170,67	150,05	-0,00582	
8,080	0,4917	170,72	150,05	-0,00584	
8,100	0,4918	170,71	150,05	-0,00585	
8,120	0,4917	170,72	150,05	-0,00583	
8,140	0,4917	170,70	150,05	-0,00575	
8,160	0,4918	170,69	150,05	-0,00561	
8,180	0,4918	171,22	150,05	-0,00555	
8,200	0,4917	172,77	150,05	-0,00571	
8,220	0,4918	173,86	150,05	-0,00586	
8,240	0,4917	174,53	150,06	-0,00589	
8,260	0,4913	175,18	150,16	-0,00634	
8,280	0,4919	145,97	150,00	-0,00700	
8,300	0,4921	100,49	149,97	-0,00683	
8,320	0,4919	57,46	150,02	-0,00644	
8,340	0,4922	22,13	150,05	-0,00632	
8,360	0,4951	-0,3809	150,05	-0,00648	
8,380	0,5008	11,86	150,05	-0,00651	
8,400	0,5068	51,82	150,05	-0,00651	
8,420	0,5116	95,65	150,05	-0,00644	
8,440	0,5148	133,08	150,05	-0,00634	
8,460	0,5166	159,67	150,05	-0,00626	
8,480	0,5172	175,01	150,04	-0,00620	
8,500	0,5173	182,02	150,05	-0,00635	
8,520	0,5170	184,06	150,05	-0,00636	
8,540	0,5166	184,21	150,04	-0,00633	
8,560	0,5163	183,04	150,05	-0,00630	
8,580	0,5159	181,57	150,05	-0,00624	
8,600	0,5156	179,79	150,05	-0,00614	
8,620	0,5154	178,17	150,05	-0,00617	
8,640	0,5153	177,07	150,05	-0,00633	
8,660	0,5151	175,54	150,05	-0,00635	
8,680	0,5148	174,51	150,05	-0,00635	
8,700	0,5147	174,29	150,05	-0,00627	
8,720	0,5146	174,23	150,05	-0,00624	
8,740	0,5147	173,06	150,05	-0,00615	
8,760	0,5147	171,75	150,05	-0,00612	
8,780	0,5147	171,75	150,05	-0,00624	
8,800	0,5147	171,54	150,05	-0,00635	
8,820	0,5147	171,10	150,05	-0,00638	
8,840	0,5147	170,85	150,05	-0,00629	
8,860	0,5147	171,25	150,05	-0,00616	
8,880	0,5147	172,80	150,04	-0,00605	
8,900	0,5147	173,87	150,04	-0,00609	
8,920	0,5147	174,17	150,04	-0,00621	
8,940	0,5146	174,23	150,04	-0,00626	
8,960	0,5143	174,26	150,04	-0,00628	
8,980	0,5141	174,24	150,04	-0,00620	
9,000	0,5140	174,27	150,05	-0,00612	
9,020	0,5140	174,26	150,05	-0,00606	
9,040	0,5140	173,72	150,05	-0,00601	
9,060	0,5140	172,30	150,05	-0,00614	
9,080	0,5140	172,26	150,05	-0,00625	
9,100	0,5140	172,29	150,05	-0,00632	
9,120	0,5140	171,53	150,05	-0,00625	
9,140	0,5140	171,05	150,05	-0,00611	
9,160	0,5140	170,95	150,04	-0,00604	
9,180	0,5140	170,91	150,04	-0,00602	
9,200	0,5140	170,92	150,04	-0,00614	
9,220	0,5140	170,96	150,05	-0,00625	
9,240	0,5140	170,87	150,05	-0,00638	
9,260	0,5140	170,87	150,04	-0,00635	
9,280	0,5140	172,03	150,04	-0,00619	
9,300	0,5140	173,09	150,04	-0,00602	
9,320	0,5140	173,36	150,04	-0,00596	
9,340	0,5140	173,81	150,05	-0,00608	
9,360	0,5140	174,08	150,04	-0,00619	
9,380	0,5140	174,12	150,04	-0,00623	
9,400	0,5140	174,16	150,04	-0,00626	
9,420	0,5140	174,22	150,04	-0,00618	
9,440	0,5140	174,16	150,05	-0,00604	
9,460	0,5137	174,14	150,05	-0,00599	
9,480	0,5134	174,07	150,05	-0,00612	
9,500	0,5133	172,95	150,05	-0,00623	
9,520	0,5133	171,55	150,04	-0,00631	
9,540	0,5133	170,96	150,05	-0,00631	
9,560	0,5133	170,86	150,05	-0,00618	
9,580	0,5133	170,83	150,04	-0,00608	
9,600	0,5133	171,19	150,05	-0,00605	
9,620	0,5133	171,53	150,04	-0,00607	
9,640	0,5133	171,19	150,04	-0,00614	
9,660	0,5133	170,90	150,04	-0,00625	
9,680	0,5133	171,86	150,04	-0,00633	
9,700	0,5133	172,22	150,05	-0,00624	
9,720	0,5133	171,45	150,05	-0,00607	
9,740	0,5133	170,99	150,04	-0,00594	
9,760	0,5133	171,98	150,05	-0,00596	
9,780	0,5133	173,39	150,05	-0,00610	
9,800	0,5133	173,96	150,04	-0,00624	
9,820	0,5133	174,06	150,04	-0,00637	
9,840	0,5133	174,12	150,04	-0,00632	
9,860	0,5133	173,59	150,04	-0,00623	
9,880	0,5133	172,15	150,04	-0,00612	
9,900	0,5133	171,12	150,04	-0,00595	
9,920	0,5133	170,82	150,05	-0,00592	
9,940	0,5133	170,85	150,05	-0,00612	
9,960	0,5133	170,86	150,04	-0,00626	
9,980	0,5133	170,80	150,04	-0,00630	
10,00	0,5133	170,80	150,04	-0,00629	
10,02	0,5133	170,87	150,05	-0,00613	
10,04	0,5133	170,83	150,05	-0,00598	
10,06	0,5134	170,85	150,04	-0,00595	
10,08	0,5133	171,97	150,05	-0,00607	
10,10	0,5131	172,96	150,05	-0,00617	
10,12	0,5128	172,60	150,04	-0,00617	
10,14	0,5125	173,80	150,07	-0,00619	
10,16	0,5125	172,52	150,09	-0,00618	
10,18	0,5126	162,73	150,07	-0,00617	
10,20	0,5126	150,23	150,05	-0,00615	
10,22	0,5127	137,94	150,04	-0,00621	
10,24	0,5130	125,21	150,04	-0,00627	
10,26	0,5140	114,95	150,04	-0,00633	
10,28	0,5155	111,05	150,04	-0,00643	
10,30	0,5168	110,37	150,05	-0,00639	
10,32	0,5180	110,46	150,04	-0,00630	
10,34	0,5194	111,53	150,04	-0,00620	
10,36	0,5211	113,33	150,04	-0,00610	
10,38	0,5226	115,47	150,04	-0,00607	
10,40	0,5239	117,75	150,05	-0,00611	
10,42	0,5250	119,56	150,04	-0,00627	
10,44	0,5261	119,84	150,04	-0,00632	
10,46	0,5273	118,42	150,05	-0,00631	
10,48	0,5286	117,36	150,05	-0,00625	
10,50	0,5300	117,13	150,05	-0,00612	
10,52	0,5311	117,14	150,05	-0,00604	
10,54	0,5322	117,09	150,04	-0,00610	
10,56	0,5334	115,93	150,05	-0,00624	
10,58	0,5347	114,44	150,05	-0,00632	
10,60	0,5360	113,76	150,04	-0,00626	
10,62	0,5374	113,67	150,05	-0,00616	
10,64	0,5387	113,68	150,05	-0,00607	
10,66	0,5400	113,64	150,05	-0,00599	
10,68	0,5414	113,64	150,05	-0,00602	
10,70	0,5427	113,70	150,05	-0,00620	
10,72	0,5441	113,71	150,05	-0,00633	
10,74	0,5454	113,72	150,05	-0,00637	
10,76	0,5468	113,71	150,05	-0,00626	
10,78	0,5481	113,75	150,05	-0,00611	
10,80	0,5494	113,80	150,05	-0,00610	
10,82	0,5508	113,77	150,05	-0,00609	
10,84	0,5521	113,70	150,05	-0,00618	
10,86	0,5535	113,63	150,05	-0,00626	
10,88	0,5548	113,60	150,05	-0,00626	
10,90	0,5562	113,60	150,05	-0,00621	
10,92	0,5575	113,60	150,05	-0,00610	
10,94	0,5589	113,68	150,05	-0,00601	
10,96	0,5602	113,75	150,05	-0,00598	
10,98	0,5615	113,75	150,05	-0,00603	
11,00	0,5628	113,73	150,05	-0,00616	
11,02	0,5639	113,68	150,05	-0,00622	
11,04	0,5650	113,67	150,05	-0,00613	
11,06	0,5665	113,68	150,05	-0,00597	
11,08	0,5681	113,73	150,05	-0,00589	
11,10	0,5696	113,72	150,05	-0,00594	
11,12	0,5709	113,69	150,05	-0,00610	
11,14	0,5723	113,73	150,05	-0,00620	
11,16	0,5736	113,29	150,05	-0,00624	
11,18	0,5750	111,84	150,05	-0,00625	
11,20	0,5763	110,78	150,04	-0,00619	
11,22	0,5776	110,45	150,05	-0,00609	
11,24	0,5790	110,39	150,04	-0,00601	
11,26	0,5803	110,34	150,05	-0,00601	
11,28	0,5817	110,36	150,04	-0,00609	
11,30	0,5830	110,40	150,04	-0,00613	
11,32	0,5844	110,37	150,05	-0,00611	
11,34	0,5857	110,30	150,04	-0,00599	
11,36	0,5871	110,26	150,05	-0,00593	
11,38	0,5884	110,31	150,05	-0,00593	
11,40	0,5898	110,36	150,05	-0,00595	
11,42	0,5915	110,34	150,05	-0,00607	
11,44	0,5930	110,32	150,05	-0,00616	
11,46	0,5945	110,38	150,05	-0,00620	
11,48	0,5958	110,37	150,05	-0,00610	
11,50	0,5972	110,33	150,05	-0,00599	
11,52	0,5985	110,33	150,04	-0,00586	
11,54	0,5999	110,33	150,05	-0,00584	
11,56	0,6012	110,34	150,05	-0,00598	
11,58	0,6026	110,25	150,05	-0,00612	
11,60	0,6040	110,21	150,05	-0,00619	
11,62	0,6056	110,32	150,05	-0,00614	
11,64	0,6072	110,34	150,05	-0,00604	
11,66	0,6086	110,37	150,05	-0,00593	
11,68	0,6099	110,44	150,05	-0,00597	
11,70	0,6113	109,97	150,05	-0,00608	
11,72	0,6127	108,49	150,05	-0,00616	
11,74	0,6142	107,36	150,05	-0,00620	
11,76	0,6158	107,01	150,05	-0,00617	
11,78	0,6173	107,02	150,05	-0,00612	
11,80	0,6187	107,03	150,05	-0,00605	
11,82	0,6200	106,99	150,05	-0,00599	
11,84	0,6216	107,01	150,05	-0,00604	
11,86	0,6232	107,05	150,05	-0,00621	
11,88	0,6247	107,00	150,05	-0,00624	
11,90	0,6260	106,94	150,04	-0,00613	
11,92	0,6275	106,95	150,05	-0,00607	
11,94	0,6291	106,93	150,05	-0,00600	
11,96	0,6307	106,85	150,05	-0,00599	
11,98	0,6321	106,84	150,05	-0,00596	
12,00	0,6334	106,84	150,05	-0,00598	
12,02	0,6348	106,88	150,05	-0,00608	
12,04	0,6365	106,93	150,05	-0,00614	
12,06	0,6381	106,95	150,05	-0,00609	
12,08	0,6395	106,49	150,05	-0,00596	
12,10	0,6408	105,01	150,05	-0,00591	
12,12	0,6424	103,89	150,05	-0,00599	
12,14	0,6440	103,61	150,05	-0,00611	
12,16	0,6455	103,59	150,05	-0,00616	
12,18	0,6469	103,55	150,05	-0,00612	
12,20	0,6486	103,48	150,05	-0,00601	
12,22	0,6501	103,46	150,05	-0,00591	
12,24	0,6516	103,49	150,14	-0,00586	
12,26	0,6531	103,55	150,91	-0,00588	
12,28	0,6547	103,62	152,58	-0,00593	
12,30	0,6563	103,60	154,08	-0,00608	
12,32	0,6580	103,59	155,12	-0,00617	
12,34	0,6595	103,61	156,28	-0,00618	
12,36	0,6610	103,53	158,01	-0,00608	
12,38	0,6626	103,47	159,65	-0,00600	
12,40	0,6642	103,48	161,09	-0,00595	
12,42	0,6657	103,51	162,60	-0,00595	
12,44	0,6673	103,50	164,19	-0,00602	
12,46	0,6689	103,52	165,69	-0,00615	
12,48	0,6704	103,60	166,96	-0,00618	
12,50	0,6721	103,62	168,61	-0,00609	
12,52	0,6736	103,64	170,35	-0,00592	
12,54	0,6753	103,62	171,83	-0,00581	
12,56	0,6769	102,97	173,05	-0,00590	
12,58	0,6785	102,55	174,32	-0,00607	
12,60	0,6801	102,45	175,75	-0,00611	
12,62	0,6817	101,95	177,05	-0,00608	
12,64	0,6833	100,87	178,32	-0,00609	
12,66	0,6850	100,28	179,70	-0,00607	
12,68	0,6866	100,17	181,11	-0,00601	
12,70	0,6882	100,19	182,42	-0,00597	
12,72	0,6898	100,22	183,64	-0,00602	
12,74	0,6915	100,23	184,80	-0,00618	
12,76	0,6932	100,19	186,15	-0,00624	
12,78	0,6949	100,19	187,55	-0,00622	
12,80	0,6965	100,23	188,90	-0,00611	
12,82	0,6981	100,24	190,33	-0,00599	
12,84	0,6998	100,30	191,73	-0,00591	
12,86	0,7014	100,36	193,03	-0,00591	
12,88	0,7031	100,39	194,46	-0,00605	
12,90	0,7048	100,34	195,91	-0,00615	
12,92	0,7065	99,84	197,28	-0,00616	
12,94	0,7082	98,31	198,61	-0,00606	
12,96	0,7098	97,17	199,95	-0,00593	
12,98	0,7115	96,82	201,41	-0,00585	
13,00	0,7132	96,79	202,90	-0,00584	
13,02	0,7149	96,83	204,30	-0,00599	
13,04	0,7165	96,84	205,72	-0,00618	
13,06	0,7182	96,80	207,17	-0,00622	
13,08	0,7200	96,77	208,54	-0,00609	
13,10	0,7217	96,79	209,79	-0,00590	
13,12	0,7234	96,83	211,09	-0,00576	
13,14	0,7252	96,89	212,44	-0,00578	
13,16	0,7269	96,93	213,82	-0,00590	
13,18	0,7287	96,94	215,23	-0,00606	
13,20	0,7305	96,90	216,68	-0,00617	
13,22	0,7323	96,83	218,09	-0,00614	
13,24	0,7340	96,75	219,47	-0,00603	
13,26	0,7357	96,75	220,86	-0,00592	
13,28	0,7374	96,82	222,25	-0,00586	
13,30	0,7392	96,80	223,61	-0,00589	
13,32	0,7409	96,76	224,89	-0,00600	
13,34	0,7426	96,74	226,21	-0,00615	
13,36	0,7444	95,72	227,64	-0,00623	
13,38	0,7461	94,20	229,09	-0,00616	
13,40	0,7479	93,47	230,47	-0,00598	
13,42	0,7497	93,41	231,83	-0,00587	
13,44	0,7515	93,46	233,21	-0,00590	
13,46	0,7533	93,51	234,62	-0,00600	
13,48	0,7551	93,56	236,08	-0,00609	
13,50	0,7569	93,59	237,48	-0,00616	
13,52	0,7588	93,61	238,82	-0,00609	
13,54	0,7607	93,61	240,17	-0,00596	
13,56	0,7625	93,56	241,53	-0,00586	
13,58	0,7643	93,54	242,94	-0,00591	
13,60	0,7661	93,53	244,39	-0,00605	
13,62	0,7679	93,52	245,84	-0,00617	
13,64	0,7697	93,52	247,28	-0,00620	
13,66	0,7715	93,54	248,70	-0,00615	
13,68	0,7733	93,11	250,12	-0,00599	
13,70	0,7751	91,67	251,52	-0,00587	
13,72	0,7769	90,49	252,90	-0,00585	
13,74	0,7788	90,07	254,28	-0,00599	
13,76	0,7807	90,08	255,69	-0,00608	
13,78	0,7824	90,20	257,14	-0,00605	
13,80	0,7843	90,25	259,16	-0,00606	
13,82	0,7862	90,19	262,53	-0,00604	
13,84	0,7880	90,16	266,67	-0,00598	
13,86	0,7900	90,19	269,69	-0,00597	
13,88	0,7920	90,22	271,64	-0,00602	
13,90	0,7938	90,19	273,21	-0,00608	
13,92	0,7957	90,14	274,68	-0,00609	
13,94	0,7977	90,16	276,15	-0,00609	
13,96	0,7996	90,15	277,54	-0,00603	
13,98	0,8015	89,12	278,92	-0,00594	
14,00	0,8034	87,62	280,37	-0,00593	
14,02	0,8054	86,90	281,86	-0,00596	
14,04	0,8072	86,77	283,33	-0,00605	
14,06	0,8091	86,74	284,79	-0,00611	
14,08	0,8111	86,78	286,34	-0,00607	
14,10	0,8131	86,78	287,83	-0,00600	
14,12	0,8151	86,75	289,34	-0,00593	
14,14	0,8171	86,77	290,80	-0,00590	
14,16	0,8189	86,82	292,30	-0,00598	
14,18	0,8208	86,78	293,82	-0,00612	
14,20	0,8228	86,74	295,27	-0,00623	
14,22	0,8248	86,73	296,75	-0,00619	
14,24	0,8269	86,69	298,32	-0,00607	
14,26	0,8289	86,69	299,82	-0,00590	
14,28	0,8309	86,74	301,29	-0,00581	
14,30	0,8329	86,77	302,77	-0,00586	
14,32	0,8349	86,78	304,27	-0,00606	
14,34	0,8369	86,75	305,82	-0,00624	
14,36	0,8389	86,68	307,31	-0,00628	
14,38	0,8410	85,57	308,82	-0,00620	
14,40	0,8430	84,07	310,40	-0,00601	
14,42	0,8450	83,43	311,95	-0,00589	
14,44	0,8470	83,39	313,45	-0,00592	
14,46	0,8489	83,36	314,95	-0,00605	
14,48	0,8509	83,33	316,57	-0,00612	
14,50	0,8530	83,32	318,16	-0,00612	
14,52	0,8551	83,34	319,73	-0,00611	
14,54	0,8571	82,94	321,36	-0,00603	
14,56	0,8591	81,50	322,98	-0,00593	
14,58	0,8612	80,41	324,59	-0,00588	
14,60	0,8634	79,99	326,22	-0,00590	
14,62	0,8655	79,93	327,85	-0,00604	
14,64	0,8675	79,95	329,51	-0,00611	
14,66	0,8696	79,93	331,20	-0,00609	
14,68	0,8717	79,91	332,89	-0,00599	
14,70	0,8739	79,95	334,57	-0,00584	
14,72	0,8759	80,00	336,27	-0,00583	
14,74	0,8780	80,08	337,97	-0,00596	
14,76	0,8802	80,11	339,69	-0,00614	
14,78	0,8823	79,63	341,39	-0,00621	
14,80	0,8845	79,93	342,75	-0,00619	
14,82	0,8866	86,57	343,43	-0,00608	
14,84	0,8886	99,97	343,65	-0,00591	
14,86	0,8907	114,16	343,78	-0,00584	
14,88	0,8927	126,87	344,04	-0,00599	
14,90	0,8942	135,96	344,60	-0,00623	
14,92	0,8949	138,22	345,41	-0,00632	
14,94	0,8954	136,51	346,26	-0,00631	
14,96	0,8962	134,86	347,09	-0,00617	
14,98	0,8972	135,09	347,89	-0,00598	
15,00	0,8981	137,53	348,63	-0,00583	
15,02	0,8989	140,22	349,47	-0,00589	
15,04	0,8997	140,37	350,36	-0,00600	
15,06	0,9003	139,86	351,17	-0,00608	
15,08	0,9008	138,50	351,93	-0,00611	
15,10	0,9014	135,89	352,76	-0,00604	
15,12	0,9022	133,11	353,65	-0,00595	
15,14	0,9030	131,98	354,49	-0,00591	
15,16	0,9037	131,35	355,26	-0,00597	
15,18	0,9044	129,75	356,11	-0,00613	
15,20	0,9053	128,60	356,98	-0,00625	
15,22	0,9060	129,34	357,71	-0,00623	
15,24	0,9068	130,75	358,40	-0,00615	
15,26	0,9077	129,72	359,32	-0,00608	
15,28	0,9087	128,73	360,28	-0,00594	
15,30	0,9094	130,15	361,04	-0,00587	
15,32	0,9100	132,22	361,71	-0,00594	
15,34	0,9109	131,79	362,57	-0,00613	
15,36	0,9120	130,47	363,52	-0,00621	
15,38	0,9127	131,27	364,37	-0,00616	
15,40	0,9132	131,33	365,12	-0,00606	
15,42	0,9139	130,19	365,88	-0,00596	
15,44	0,9147	129,49	366,71	-0,00594	
15,46	0,9154	129,38	367,56	-0,00594	
15,48	0,9161	129,46	368,37	-0,00603	
15,50	0,9168	128,94	369,22	-0,00611	
15,52	0,9175	127,76	370,08	-0,00613	
15,54	0,9181	127,62	370,83	-0,00607	
15,56	0,9187	128,16	371,60	-0,00601	
15,58	0,9194	127,31	372,47	-0,00601	
15,60	0,9202	126,69	373,33	-0,00603	
15,62	0,9208	127,20	374,14	-0,00609	
15,64	0,9214	127,15	374,90	-0,00614	
15,66	0,9221	126,07	375,72	-0,00621	
15,68	0,9230	125,00	376,63	-0,00618	
15,70	0,9238	124,84	377,48	-0,00605	
15,72	0,9244	125,30	378,25	-0,00597	
15,74	0,9251	125,47	379,02	-0,00600	
15,76	0,9258	125,33	379,82	-0,00614	
15,78	0,9265	125,43	380,73	-0,00623	
15,80	0,9272	125,77	381,60	-0,00617	
15,82	0,9278	126,94	382,37	-0,00608	
15,84	0,9286	126,69	383,20	-0,00601	
15,86	0,9294	125,32	384,07	-0,00595	
15,88	0,9302	125,30	384,87	-0,00596	
15,90	0,9308	126,48	385,64	-0,00605	
15,92	0,9313	125,59	386,50	-0,00615	
15,94	0,9320	124,52	387,36	-0,00617	
15,96	0,9325	126,28	388,07	-0,00609	
15,98	0,9332	126,78	388,87	-0,00602	
16,00	0,9339	124,49	389,83	-0,00595	
16,02	0,9346	123,34	390,72	-0,00590	
16,04	0,9351	124,52	391,42	-0,00592	
16,06	0,9356	124,98	392,19	-0,00608	
16,08	0,9365	122,48	393,15	-0,00613	
16,10	0,9372	122,72	393,98	-0,00608	
16,12	0,9378	124,48	394,71	-0,00596	
16,14	0,9383	123,96	395,52	-0,00584	
16,16	0,9389	123,07	396,33	-0,00589	
16,18	0,9396	123,32	397,17	-0,00600	
16,20	0,9401	122,74	398,03	-0,00609	
16,22	0,9406	121,47	398,79	-0,00618	
16,24	0,9413	121,52	399,59	-0,00618	
16,26	0,9420	120,64	400,49	-0,00607	
16,28	0,9425	120,29	401,31	-0,00598	
16,30	0,9430	121,51	402,08	-0,00588	
16,32	0,9437	120,93	402,93	-0,00591	
16,34	0,9443	120,16	403,78	-0,00608	
16,36	0,9449	121,15	404,56	-0,00615	
16,38	0,9454	122,01	405,34	-0,00611	
16,40	0,9460	121,18	406,20	-0,00602	
16,42	0,9467	121,36	407,04	-0,00590	
16,44	0,9473	122,77	407,85	-0,00583	
16,46	0,9480	123,24	408,68	-0,00586	
16,48	0,9487	123,03	409,46	-0,00597	
16,50	0,9492	123,38	410,27	-0,00614	
16,52	0,9498	123,30	411,13	-0,00623	
16,54	0,9504	123,23	411,98	-0,00613	
16,56	0,9510	124,57	412,79	-0,00599	
16,58	0,9515	125,33	413,61	-0,00588	
16,60	0,9521	124,58	414,45	-0,00583	
16,62	0,9527	124,87	415,27	-0,00585	
16,64	0,9533	125,73	416,06	-0,00598	
16,66	0,9538	125,99	416,89	-0,00608	
16,68	0,9543	125,80	417,69	-0,00602	
16,70	0,9548	126,53	418,52	-0,00596	
16,72	0,9554	125,91	419,42	-0,00590	
16,74	0,9560	125,63	420,21	-0,00591	
16,76	0,9565	126,69	420,96	-0,00595	
16,78	0,9571	126,71	421,82	-0,00605	
16,80	0,9577	126,31	422,66	-0,00609	
16,82	0,9582	126,79	423,48	-0,00605	
16,84	0,9588	126,63	424,33	-0,00603	
16,86	0,9593	126,18	425,16	-0,00598	
16,88	0,9598	127,04	425,93	-0,00591	
16,90	0,9604	128,10	426,74	-0,00597	
16,92	0,9609	127,66	427,57	-0,00608	
16,94	0,9615	127,05	428,41	-0,00614	
16,96	0,9620	127,05	429,23	-0,00608	
16,98	0,9625	126,68	430,06	-0,00601	
17,00	0,9630	126,59	430,87	-0,00595	
17,02	0,9635	127,60	431,68	-0,00583	
17,04	0,9641	128,20	432,51	-0,00584	
17,06	0,9646	128,31	433,33	-0,00605	
17,08	0,9651	128,43	434,13	-0,00616	
17,10	0,9656	128,27	434,98	-0,00608	
17,12	0,9661	127,58	435,78	-0,00594	
17,14	0,9666	127,62	436,56	-0,00578	
17,16	0,9672	127,81	437,41	-0,00578	
17,18	0,9677	127,80	438,23	-0,00592	
17,20	0,9682	128,04	439,02	-0,00608	
17,22	0,9687	127,19	439,87	-0,00614	
17,24	0,9692	125,51	440,78	-0,00610	
17,26	0,9697	126,21	441,59	-0,00601	
17,28	0,9702	128,09	442,33	-0,00595	
17,30	0,9708	127,43	443,16	-0,00589	
17,32	0,9714	126,32	444,02	-0,00595	
17,34	0,9718	126,79	444,81	-0,00603	
17,36	0,9723	126,62	445,64	-0,00606	
17,38	0,9727	125,54	446,47	-0,00610	
17,40	0,9732	125,09	447,28	-0,00608	
17,42	0,9738	124,84	448,13	-0,00598	
17,44	0,9743	124,92	448,92	-0,00588	
17,46	0,9748	125,65	449,71	-0,00587	
17,48	0,9754	125,47	450,56	-0,00594	
17,50	0,9759	125,53	451,36	-0,00604	
17,52	0,9765	126,66	452,16	-0,00604	
17,54	0,9770	126,78	453,01	-0,00593	
17,56	0,9776	125,67	453,86	-0,00586	
17,58	0,9781	125,92	454,69	-0,00586	
17,60	0,9785	126,36	455,52	-0,00586	
17,62	0,9790	125,61	456,33	-0,00586	
17,64	0,9796	125,40	457,16	-0,00598	
17,66	0,9801	125,86	457,97	-0,00607	
17,68	0,9805	126,50	458,75	-0,00610	
17,70	0,9810	126,86	459,58	-0,00599	
17,72	0,9816	126,36	460,44	-0,00585	
17,74	0,9821	126,62	461,21	-0,00579	
17,76	0,9826	126,92	462,06	-0,00579	
17,78	0,9831	125,93	462,95	-0,00592	
17,80	0,9835	126,33	463,73	-0,00600	
17,82	0,9841	127,06	464,51	-0,00600	
17,84	0,9847	126,20	465,34	-0,00599	
17,86	0,9852	126,40	466,12	-0,00591	
17,88	0,9857	126,37	466,95	-0,00584	
17,90	0,9862	124,47	467,81	-0,00580	
17,92	0,9866	123,64	468,61	-0,00590	
17,94	0,9871	123,40	469,50	-0,00602	
17,96	0,9875	122,87	470,37	-0,00606	
17,98	0,9880	123,93	471,12	-0,00599	
18,00	0,9885	124,20	471,92	-0,00588	
18,02	0,9891	123,33	472,74	-0,00579	
18,04	0,9896	123,91	473,51	-0,00583	
18,06	0,9902	123,94	474,39	-0,00599	
18,08	0,9907	122,52	475,25	-0,00608	
18,10	0,9912	122,79	476,03	-0,00605	
18,12	0,9917	123,09	476,84	-0,00594	
18,14	0,9924	122,16	477,68	-0,00579	
18,16	0,9929	122,64	478,47	-0,00578	
18,18	0,9933	124,17	479,24	-0,00590	
18,20	0,9938	123,80	480,11	-0,00598	
18,22	0,9944	122,34	480,99	-0,00600	
18,24	0,9948	122,76	481,76	-0,00600	
18,26	0,9953	122,85	482,58	-0,00594	
18,28	0,9958	121,14	483,43	-0,00578	
18,30	0,9963	121,47	484,18	-0,00575	
18,32	0,9969	122,34	485,04	-0,00586	
18,34	0,9974	121,07	485,91	-0,00595	
18,36	0,9978	120,96	486,68	-0,00597	
18,38	0,9983	120,75	487,51	-0,00573	
18,40	0,9989	118,95	488,34	-0,00498	
18,42	0,9994	118,14	489,13	-0,00440	
18,44	1,0000	118,46	489,99	-0,00426	
18,46	1,001	118,10	490,80	-0,00429	
18,48	1,001	117,65	491,56	-0,00440	
18,50	1,002	116,62	492,44	-0,00453	
18,52	1,002	115,82	493,27	-0,00456	
18,54	1,002	116,95	494,05	-0,00449	
18,56	1,003	116,65	494,93	-0,00432	
18,58	1,003	115,21	495,76	-0,00420	
18,60	1,004	115,88	496,52	-0,00423	
18,62	1,005	115,29	497,39	-0,00490	
18,64	1,005	113,59	498,24	-0,00573	
18,66	1,006	113,81	499,00	-0,00610	
18,68	1,006	114,08	499,81	-0,00613	
18,70	1,007	112,67	500,63	-0,00599	
18,72	1,007	112,71	501,42	-0,00585	
18,74	1,008	112,86	502,27	-0,00581	
18,76	1,008	112,04	503,11	-0,00583	
18,78	1,009	111,89	503,94	-0,00594	
18,80	1,009	111,90	504,77	-0,00601	
18,82	1,010	111,84	505,53	-0,00599	
18,84	1,011	112,12	506,35	-0,00600	
18,86	1,011	111,99	507,22	-0,00592	
18,88	1,012	111,75	508,02	-0,00590	
18,90	1,012	111,40	508,86	-0,00599	
18,92	1,013	110,38	509,71	-0,00604	
18,94	1,013	110,24	510,46	-0,00606	
18,96	1,014	110,42	511,31	-0,00607	
18,98	1,015	109,34	512,19	-0,00600	
19,00	1,015	109,66	512,93	-0,00582	
19,02	1,016	109,61	513,76	-0,00576	
19,04	1,016	107,80	514,62	-0,00586	
19,06	1,017	108,06	515,35	-0,00598	
19,08	1,017	108,80	516,23	-0,00604	
19,10	1,018	106,51	517,15	-0,00603	
19,12	1,019	106,02	517,88	-0,00594	
19,14	1,019	106,16	518,70	-0,00590	
19,16	1,020	103,68	519,57	-0,00587	
19,18	1,020	103,67	520,35	-0,00584	
19,20	1,021	105,02	521,17	-0,00591	
19,22	1,022	103,64	521,98	-0,00603	
19,24	1,022	103,48	522,77	-0,00608	
19,26	1,023	104,62	523,64	-0,00612	
19,28	1,024	104,04	524,47	-0,00609	
19,30	1,024	103,51	525,24	-0,00596	
19,32	1,025	102,95	526,11	-0,00592	
19,34	1,026	102,37	526,93	-0,00605	
19,36	1,026	103,14	527,70	-0,00622	
19,38	1,027	102,10	528,56	-0,00621	
19,40	1,028	100,60	529,32	-0,00612	
19,42	1,028	101,91	530,08	-0,00602	
19,44	1,029	101,69	531,04	-0,00596	
19,46	1,030	100,56	531,88	-0,00586	
19,48	1,030	100,78	532,67	-0,00585	
19,50	1,031	99,68	533,52	-0,00598	
19,52	1,032	98,10	534,24	-0,00613	
19,54	1,032	98,77	535,03	-0,00615	
19,56	1,033	97,75	535,98	-0,00602	
19,58	1,034	96,33	536,73	-0,00589	
19,60	1,034	96,95	537,50	-0,00587	
19,62	1,035	95,04	538,47	-0,00589	
19,64	1,036	93,36	539,31	-0,00599	
19,66	1,036	94,57	540,06	-0,00616	
19,68	1,037	93,79	540,86	-0,00621	
19,70	1,038	91,95	541,64	-0,00605	
19,72	1,038	92,18	542,45	-0,00590	
19,74	1,039	90,76	543,30	-0,00584	
19,76	1,040	89,37	544,10	-0,00588	
19,78	1,040	89,10	544,94	-0,00595	
19,80	1,041	87,48	545,79	-0,00607	
19,82	1,042	86,56	546,59	-0,00615	
19,84	1,043	86,46	547,42	-0,00608	
19,86	1,043	85,75	548,23	-0,00591	
19,88	1,044	85,14	549,00	-0,00580	
19,90	1,045	84,77	549,87	-0,00579	
19,92	1,045	83,65	550,72	-0,00592	
19,94	1,046	83,52	551,46	-0,00607	
19,96	1,047	82,67	552,31	-0,00616	
19,98	1,048	80,56	553,18	-0,00609	
20,00	1,048	80,05	553,94	-0,00595	
20,02	1,049	79,26	554,76	-0,00589	
20,04	1,050	76,63	555,63	-0,00585	
20,06	1,051	76,04	556,40	-0,00589	
20,08	1,052	75,59	557,23	-0,00605	
20,10	1,052	73,25	558,06	-0,00613	
20,12	1,053	72,29	558,86	-0,00612	
20,14	1,054	71,41	559,71	-0,00612	
20,16	1,055	69,54	560,52	-0,00603	
20,18	1,056	68,30	561,30	-0,00591	
20,20	1,057	67,31	562,17	-0,00592	
20,22	1,058	66,22	563,00	-0,00604	
20,24	1,059	66,40	563,79	-0,00619	
20,26	1,059	65,66	564,67	-0,00619	
20,28	1,060	64,88	565,42	-0,00601	
20,30	1,061	65,26	566,17	-0,00587	
20,32	1,062	63,81	567,16	-0,00588	
20,34	1,063	61,45	568,05	-0,00590	
20,36	1,064	61,19	568,79	-0,00593	
20,38	1,065	60,38	569,58	-0,00604	
20,40	1,066	58,94	570,29	-0,00618	
20,42	1,067	59,09	571,08	-0,00616	
20,44	1,068	57,65	572,12	-0,00601	
20,46	1,069	55,34	573,02	-0,00588	
20,48	1,070	55,08	573,68	-0,00585	
20,50	1,071	53,57	574,45	-0,00592	
20,52	1,072	50,55	575,32	-0,00605	
20,54	1,073	50,32	576,02	-0,00616	
20,56	1,074	51,53	576,73	-0,00618	
20,58	1,075	49,39	577,78	-0,00614	
20,60	1,076	46,69	578,84	-0,00603	
20,62	1,077	47,32	579,52	-0,00593	
20,64	1,078	47,37	580,11	-0,00590	
20,66	1,079	44,13	581,03	-0,00596	
20,68	1,080	40,89	582,01	-0,00604	
20,70	1,081	42,85	582,69	-0,00606	
20,72	1,082	43,21	583,50	-0,00607	
20,74	1,083	39,90	584,50	-0,00600	
20,76	1,085	38,41	585,28	-0,00588	
20,78	1,086	38,64	585,99	-0,00585	
20,80	1,087	35,80	586,80	-0,00594	
20,82	1,088	32,70	587,61	-0,00606	
20,84	1,089	32,61	588,37	-0,00613	
20,86	1,090	31,95	589,20	-0,00613	
20,88	1,091	29,83	590,07	-0,00600	
20,90	1,093	29,10	590,83	-0,00590	
20,92	1,094	29,04	591,61	-0,00587	
20,94	1,095	27,03	592,55	-0,00592	
20,96	1,096	25,92	593,41	-0,00604	
20,98	1,097	26,01	594,13	-0,00614	
21,00	1,099	24,29	594,95	-0,00613	
21,02	1,100	21,24	595,82	-0,00600	
21,04	1,101	20,58	596,60	-0,00593	
21,06	1,102	20,43	597,36	-0,00592	
21,08	1,104	18,31	598,23	-0,00600	
21,10	1,105	16,95	599,08	-0,00606	
21,12	1,106	17,05	599,86	-0,00611	
21,14	1,108	16,28	600,73	-0,00614	
21,16	1,109	14,85	601,59	-0,00608	
21,18	1,110	14,65	602,35	-0,00599	
21,20	1,112	14,25	603,18	-0,00590	
21,22	1,113	13,36	604,04	-0,00590	
21,24	1,114	13,26	604,82	-0,00598	
21,26	1,115	13,51	605,56	-0,00601	
21,28	1,116	12,60	606,48	-0,00601	
21,30	1,118	11,69	607,40	-0,00594	
21,32	1,119	12,75	608,13	-0,00591	
21,34	1,120	13,15	608,96	-0,00592	
21,36	1,122	11,53	609,85	-0,00594	
21,38	1,123	11,90	610,63	-0,00608	
21,40	1,124	13,42	611,39	-0,00624	
21,42	1,126	13,06	612,20	-0,00623	
21,44	1,127	13,34	612,99	-0,00607	
21,46	1,128	15,53	613,83	-0,00597	
21,48	1,130	16,31	614,71	-0,00593	
21,50	1,131	16,58	615,53	-0,00590	
21,52	1,132	17,98	616,31	-0,00597	
21,54	1,133	19,62	617,13	-0,00606	
21,56	1,134	20,59	617,97	-0,00610	
21,58	1,136	22,22	618,79	-0,00602	
21,60	1,137	23,79	619,61	-0,00593	
21,62	1,138	24,93	620,45	-0,00586	
21,64	1,139	26,08	621,27	-0,00584	
21,66	1,140	27,90	622,08	-0,00592	
21,68	1,142	29,29	622,94	-0,00602	
21,70	1,143	30,50	623,77	-0,00606	
21,72	1,144	32,83	624,51	-0,00602	
21,74	1,145	35,02	625,36	-0,00594	
21,76	1,147	36,31	626,21	-0,00590	
21,78	1,148	38,89	626,95	-0,00595	
21,80	1,149	40,83	627,82	-0,00602	
21,82	1,150	40,88	628,77	-0,00608	
21,84	1,151	42,19	629,58	-0,00610	
21,86	1,152	45,06	630,36	-0,00611	
21,88	1,153	47,01	631,14	-0,00604	
21,90	1,154	48,55	631,96	-0,00595	
21,92	1,155	50,62	632,79	-0,00587	
21,94	1,156	51,82	633,61	-0,00590	
21,96	1,157	53,02	634,42	-0,00603	
21,98	1,158	53,70	635,28	-0,00612	
22,00	1,159	54,73	636,05	-0,00601	
22,02	1,160	57,55	636,82	-0,00593	
22,04	1,161	58,22	637,76	-0,00590	
22,06	1,162	58,90	638,58	-0,00590	
22,08	1,163	61,91	639,32	-0,00596	
22,10	1,164	62,71	640,22	-0,00604	
22,12	1,165	63,07	641,01	-0,00610	
22,14	1,166	65,77	641,78	-0,00613	
22,16	1,167	66,54	642,70	-0,00605	
22,18	1,168	65,90	643,53	-0,00594	
22,20	1,168	67,02	644,30	-0,00590	
22,22	1,169	66,88	645,15	-0,00588	
22,24	1,170	66,18	645,93	-0,00595	
22,26	1,171	67,61	646,75	-0,00608	
22,28	1,172	68,28	647,60	-0,00612	
22,30	1,173	69,17	648,30	-0,00604	
22,32	1,174	70,27	649,12	-0,00597	
22,34	1,175	68,66	650,12	-0,00592	
22,36	1,175	67,92	650,96	-0,00588	
22,38	1,176	68,76	651,75	-0,00593	
22,40	1,177	68,66	652,52	-0,00601	
22,42	1,178	68,64	653,23	-0,00608	
22,44	1,179	69,66	654,09	-0,00614	
22,46	1,180	68,70	655,02	-0,00608	
22,48	1,180	68,74	655,79	-0,00593	
22,50	1,181	69,57	656,58	-0,00589	
22,52	1,182	68,64	657,44	-0,00596	
22,54	1,183	68,92	658,24	-0,00610	
22,56	1,184	69,02	659,10	-0,00619	
22,58	1,184	67,89	659,91	-0,00611	
22,60	1,185	68,13	660,63	-0,00594	
22,62	1,186	68,34	661,49	-0,00584	
22,64	1,187	66,42	662,36	-0,00588	
22,66	1,188	65,79	663,11	-0,00594	
22,68	1,189	64,78	663,99	-0,00606	
22,70	1,190	62,97	664,85	-0,00616	
22,72	1,190	63,26	665,59	-0,00617	
22,74	1,191	63,40	666,44	-0,00613	
22,76	1,192	61,99	667,27	-0,00602	
22,78	1,193	62,25	668,01	-0,00590	
22,80	1,194	61,50	668,88	-0,00594	
22,82	1,195	59,12	669,75	-0,00609	
22,84	1,196	58,80	670,56	-0,00618	
22,86	1,197	58,55	671,43	-0,00618	
22,88	1,198	57,51	672,17	-0,00608	
22,90	1,198	57,82	672,93	-0,00602	
22,92	1,199	56,84	673,90	-0,00599	
22,94	1,200	55,93	674,72	-0,00597	
22,96	1,201	57,75	675,45	-0,00606	
22,98	1,202	57,31	676,33	-0,00618	
23,00	1,203	55,95	677,15	-0,00626	
23,02	1,204	56,39	677,93	-0,00623	
23,04	1,205	55,97	678,78	-0,00610	
23,06	1,206	54,47	679,57	-0,00599	
23,08	1,207	53,94	680,36	-0,00586	
23,10	1,208	53,05	681,22	-0,00585	
23,12	1,209	52,81	681,99	-0,00599	
23,14	1,210	53,50	682,80	-0,00618	
23,16	1,211	53,03	683,66	-0,00618	
23,18	1,212	52,83	684,45	-0,00602	
23,20	1,213	53,58	685,28	-0,00590	
23,22	1,214	52,82	686,19	-0,00582	
23,24	1,215	51,69	687,00	-0,00581	
23,26	1,216	51,56	687,78	-0,00599	
23,28	1,217	50,97	688,59	-0,00619	
23,30	1,218	50,67	689,39	-0,00620	
23,32	1,219	51,28	690,22	-0,00605	
23,34	1,220	51,25	691,04	-0,00592	
23,36	1,221	51,19	691,82	-0,00584	
23,38	1,222	50,85	692,68	-0,00585	
23,40	1,223	50,71	693,52	-0,00595	
23,42	1,224	51,75	694,25	-0,00602	
23,44	1,225	51,34	695,13	-0,00609	
23,46	1,226	49,40	696,09	-0,00609	
23,48	1,227	49,74	696,83	-0,00599	
23,50	1,228	50,37	697,54	-0,00591	
23,52	1,229	48,47	698,44	-0,00588	
23,54	1,230	47,05	699,31	-0,00593	
23,56	1,231	48,57	700,02	-0,00609	
23,58	1,232	48,36	700,86	-0,00622	
23,60	1,233	46,12	701,81	-0,00615	
23,62	1,234	46,35	702,60	-0,00602	
23,64	1,235	47,49	703,36	-0,00598	
23,66	1,236	46,71	704,18	-0,00598	
23,68	1,237	45,84	704,98	-0,00598	
23,70	1,238	45,89	705,81	-0,00611	
23,72	1,239	45,22	706,64	-0,00624	
23,74	1,240	44,64	707,43	-0,00620	
23,76	1,241	44,19	708,27	-0,00608	
23,78	1,242	43,28	709,11	-0,00599	
23,80	1,243	43,39	709,90	-0,00591	
23,82	1,244	43,77	710,73	-0,00594	
23,84	1,245	43,33	711,58	-0,00603	
23,86	1,246	43,50	712,37	-0,00613	
23,88	1,247	43,53	713,19	-0,00612	
23,90	1,248	42,00	714,03	-0,00604	
23,92	1,249	41,96	714,84	-0,00597	
23,94	1,251	41,97	715,69	-0,00595	
23,96	1,252	40,76	716,47	-0,00593	
23,98	1,253	40,94	717,23	-0,00602	
24,00	1,254	40,26	718,12	-0,00614	
24,02	1,255	37,83	719,01	-0,00617	
24,04	1,256	37,42	719,79	-0,00605	
24,06	1,257	37,85	720,55	-0,00598	
24,08	1,258	36,82	721,38	-0,00597	
24,10	1,259	35,92	722,19	-0,00598	
24,12	1,260	36,40	722,98	-0,00609	
24,14	1,261	35,54	723,83	-0,00614	
24,16	1,262	34,33	724,66	-0,00611	
24,18	1,263	34,81	725,43	-0,00603	
24,20	1,265	34,82	726,28	-0,00595	
24,22	1,266	34,18	727,22	-0,00589	
24,24	1,267	34,73	728,02	-0,00584	
24,26	1,268	35,44	728,80	-0,00592	
24,28	1,269	35,27	729,64	-0,00603	
24,30	1,270	36,09	730,44	-0,00609	
24,32	1,271	37,51	731,26	-0,00614	
24,34	1,272	38,53	732,12	-0,00605	
24,36	1,273	41,17	732,93	-0,00594	
24,38	1,275	43,81	733,77	-0,00591	
24,40	1,276	45,96	734,56	-0,00597	
24,42	1,277	48,11	735,37	-0,00606	
24,44	1,278	49,94	736,28	-0,00612	
24,46	1,279	53,05	736,97	-0,00609	
24,48	1,280	57,58	737,71	-0,00606	
24,50	1,281	58,09	738,90	-0,00604	
24,52	1,282	57,92	739,92	-0,00595	
24,54	1,283	61,20	740,45	-0,00596	
24,56	1,284	62,86	741,03	-0,00611	
24,58	1,285	60,68	742,03	-0,00623	
24,60	1,285	60,97	742,96	-0,00618	
24,62	1,286	65,88	743,63	-0,00603	
24,64	1,287	66,29	744,53	-0,00591	
24,66	1,288	64,83	745,39	-0,00583	
24,68	1,289	68,11	746,08	-0,00584	
24,70	1,290	69,76	746,96	-0,00595	
24,72	1,291	67,66	747,75	-0,00607	
24,74	1,291	68,40	748,50	-0,00609	
24,76	1,292	68,19	749,53	-0,00604	
24,78	1,293	66,50	750,38	-0,00598	
24,80	1,294	67,19	751,09	-0,00597	
24,82	1,295	66,98	751,92	-0,00596	
24,84	1,295	66,02	752,56	-0,00604	
24,86	1,296	67,62	753,27	-0,00616	
24,88	1,297	66,60	754,51	-0,00623	
24,90	1,298	63,77	755,58	-0,00611	
24,92	1,299	65,16	756,07	-0,00588	
24,94	1,299	66,31	756,57	-0,00575	
24,96	1,300	63,23	757,66	-0,00584	
24,98	1,301	61,80	758,72	-0,00598	
25,00	1,302	64,92	759,38	-0,00610	
25,02	1,303	63,94	760,13	-0,00615	
25,04	1,304	61,66	760,81	-0,00612	
25,06	1,304	63,73	761,46	-0,00603	
25,08	1,305	64,37	762,64	-0,00593	
25,10	1,306	60,64	763,79	-0,00591	
25,12	1,307	60,13	764,40	-0,00599	
25,14	1,307	60,18	764,96	-0,00609	
25,16	1,308	56,21	765,82	-0,00617	
25,18	1,309	54,41	766,53	-0,00612	
25,20	1,310	56,74	767,06	-0,00598	
25,22	1,310	55,27	768,13	-0,00587	
25,24	1,311	50,57	769,58	-0,00588	
25,26	1,312	50,76	770,35	-0,00597	
25,28	1,313	54,48	770,51	-0,00606	
25,30	1,313	54,33	771,15	-0,00612	
25,32	1,315	50,18	772,67	-0,00611	
25,34	1,315	47,99	773,94	-0,00598	
25,36	1,316	50,09	774,15	-0,00583	
25,38	1,317	52,24	774,17	-0,00580	
25,40	1,317	50,18	775,18	-0,00589	
25,42	1,318	46,79	776,97	-0,00601	
25,44	1,319	45,34	778,19	-0,00606	
25,46	1,320	45,44	778,51	-0,00602	
25,48	1,320	41,50	779,13	-0,00595	
25,50	1,321	37,28	780,05	-0,00592	
25,52	1,322	40,25	780,61	-0,00592	
25,54	1,323	43,72	781,43	-0,00597	
25,56	1,323	38,91	782,60	-0,00603	
25,58	1,324	35,48	783,36	-0,00606	
25,60	1,325	36,81	783,99	-0,00608	
25,62	1,326	35,51	784,70	-0,00598	
25,64	1,326	34,59	785,36	-0,00590	
25,66	1,327	34,99	786,37	-0,00585	
25,68	1,328	33,57	787,35	-0,00581	
25,70	1,328	34,50	787,96	-0,00593	
25,72	1,329	34,59	788,93	-0,00608	
25,74	1,330	31,69	789,96	-0,00614	
25,76	1,331	32,74	790,61	-0,00609	
25,78	1,332	33,94	791,39	-0,00602	
25,80	1,332	31,93	792,05	-0,00594	
25,82	1,333	32,36	792,61	-0,00588	
25,84	1,334	32,30	793,80	-0,00595	
25,86	1,335	28,26	795,13	-0,00610	
25,88	1,335	28,99	795,62	-0,00618	
25,90	1,336	33,28	795,85	-0,00610	
25,92	1,337	31,94	796,92	-0,00600	
25,94	1,338	28,75	798,43	-0,00595	
25,96	1,339	31,75	799,20	-0,00586	
25,98	1,339	33,95	799,45	-0,00582	
26,00	1,340	33,39	799,59	-0,00596	
26,02	1,341	35,90	799,56	-0,00611	
26,04	1,341	43,19	799,52	-0,00617	
26,06	1,342	46,63	799,86	-0,00608	
26,08	1,343	49,39	799,94	-0,00590	
26,10	1,343	57,06	799,70	-0,00585	
26,12	1,344	61,03	799,80	-0,00593	
26,14	1,345	62,08	799,86	-0,00600	
26,16	1,345	67,89	799,63	-0,00608	
26,18	1,346	71,50	799,75	-0,00614	
26,20	1,346	70,86	799,86	-0,00604	
26,22	1,346	75,18	799,64	-0,00585	
26,24	1,347	79,02	799,74	-0,00582	
26,26	1,348	77,28	800,04	-0,00588	
26,28	1,348	80,00	799,87	-0,00599	
26,30	1,349	85,94	799,72	-0,00608	
26,32	1,349	85,73	799,82	-0,00608	
26,34	1,349	87,73	799,67	-0,00603	
26,36	1,350	93,07	799,60	-0,00595	
26,38	1,350	91,95	799,94	-0,00592	
26,40	1,351	90,71	799,97	-0,00592	
26,42	1,351	96,16	799,65	-0,00597	
26,44	1,352	97,78	799,72	-0,00601	
26,46	1,352	95,76	799,92	-0,00601	
26,48	1,352	99,95	799,73	-0,00593	
26,50	1,353	102,95	799,64	-0,00588	
26,52	1,353	99,61	799,78	-0,00583	
26,54	1,353	100,91	799,65	-0,00588	
26,56	1,354	105,38	799,66	-0,00594	
26,58	1,354	103,22	799,97	-0,00602	
26,60	1,355	102,68	799,91	-0,00607	
26,62	1,355	108,71	799,61	-0,00611	
26,64	1,355	109,36	799,71	-0,00601	
26,66	1,356	106,59	799,82	-0,00586	
26,68	1,356	110,15	799,62	-0,00579	
26,70	1,356	111,98	799,64	-0,00592	
26,72	1,356	108,41	799,87	-0,00605	
26,74	1,357	110,11	799,75	-0,00608	
26,76	1,357	114,85	799,62	-0,00608	
26,78	1,357	113,31	799,81	-0,00599	
26,80	1,358	113,61	799,77	-0,00584	
26,82	1,358	118,58	799,57	-0,00580	
26,84	1,358	118,09	799,76	-0,00587	
26,86	1,359	115,48	799,91	-0,00601	
26,88	1,359	119,20	799,67	-0,00610	
26,90	1,359	120,94	799,67	-0,00603	
26,92	1,359	116,65	799,95	-0,00595	
26,94	1,360	117,22	799,85	-0,00589	
26,96	1,360	122,55	799,63	-0,00582	
26,98	1,360	121,14	799,81	-0,00588	
27,00	1,360	118,57	799,85	-0,00601	
27,02	1,360	122,82	799,62	-0,00604	
27,04	1,361	122,90	799,79	-0,00600	
27,06	1,361	118,99	800,00	-0,00591	
27,08	1,361	121,95	799,79	-0,00585	
27,10	1,361	125,74	799,62	-0,00583	
27,12	1,362	122,93	799,72	-0,00593	
27,14	1,362	122,79	799,63	-0,00605	
27,16	1,362	127,12	799,55	-0,00612	
27,18	1,362	124,87	799,83	-0,00604	
27,20	1,363	122,06	799,88	-0,00585	
27,22	1,363	126,07	799,66	-0,00574	
27,24	1,363	126,41	799,74	-0,00578	
27,26	1,363	124,22	799,77	-0,00591	
27,28	1,363	127,38	799,59	-0,00607	
27,30	1,364	128,02	799,71	-0,00611	
27,32	1,364	124,54	799,83	-0,00604	
27,34	1,364	126,59	799,63	-0,00596	
27,36	1,364	128,85	799,68	-0,00582	
27,38	1,365	125,53	799,93	-0,00577	
27,40	1,365	126,93	799,80	-0,00590	
27,42	1,365	131,56	799,63	-0,00606	
27,44	1,365	129,55	799,79	-0,00609	
27,46	1,366	127,85	799,77	-0,00603	
27,48	1,366	131,85	799,60	-0,00597	
27,50	1,366	131,37	799,78	-0,00592	
27,52	1,366	128,94	799,89	-0,00593	
27,54	1,366	132,57	799,65	-0,00599	
27,56	1,366	134,33	799,66	-0,00600	
27,58	1,367	130,46	799,87	-0,00609	
27,60	1,367	131,58	799,75	-0,00615	
27,62	1,367	135,51	799,61	-0,00612	
27,64	1,367	133,32	799,78	-0,00601	
27,66	1,367	132,67	799,76	-0,00592	
27,68	1,368	136,50	799,59	-0,00590	
27,70	1,368	135,20	799,77	-0,00598	
27,72	1,368	131,79	799,86	-0,00611	
27,74	1,368	135,16	799,64	-0,00610	
27,76	1,368	137,08	799,68	-0,00608	
27,78	1,369	132,82	799,88	-0,00598	
27,80	1,369	133,75	799,73	-0,00588	
27,82	1,369	137,34	799,62	-0,00585	
27,84	1,369	134,09	799,88	-0,00587	
27,86	1,369	132,84	799,91	-0,00601	
27,88	1,369	138,14	799,64	-0,00612	
27,90	1,370	137,50	799,75	-0,00610	
27,92	1,370	133,31	799,97	-0,00600	
27,94	1,370	136,09	799,78	-0,00598	
27,96	1,370	139,55	799,61	-0,00597	
27,98	1,370	135,83	799,80	-0,00601	
28,00	1,370	134,89	799,80	-0,00610	
28,02	1,370	139,41	799,59	-0,00620	
28,04	1,371	138,55	799,71	-0,00622	
28,06	1,371	135,09	799,81	-0,00610	
28,08	1,371	138,42	799,62	-0,00601	
28,10	1,371	140,36	799,70	-0,00595	
28,12	1,371	136,38	799,92	-0,00598	
28,14	1,372	137,86	799,78	-0,00610	
28,16	1,372	142,23	799,62	-0,00614	
28,18	1,372	140,14	799,81	-0,00606	
28,20	1,372	138,72	799,82	-0,00594	
28,22	1,372	142,47	799,60	-0,00587	
28,24	1,373	141,23	799,71	-0,00581	
28,26	1,373	137,50	799,84	-0,00578	
28,28	1,372	140,17	799,64	-0,00590	
28,30	1,373	142,05	799,66	-0,00596	
28,32	1,373	138,16	799,88	-0,00594	
28,34	1,373	138,38	799,76	-0,00584	
28,36	1,373	142,09	799,59	-0,00570	
28,38	1,373	139,74	799,77	-0,00565	
28,40	1,374	137,79	799,80	-0,00573	
28,42	1,374	141,88	799,60	-0,00587	
28,44	1,374	141,59	799,73	-0,00589	
28,46	1,374	138,38	799,88	-0,00579	
28,48	1,374	141,14	799,67	-0,00567	
28,50	1,374	143,18	799,64	-0,00556	
28,52	1,375	138,40	799,92	-0,00546	
28,54	1,375	137,67	799,88	-0,00547	
28,56	1,374	142,56	799,63	-0,00564	
28,58	1,375	141,37	799,76	-0,00577	
28,60	1,375	138,38	799,86	-0,00583	
28,62	1,375	141,48	799,65	-0,00574	
28,64	1,375	142,07	799,67	-0,00566	
28,66	1,376	137,94	799,88	-0,00565	
28,68	1,376	138,89	799,76	-0,00569	
28,70	1,376	142,60	799,60	-0,00579	
28,72	1,376	139,92	799,82	-0,00584	
28,74	1,376	138,38	799,84	-0,00585	
28,76	1,376	142,58	799,62	-0,00584	
28,78	1,376	141,90	799,71	-0,00576	
28,80	1,377	137,84	799,84	-0,00562	
28,82	1,376	140,37	799,65	-0,00562	
28,84	1,377	142,78	799,64	-0,00578	
28,86	1,377	139,22	799,85	-0,00602	
28,88	1,377	139,49	799,73	-0,00612	
28,90	1,377	142,82	799,60	-0,00614	
28,92	1,377	140,83	799,80	-0,00612	
28,94	1,378	139,72	799,80	-0,00620	
28,96	1,378	144,13	799,58	-0,00639	
28,98	1,378	143,65	799,74	-0,00667	
29,00	1,378	139,35	799,91	-0,00705	
29,02	1,378	141,38	799,70	-0,00795	
29,04	1,378	143,29	799,63	-0,00939	
29,06	1,378	139,30	799,87	-0,00896	
29,08	1,378	139,33	799,80	-0,00731	
29,10	1,378	143,52	799,61	-0,00644	
29,12	1,379	141,57	799,81	-0,00641	
29,14	1,379	138,56	799,93	-0,00661	
29,16	1,379	142,45	799,69	-0,00680	
29,18	1,379	143,40	799,69	-0,00689	
29,20	1,379	138,69	799,90	-0,00685	
29,22	1,379	139,72	799,76	-0,00685	
29,24	1,379	143,36	799,62	-0,00700	
29,26	1,380	140,41	799,79	-0,00716	
29,28	1,380	138,65	799,77	-0,00741	
29,30	1,380	142,64	799,57	-0,00760	
29,32	1,380	141,32	799,77	-0,00768	
29,34	1,380	137,67	799,96	-0,00773	
29,36	1,380	140,81	799,74	-0,00771	
29,38	1,380	143,17	799,65	-0,00770	
29,40	1,381	139,28	799,79	-0,00777	
29,42	1,381	140,22	799,68	-0,00798	
29,44	1,381	144,12	799,58	-0,00818	
29,46	1,381	140,68	799,85	-0,00829	
29,48	1,381	137,90	799,88	-0,00838	
29,50	1,381	141,79	799,65	-0,00840	
29,52	1,381	141,64	799,76	-0,00839	
29,54	1,382	138,54	799,86	-0,00844	
29,56	1,382	141,02	799,64	-0,00862	
29,58	1,382	141,73	799,70	-0,00878	
29,60	1,382	138,00	799,91	-0,00889	
29,62	1,382	139,16	799,75	-0,00901	
29,64	1,382	142,07	799,62	-0,00906	
29,66	1,382	139,49	799,78	-0,00908	
29,68	1,383	139,10	799,73	-0,00921	
29,70	1,382	143,13	799,60	-0,00943	
29,72	1,383	141,44	799,83	-0,00965	
29,74	1,383	138,38	799,91	-0,00981	
29,76	1,383	141,33	799,68	-0,00985	
29,78	1,383	141,79	799,72	-0,00995	
29,80	1,383	138,30	799,81	-0,01006	
29,82	1,383	140,65	799,62	-0,01013	
29,84	1,383	142,17	799,70	-0,01021	
29,86	1,384	138,10	799,94	-0,01035	
29,88	1,384	138,25	799,79	-0,01063	
29,90	1,384	141,33	799,65	-0,01094	
29,92	1,384	138,44	799,84	-0,01105	
29,94	1,384	136,82	799,80	-0,01102	
29,96	1,384	141,49	799,59	-0,01110	
29,98	1,385	140,99	799,73	-0,01123	
30,00	1,385	137,73	799,85	-0,01142	
30,02	1,385	140,69	799,65	-0,01163	
30,04	1,385	141,66	799,69	-0,01175	
30,06	1,385	137,80	799,87	-0,01177	
30,08	1,385	139,48	799,70	-0,01169	
30,10	1,385	142,27	799,65	-0,01171	
30,12	1,385	138,77	799,93	-0,01182	
30,14	1,386	138,28	799,92	-0,01205	
30,16	1,386	142,96	799,63	-0,01228	
30,18	1,386	142,00	799,69	-0,01245	
30,20	1,386	137,59	799,87	-0,01256	
30,22	1,386	140,36	799,70	-0,01269	
30,24	1,386	143,12	799,62	-0,01284	
30,26	1,386	139,40	799,81	-0,01306	
30,28	1,387	139,66	799,71	-0,01344	
30,30	1,387	144,17	799,59	-0,01390	
30,32	1,387	141,89	799,86	-0,01429	
30,34	1,387	138,62	799,93	-0,01475	
30,36	1,387	142,10	799,69	-0,01513	
30,38	1,387	142,52	799,70	-0,01535	
30,40	1,387	139,02	799,79	-0,01548	
30,42	1,387	141,26	799,61	-0,01566	
30,44	1,387	143,08	799,67	-0,01584	
30,46	1,388	139,17	799,91	-0,01644	
30,48	1,388	139,35	799,77	-0,01741	
30,50	1,388	142,62	799,62	-0,01800	
30,52	1,388	139,98	799,83	-0,01819	
30,54	1,388	138,37	799,83	-0,01826	
30,56	1,388	142,50	799,61	-0,01836	
30,58	1,389	141,88	799,75	-0,01854	
30,60	1,389	138,44	799,87	-0,01872	
30,62	1,389	141,67	799,67	-0,01886	
30,64	1,389	143,83	799,70	-0,01948	
30,66	1,389	140,41	799,81	-0,02099	
30,68	1,389	141,93	799,63	-0,02272	
30,70	1,389	144,83	799,63	-0,02371	
30,72	1,389	141,20	799,88	-0,02414	
30,74	1,389	139,61	799,80	-0,02436	
30,76	1,390	142,22	799,62	-0,02442	
30,78	1,390	139,87	799,73	-0,02436	
30,80	1,390	138,59	799,68	-0,02430	
30,82	1,390	142,61	799,56	-0,02427	
30,84	1,390	141,33	799,84	-0,02424	
30,86	1,390	137,76	799,99	-0,02432	
30,88	1,390	140,82	799,73	-0,02452	
30,90	1,391	143,27	799,63	-0,02464	
30,92	1,391	139,40	799,76	-0,02466	
30,94	1,391	140,08	799,63	-0,02457	
30,96	1,391	142,45	799,62	-0,02445	
30,98	1,391	138,66	799,91	-0,02439	
31,00	1,391	137,07	799,87	-0,02447	
31,02	1,391	141,57	799,63	-0,02457	
31,04	1,391	141,05	799,74	-0,02464	
31,06	1,392	138,59	799,79	-0,02466	
31,08	1,392	142,24	799,59	-0,02465	
31,10	1,392	142,62	799,72	-0,02458	
31,12	1,392	138,30	799,96	-0,02454	
31,14	1,392	139,65	799,77	-0,02454	
31,16	1,392	142,51	799,64	-0,02465	
31,18	1,392	138,47	799,81	-0,02481	
31,20	1,393	137,79	799,75	-0,02479	
31,22	1,393	141,86	799,58	-0,02471	
31,24	1,393	139,70	799,82	-0,02460	
31,26	1,393	136,12	799,94	-0,02465	
31,28	1,393	139,88	799,70	-0,02473	
31,30	1,393	141,67	799,68	-0,02477	
31,32	1,393	138,11	799,78	-0,02482	
31,34	1,393	139,69	799,62	-0,02487	
31,36	1,393	142,41	799,62	-0,02485	
31,38	1,394	139,06	799,80	-0,02474	
31,40	1,394	138,84	799,68	-0,02467	
31,42	1,394	141,37	799,67	-0,02468	
31,44	1,394	139,01	799,91	-0,02482	
31,46	1,394	137,68	799,83	-0,02497	
31,48	1,395	141,64	799,63	-0,02503	
31,50	1,395	140,87	799,78	-0,02492	
31,52	1,395	138,46	799,82	-0,02480	
31,54	1,395	141,99	799,61	-0,02477	
31,56	1,395	141,70	799,76	-0,02472	
31,58	1,395	138,38	799,93	-0,02479	
31,60	1,395	140,98	799,72	-0,02498	
31,62	1,395	143,14	799,67	-0,02513	
31,64	1,396	139,31	799,86	-0,02511	
31,66	1,396	139,28	799,74	-0,02493	
31,68	1,396	142,57	799,60	-0,02482	
31,70	1,396	140,01	799,87	-0,02482	
31,72	1,396	137,56	799,98	-0,02486	
31,74	1,396	142,05	799,71	-0,02503	
31,76	1,396	143,45	799,67	-0,02514	
31,78	1,397	139,61	799,79	-0,02508	
31,80	1,397	141,81	799,62	-0,02505	
31,82	1,397	144,13	799,64	-0,02505	
31,84	1,397	140,15	799,95	-0,02503	
31,86	1,397	138,89	799,91	-0,02505	
31,88	1,397	142,98	799,64	-0,02513	
31,90	1,397	142,29	799,66	-0,02515	
31,92	1,397	139,46	799,68	-0,02510	
31,94	1,397	143,04	799,51	-0,02504	
31,96	1,397	143,26	799,75	-0,02495	
31,98	1,398	138,43	800,07	-0,02489	
32,00	1,398	139,33	799,89	-0,02492	
32,02	1,398	143,20	799,66	-0,02503	
32,04	1,398	140,81	799,80	-0,02517	
32,06	1,398	140,04	799,78	-0,02526	
32,08	1,399	144,36	799,57	-0,02522	
32,10	1,399	143,37	799,72	-0,02514	
32,12	1,399	138,80	799,91	-0,02500	
32,14	1,399	141,21	799,72	-0,02493	
32,16	1,399	143,86	799,62	-0,02501	
32,18	1,399	140,69	799,78	-0,02519	
32,20	1,399	141,07	799,69	-0,02535	
32,22	1,399	145,09	799,60	-0,02535	
32,24	1,399	143,16	799,81	-0,02526	
32,26	1,400	141,22	799,78	-0,02516	
32,28	1,400	145,17	799,60	-0,02508	
32,30	1,400	144,51	799,82	-0,02509	
32,32	1,400	141,31	799,93	-0,02524	
32,34	1,400	143,88	799,70	-0,02531	
32,36	1,400	143,60	799,73	-0,02530	
32,38	1,400	139,39	799,84	-0,02524	
32,40	1,400	141,21	799,65	-0,02518	
32,42	1,401	143,42	799,67	-0,02515	
32,44	1,401	140,72	799,91	-0,02518	
32,46	1,401	141,34	799,80	-0,02530	
32,48	1,401	145,40	799,62	-0,02535	
32,50	1,401	143,41	799,80	-0,02531	
32,52	1,401	141,26	799,80	-0,02529	
32,54	1,401	145,01	799,60	-0,02524	
32,56	1,401	144,37	799,74	-0,02516	
32,58	1,402	140,52	799,84	-0,02512	
32,60	1,402	143,19	799,63	-0,02526	
32,62	1,402	144,92	799,67	-0,02542	
32,64	1,402	141,40	799,91	-0,02542	
32,66	1,402	142,74	799,79	-0,02533	
32,68	1,402	146,57	799,63	-0,02520	
32,70	1,402	143,97	799,77	-0,02512	
32,72	1,403	142,72	799,70	-0,02519	
32,74	1,403	145,61	799,59	-0,02529	
32,76	1,403	143,29	799,87	-0,02531	
32,78	1,403	140,31	799,98	-0,02533	
32,80	1,403	143,73	799,71	-0,02535	
32,82	1,403	145,14	799,68	-0,02528	
32,84	1,403	141,41	799,81	-0,02516	
32,86	1,403	142,86	799,65	-0,02512	
32,88	1,403	145,86	799,61	-0,02518	
32,90	1,404	141,85	799,94	-0,02528	
32,92	1,404	140,23	799,94	-0,02535	
32,94	1,404	145,01	799,65	-0,02538	
32,96	1,404	144,46	799,72	-0,02531	
32,98	1,404	140,23	799,85	-0,02524	
33,00	1,404	143,14	799,64	-0,02524	
33,02	1,404	144,80	799,67	-0,02530	
33,04	1,405	139,86	799,98	-0,02540	
33,06	1,405	139,60	799,91	-0,02547	
33,08	1,405	144,00	799,67	-0,02543	
33,10	1,405	142,23	799,78	-0,02536	
33,12	1,405	139,98	799,80	-0,02528	
33,14	1,405	143,92	799,59	-0,02526	
33,16	1,405	143,76	799,75	-0,02526	
33,18	1,406	138,82	799,95	-0,02534	
33,20	1,405	140,23	799,75	-0,02540	
33,22	1,405	143,11	799,64	-0,02537	
33,24	1,406	140,09	799,83	-0,02528	
33,26	1,406	140,43	799,74	-0,02522	
33,28	1,406	144,15	799,62	-0,02520	
33,30	1,406	140,95	799,91	-0,02521	
33,32	1,406	137,79	799,99	-0,02530	
33,34	1,406	142,33	799,70	-0,02542	
33,36	1,406	143,35	799,75	-0,02542	
33,38	1,407	139,40	799,90	-0,02536	
33,40	1,407	141,12	799,71	-0,02529	
33,42	1,407	143,39	799,66	-0,02521	
33,44	1,407	140,10	799,84	-0,02523	
33,46	1,407	140,55	799,72	-0,02535	
33,48	1,407	144,19	799,64	-0,02547	
33,50	1,408	141,18	799,93	-0,02549	
33,52	1,408	139,27	799,94	-0,02540	
33,54	1,407	143,72	799,66	-0,02536	
33,56	1,408	143,83	799,74	-0,02530	
33,58	1,408	140,16	799,89	-0,02522	
33,60	1,408	143,17	799,68	-0,02530	
33,62	1,408	145,06	799,68	-0,02542	
33,64	1,408	141,44	799,94	-0,02550	
33,66	1,408	142,11	799,84	-0,02552	
33,68	1,409	145,81	799,65	-0,02543	
33,70	1,409	143,50	799,76	-0,02525	
33,72	1,409	141,90	799,69	-0,02523	
33,74	1,409	144,90	799,60	-0,02533	
33,76	1,409	143,07	799,87	-0,02545	
33,78	1,409	140,41	799,92	-0,02556	
33,80	1,409	143,56	799,67	-0,02554	
33,82	1,409	144,27	799,73	-0,02544	
33,84	1,410	141,67	799,83	-0,02536	
33,86	1,409	144,19	799,62	-0,02525	
33,88	1,409	145,34	799,66	-0,02526	
33,90	1,410	141,48	799,95	-0,02540	
33,92	1,410	142,05	799,86	-0,02552	
33,94	1,410	145,96	799,63	-0,02558	
33,96	1,410	143,66	799,79	-0,02550	
33,98	1,410	141,62	799,83	-0,02534	
34,00	1,410	145,77	799,61	-0,02521	
34,02	1,411	145,55	799,76	-0,02519	
34,04	1,411	141,87	799,99	-0,02532	
34,06	1,411	144,17	799,80	-0,02555	
34,08	1,411	147,09	799,65	-0,02564	
34,10	1,411	143,88	799,80	-0,02552	
34,12	1,411	143,92	799,72	-0,02544	
34,14	1,411	148,38	799,59	-0,02536	
34,16	1,412	146,01	799,86	-0,02536	
34,18	1,412	142,11	799,96	-0,02550	
34,20	1,411	146,12	799,69	-0,02567	
34,22	1,412	147,64	799,72	-0,02573	
34,24	1,412	143,36	799,89	-0,02563	
34,26	1,412	145,13	799,72	-0,02546	
34,28	1,412	147,61	799,67	-0,02534	
34,30	1,412	143,77	799,90	-0,02529	
34,32	1,412	142,46	799,80	-0,02543	
34,34	1,412	145,50	799,64	-0,02560	
34,36	1,413	143,35	799,88	-0,02565	
34,38	1,413	140,95	799,97	-0,02560	
34,40	1,413	145,09	799,70	-0,02549	
34,42	1,413	146,05	799,70	-0,02542	
34,44	1,413	142,46	799,84	-0,02542	
34,46	1,413	145,00	799,66	-0,02549	
34,48	1,413	147,76	799,64	-0,02559	
34,50	1,414	143,86	799,93	-0,02563	
34,52	1,413	142,50	799,87	-0,02564	
34,54	1,413	147,09	799,62	-0,02558	
34,56	1,414	145,72	799,78	-0,02548	
34,58	1,414	142,11	799,91	-0,02541	
34,60	1,414	146,02	799,68	-0,02553	
34,62	1,414	148,34	799,65	-0,02563	
34,64	1,414	143,65	799,90	-0,02564	
34,66	1,415	144,08	799,80	-0,02566	
34,68	1,415	148,81	799,62	-0,02557	
34,70	1,415	146,48	799,82	-0,02549	
34,72	1,415	143,65	799,86	-0,02542	
34,74	1,415	147,93	799,62	-0,02539	
34,76	1,415	148,46	799,74	-0,02550	
34,78	1,415	145,18	799,93	-0,02564	
34,80	1,415	147,58	799,72	-0,02568	
34,82	1,415	150,09	799,66	-0,02563	
34,84	1,416	146,06	799,91	-0,02554	
34,86	1,416	145,12	799,85	-0,02549	
34,88	1,416	148,74	799,66	-0,02550	
34,90	1,416	146,88	799,77	-0,02560	
34,92	1,416	144,62	799,74	-0,02571	
34,94	1,416	148,36	799,55	-0,02576	
34,96	1,416	147,97	799,76	-0,02569	
34,98	1,416	144,46	799,98	-0,02556	
35,00	1,417	147,28	799,76	-0,02546	
35,02	1,417	150,22	799,66	-0,02545	
35,04	1,417	146,41	799,88	-0,02551	
35,06	1,417	146,41	799,80	-0,02566	
35,08	1,417	150,01	799,66	-0,02575	
35,10	1,417	147,35	799,87	-0,02575	
35,12	1,417	144,64	799,87	-0,02563	
35,14	1,417	148,37	799,64	-0,02554	
35,16	1,418	148,52	799,74	-0,02554	
35,18	1,418	145,25	799,85	-0,02566	
35,20	1,418	147,47	799,65	-0,02580	
35,22	1,418	148,62	799,70	-0,02581	
35,24	1,418	145,11	799,88	-0,02569	
35,26	1,418	147,14	799,70	-0,02555	
35,28	1,418	150,73	799,64	-0,02550	
35,30	1,418	147,61	799,88	-0,02551	
35,32	1,418	146,87	799,82	-0,02566	
35,34	1,419	150,93	799,63	-0,02580	
35,36	1,419	149,63	799,75	-0,02581	
35,38	1,419	146,95	799,75	-0,02570	
35,40	1,419	149,94	799,57	-0,02568	
35,42	1,419	149,78	799,77	-0,02563	
35,44	1,419	145,93	799,99	-0,02557	
35,46	1,419	147,74	799,78	-0,02568	
35,48	1,419	150,36	799,66	-0,02579	
35,50	1,420	147,93	799,80	-0,02580	
35,52	1,420	148,90	799,70	-0,02580	
35,54	1,419	152,88	799,55	-0,02577	
35,56	1,420	149,87	799,84	-0,02569	
35,58	1,420	145,94	800,00	-0,02564	
35,60	1,420	149,50	799,72	-0,02571	
35,62	1,420	151,35	799,68	-0,02585	
35,64	1,420	147,14	799,97	-0,02590	
35,66	1,420	147,03	799,91	-0,02582	
35,68	1,420	151,11	799,66	-0,02575	
35,70	1,421	148,54	799,78	-0,02561	
35,72	1,421	145,48	799,82	-0,02554	
35,74	1,421	149,91	799,60	-0,02566	
35,76	1,421	150,61	799,72	-0,02579	
35,78	1,421	145,78	799,91	-0,02583	
35,80	1,421	146,94	799,73	-0,02579	
35,82	1,421	149,66	799,64	-0,02573	
35,84	1,422	146,26	799,77	-0,02558	
35,86	1,422	146,55	799,64	-0,02549	
35,88	1,421	149,90	799,59	-0,02554	
35,90	1,422	147,19	799,88	-0,02574	
35,92	1,422	144,54	799,89	-0,02592	
35,94	1,422	148,32	799,65	-0,02593	
35,96	1,422	148,11	799,74	-0,02580	
35,98	1,422	145,33	799,80	-0,02567	
36,00	1,422	148,69	799,60	-0,02561	
36,02	1,422	149,40	799,70	-0,02552	
36,04	1,423	145,27	799,93	-0,02560	
36,06	1,423	146,84	799,76	-0,02582	
36,08	1,423	149,99	799,63	-0,02593	
36,10	1,423	147,16	799,77	-0,02586	
36,12	1,423	147,20	799,69	-0,02569	
36,14	1,423	151,71	799,56	-0,02564	
36,16	1,423	149,54	799,84	-0,02563	
36,18	1,424	145,46	799,98	-0,02566	
36,20	1,423	148,78	799,72	-0,02580	
36,22	1,424	151,00	799,65	-0,02591	
36,24	1,424	147,39	799,76	-0,02585	
36,26	1,424	148,73	799,62	-0,02575	
36,28	1,424	151,01	799,65	-0,02567	
36,30	1,424	147,15	799,94	-0,02568	
36,32	1,424	145,80	799,87	-0,02574	
36,34	1,424	150,21	799,65	-0,02582	
36,36	1,424	149,62	799,77	-0,02594	
36,38	1,424	147,84	799,75	-0,02598	
36,40	1,425	150,92	799,58	-0,02589	
36,42	1,425	149,48	799,83	-0,02578	
36,44	1,425	145,83	799,97	-0,02571	
36,46	1,425	148,74	799,73	-0,02562	
36,48	1,425	150,94	799,71	-0,02544	
36,50	1,425	147,39	799,83	-0,02536	
36,52	1,425	148,78	799,65	-0,02539	
36,54	1,425	151,04	799,64	-0,02169	
36,56	1,426	147,16	799,89	-0,01268	
36,58	1,426	145,63	799,82	-0,00776	
36,60	1,425	149,56	799,61	-0,00726	
36,62	1,426	148,44	799,80	-0,00617	
36,64	1,426	145,29	799,91	-0,00404	
36,66	1,426	148,69	799,68	-0,00456	
36,68	1,426	149,51	799,71	-0,00349	
36,70	1,426	145,91	799,85	-0,00019	
36,72	1,426	147,73	799,65	0,00017	
36,74	1,426	150,11	799,65	0,000	
36,76	1,427	146,41	799,93	0,00218	
36,78	1,427	145,86	799,86	0,00460	
36,80	1,427	149,85	799,64	0,00506	
36,82	1,427	148,15	799,74	0,00762	
36,84	1,427	146,21	799,73	0,00948	
36,86	1,427	149,76	799,56	0,00897	
36,88	1,427	149,21	799,79	0,00882	
36,90	1,428	145,44	800,02	0,01003	
36,92	1,428	147,61	799,79	0,00986	
36,94	1,428	150,56	799,64	0,00840	
36,96	1,428	148,00	799,79	0,00903	
36,98	1,428	148,79	799,71	0,00729	
37,00	1,428	151,93	799,62	0,00441	
37,02	1,428	148,41	799,87	0,00292	
37,04	1,428	146,05	799,85	0,00036	
37,06	1,428	150,03	799,66	-0,00346	
37,08	1,428	149,82	799,91	-0,00495	
37,10	1,428	147,16	800,02	-0,00534	
37,12	1,428	150,38	799,74	-0,00868	
37,14	1,429	151,37	799,76	-0,01168	
37,16	1,429	146,95	799,92	-0,01309	
37,18	1,429	148,55	799,72	-0,01094	
37,20	1,429	150,96	799,69	-0,00601	
37,22	1,429	146,68	799,89	-0,00323	
37,24	1,429	145,99	799,78	-0,00272	
37,26	1,429	150,32	799,61	-0,00279	
37,28	1,430	148,23	799,78	-0,00284	
37,30	1,430	146,44	799,76	-0,00277	
37,32	1,430	150,49	799,60	-0,00263	
37,34	1,430	149,88	799,80	-0,00276	
37,36	1,430	147,31	799,85	-0,00304	
37,38	1,430	150,24	799,65	-0,00335	
37,40	1,430	150,56	799,80	-0,00360	
37,42	1,430	147,07	800,00	-0,00366	
37,44	1,430	148,95	799,79	-0,00364	
37,46	1,430	152,54	799,63	-0,00369	
37,48	1,430	149,62	799,77	-0,00380	
37,50	1,431	149,81	799,66	-0,00395	
37,52	1,431	152,88	799,59	-0,00419	
37,54	1,431	150,03	799,98	-0,00445	
37,56	1,431	147,31	800,09	-0,00458	
37,58	1,431	151,07	799,77	-0,00473	
37,60	1,431	151,90	799,77	-0,00480	
37,62	1,431	147,84	799,90	-0,00483	
37,64	1,431	150,03	799,70	-0,00497	
37,66	1,432	151,87	799,72	-0,00519	
37,68	1,432	148,22	799,96	-0,00541	
37,70	1,432	148,18	799,84	-0,00540	
37,72	1,432	151,67	799,65	-0,00525	
37,74	1,432	149,82	799,79	-0,00507	
37,76	1,432	148,87	799,76	-0,00499	
37,78	1,432	152,95	799,60	-0,00498	
37,80	1,432	152,03	799,81	-0,00503	
37,82	1,432	148,57	799,91	-0,00509	
37,84	1,432	151,19	799,68	-0,00503	
37,86	1,432	152,33	799,71	-0,00489	
37,88	1,433	149,13	799,84	-0,00473	
37,90	1,433	151,02	799,66	-0,00463	
37,92	1,433	153,51	799,66	-0,00466	
37,94	1,433	149,70	799,92	-0,00470	
37,96	1,433	148,61	799,83	-0,00479	
37,98	1,433	152,08	799,67	-0,00493	
38,00	1,433	150,45	799,91	-0,00493	
38,02	1,433	149,12	799,93	-0,00470	
38,04	1,433	153,07	799,67	-0,00434	
38,06	1,434	152,21	799,76	-0,00408	
38,08	1,434	148,16	799,86	-0,00406	
38,10	1,434	150,54	799,66	-0,00416	
38,12	1,434	152,09	799,74	-0,00411	
38,14	1,434	148,50	799,94	-0,00402	
38,16	1,434	149,48	799,76	-0,00369	
38,18	1,434	152,80	799,66	-0,00328	
38,20	1,434	150,44	799,86	-0,00310	
38,22	1,434	150,55	799,77	-0,00300	
38,24	1,434	154,46	799,61	-0,00307	
38,26	1,434	151,59	799,84	-0,00320	
38,28	1,435	148,62	799,90	-0,00313	
38,30	1,435	152,40	799,66	-0,00299	
38,32	1,435	152,59	799,73	-0,00295	
38,34	1,435	148,94	799,87	-0,00294	
38,36	1,435	151,42	799,67	-0,00304	
38,38	1,435	154,27	799,66	-0,00330	
38,40	1,435	150,38	799,93	-0,00360	
38,42	1,435	150,67	799,85	-0,00371	
38,44	1,436	155,47	799,62	-0,00363	
38,46	1,436	153,92	799,79	-0,00363	
38,48	1,436	151,08	799,88	-0,00369	
38,50	1,436	154,86	799,64	-0,00376	
38,52	1,436	155,46	799,69	-0,00401	
38,54	1,436	150,68	799,93	-0,00423	
38,56	1,436	151,88	799,79	-0,00436	
38,58	1,436	155,88	799,63	-0,00448	
38,60	1,436	152,49	799,81	-0,00460	
38,62	1,436	151,05	799,76	-0,00463	
38,64	1,436	155,06	799,61	-0,00467	
38,66	1,436	153,72	799,86	-0,00487	
38,68	1,436	150,95	799,99	-0,00495	
38,70	1,436	154,35	799,72	-0,00498	
38,72	1,437	155,99	799,68	-0,00510	
38,74	1,437	152,16	799,85	-0,00520	
38,76	1,437	153,52	799,70	-0,00515	
38,78	1,437	155,99	799,68	-0,00524	
38,80	1,437	152,25	799,91	-0,00549	
38,82	1,437	151,48	799,81	-0,00571	
38,84	1,437	155,38	799,63	-0,00594	
38,86	1,437	153,78	799,81	-0,00612	
38,88	1,437	151,23	799,82	-0,00611	
38,90	1,437	154,83	799,60	-0,00606	
38,92	1,438	153,56	799,84	-0,00605	
38,94	1,438	148,54	800,10	-0,00613	
38,96	1,438	150,44	799,85	-0,00619	
38,98	1,438	153,62	799,70	-0,00630	
39,00	1,438	150,10	799,89	-0,00638	
39,02	1,438	149,89	799,81	-0,00631	
39,04	1,438	153,57	799,64	-0,00609	
39,06	1,438	151,16	799,80	-0,00594	
39,08	1,438	148,06	799,78	-0,00592	
39,10	1,438	150,28	799,60	-0,00601	
39,12	1,438	149,41	799,76	-0,00622	
39,14	1,439	147,03	799,82	-0,00627	
39,16	1,439	150,20	799,64	-0,00616	
39,18	1,439	150,69	799,80	-0,00593	
39,20	1,439	147,17	799,94	-0,00569	
39,22	1,439	148,92	799,71	-0,00532	
39,24	1,439	151,01	799,70	-0,00500	
39,26	1,439	147,48	799,90	-0,00490	
39,28	1,439	148,17	799,74	-0,00481	
39,30	1,440	151,21	799,64	-0,00464	
39,32	1,440	147,98	799,86	-0,00446	
39,34	1,440	146,74	799,83	-0,00430	
39,36	1,440	150,89	799,62	-0,00415	
39,38	1,440	150,18	799,78	-0,00407	
39,40	1,440	147,59	799,88	-0,00404	
39,42	1,440	150,76	799,66	-0,00406	
39,44	1,440	151,68	799,71	-0,00414	
39,46	1,440	148,50	799,90	-0,00420	
39,48	1,440	149,91	799,73	-0,00417	
39,50	1,440	153,08	799,60	-0,00418	
39,52	1,441	149,25	799,86	-0,00418	
39,54	1,441	147,54	799,89	-0,00432	
39,56	1,441	151,74	799,66	-0,00453	
39,58	1,441	150,64	799,75	-0,00471	
39,60	1,441	147,78	799,83	-0,00479	
39,62	1,441	151,08	799,61	-0,00479	
39,64	1,441	152,47	799,71	-0,00497	
39,66	1,441	147,86	800,05	-0,00529	
39,68	1,442	147,78	799,98	-0,00561	
39,70	1,442	152,49	799,67	-0,00579	
39,72	1,442	151,13	799,78	-0,00598	
39,74	1,442	149,08	799,89	-0,00599	
39,76	1,442	153,02	799,68	-0,00588	
39,78	1,442	153,69	799,68	-0,00598	
39,80	1,442	149,17	799,81	-0,00625	
39,82	1,442	150,37	799,64	-0,00659	
39,84	1,442	153,35	799,62	-0,00682	
39,86	1,442	149,87	799,90	-0,00684	
39,88	1,442	148,52	799,85	-0,00670	
39,90	1,442	152,20	799,62	-0,00666	
39,92	1,442	150,76	799,82	-0,00681	
39,94	1,443	147,92	799,97	-0,00692	
39,96	1,443	151,82	799,72	-0,00695	
39,98	1,443	153,37	799,69	-0,00704	
40,00	1,443	148,99	799,89	-0,00704	
40,02	1,443	149,38	799,76	-0,00693	
40,04	1,443	152,99	799,61	-0,00677	
40,06	1,443	150,56	799,83	-0,00674	
40,08	1,443	149,11	799,82	-0,00681	
40,10	1,444	152,94	799,64	-0,00687	
40,12	1,444	151,55	799,85	-0,00686	
40,14	1,444	148,14	799,97	-0,00679	
40,16	1,444	151,10	799,71	-0,00667	
40,18	1,444	152,63	799,70	-0,00654	
40,20	1,444	148,85	799,86	-0,00630	
40,22	1,444	150,12	799,70	-0,00603	
40,24	1,444	153,22	799,65	-0,00602	
40,26	1,444	149,87	799,89	-0,00616	
40,28	1,444	148,61	799,82	-0,00611	
40,30	1,444	152,22	799,63	-0,00589	
40,32	1,444	150,65	799,81	-0,00573	
40,34	1,444	148,09	799,84	-0,00559	
40,36	1,444	151,67	799,65	-0,00550	
40,38	1,445	151,72	799,79	-0,00547	
40,40	1,445	148,38	799,85	-0,00553	
40,42	1,445	150,58	799,63	-0,00549	
40,44	1,445	150,74	799,75	-0,00549	
40,46	1,445	146,51	799,92	-0,00547	
40,48	1,445	147,69	799,71	-0,00536	
40,50	1,445	149,51	799,67	-0,00531	
40,52	1,445	146,10	799,84	-0,00549	
40,54	1,446	146,53	799,70	-0,00567	
40,56	1,446	149,55	799,64	-0,00574	
40,58	1,446	146,41	799,95	-0,00572	
40,60	1,446	145,05	799,96	-0,00562	
40,62	1,446	149,56	799,68	-0,00551	
40,64	1,446	149,15	799,74	-0,00549	
40,66	1,446	145,60	799,83	-0,00556	
40,68	1,446	148,61	799,61	-0,00596	
40,70	1,446	149,79	799,69	-0,00648	
40,72	1,447	145,43	799,98	-0,00688	
40,74	1,446	145,79	799,87	-0,00704	
40,76	1,446	150,08	799,64	-0,00715	
40,78	1,447	148,11	799,75	-0,00734	
40,80	1,447	146,15	799,74	-0,00751	
40,82	1,447	150,41	799,56	-0,00760	
40,84	1,447	149,54	799,82	-0,00770	
40,86	1,447	144,97	800,07	-0,00775	
40,88	1,447	147,02	799,83	-0,00759	
40,90	1,447	150,34	799,66	-0,00742	
40,92	1,447	146,90	799,80	-0,00733	
40,94	1,447	146,66	799,70	-0,00730	
40,96	1,448	150,84	799,61	-0,00734	
40,98	1,448	148,36	799,94	-0,00740	
41,00	1,448	145,20	800,01	-0,00720	
41,02	1,448	148,97	799,72	-0,00686	
41,04	1,448	149,33	799,77	-0,00663	
41,06	1,448	146,29	799,87	-0,00646	
41,08	1,448	149,39	799,66	-0,00633	
41,10	1,448	150,57	799,70	-0,00634	
41,12	1,449	145,86	799,92	-0,00641	
41,14	1,448	146,08	799,77	-0,00630	
41,16	1,448	149,47	799,65	-0,00616	
41,18	1,449	147,27	799,81	-0,00604	
41,20	1,449	147,23	799,72	-0,00584	
41,22	1,449	150,95	799,62	-0,00566	
41,24	1,449	148,43	799,89	-0,00572	
41,26	1,449	146,01	799,90	-0,00583	
41,28	1,449	149,51	799,66	-0,00583	
41,30	1,449	148,83	799,76	-0,00582	
41,32	1,449	145,39	799,84	-0,00569	
41,34	1,449	148,91	799,63	-0,00547	
41,36	1,450	150,45	799,68	-0,00531	
41,38	1,450	146,01	799,86	-0,00537	
41,40	1,450	146,91	799,69	-0,00551	
41,42	1,450	149,92	799,67	-0,00568	
41,44	1,450	146,69	799,96	-0,00572	
41,46	1,450	145,91	799,88	-0,00563	
41,48	1,450	148,73	799,71	-0,00551	
41,50	1,450	146,73	799,88	-0,00540	
41,52	1,450	145,64	799,82	-0,00532	
41,54	1,450	148,91	799,63	-0,00545	
41,56	1,450	147,31	799,79	-0,00572	
41,58	1,450	144,65	799,81	-0,00598	
41,60	1,450	148,24	799,61	-0,00616	
41,62	1,451	148,45	799,74	-0,00619	
41,64	1,451	144,76	799,90	-0,00613	
41,66	1,451	147,09	799,69	-0,00615	
41,68	1,451	150,26	799,65	-0,00634	
41,70	1,451	146,79	799,86	-0,00652	
41,72	1,451	146,52	799,76	-0,00665	
41,74	1,451	150,73	799,63	-0,00667	
41,76	1,451	148,52	799,82	-0,00658	
41,78	1,452	146,26	799,78	-0,00647	
41,80	1,452	150,28	799,59	-0,00647	
41,82	1,452	149,42	799,82	-0,00672	
41,84	1,452	145,43	799,97	-0,00701	
41,86	1,452	147,53	799,73	-0,00712	
41,88	1,452	148,40	799,70	-0,00709	
41,90	1,452	145,49	799,77	-0,00705	
41,92	1,452	147,45	799,60	-0,00701	
41,94	1,452	148,89	799,74	-0,00702	
41,96	1,453	145,18	800,04	-0,00718	
41,98	1,452	144,68	799,88	-0,00732	
42,00	1,452	148,06	799,67	-0,00737	
42,02	1,453	145,48	799,85	-0,00745	
42,04	1,453	144,18	799,82	-0,00743	
42,06	1,453	148,43	799,62	-0,00723	
42,08	1,453	146,82	799,79	-0,00719	
42,10	1,453	142,48	799,88	-0,00723	
42,12	1,453	145,66	799,65	-0,00734	
42,14	1,453	147,18	799,73	-0,00744	
42,16	1,453	143,25	799,92	-0,00749	
42,18	1,454	144,79	799,75	-0,00741	
42,20	1,454	147,77	799,68	-0,00731	
42,22	1,454	144,54	799,83	-0,00723	
42,24	1,454	143,94	799,69	-0,00716	
42,26	1,454	147,53	799,63	-0,00729	
42,28	1,454	145,11	800,02	-0,00748	
42,30	1,454	142,50	800,11	-0,00746	
42,32	1,454	146,24	799,78	-0,00732	
42,34	1,454	147,11	799,73	-0,00725	
42,36	1,455	143,56	799,87	-0,00719	
42,38	1,454	145,69	799,69	-0,00720	
42,40	1,454	148,12	799,64	-0,00725	
42,42	1,455	144,46	799,87	-0,00736	
42,44	1,455	143,68	799,80	-0,00731	
42,46	1,455	147,76	799,62	-0,00720	
42,48	1,455	146,05	799,83	-0,00715	
42,50	1,455	143,48	799,87	-0,00710	
42,52	1,455	147,17	799,65	-0,00707	
42,54	1,455	146,74	799,77	-0,00720	
42,56	1,456	142,95	799,92	-0,00736	
42,58	1,456	146,00	799,68	-0,00743	
42,60	1,456	148,16	799,71	-0,00745	
42,62	1,456	143,46	800,01	-0,00744	
42,64	1,456	143,38	799,91	-0,00736	
42,66	1,456	147,40	799,63	-0,00730	
42,68	1,456	144,96	799,78	-0,00738	
42,70	1,456	141,70	799,89	-0,00746	
42,72	1,456	145,47	799,67	-0,00748	
42,74	1,456	145,66	799,72	-0,00748	
42,76	1,457	141,51	799,91	-0,00745	
42,78	1,456	143,46	799,75	-0,00732	
42,80	1,456	146,84	799,65	-0,00732	
42,82	1,457	143,53	799,85	-0,00749	
42,84	1,457	142,99	799,78	-0,00768	
42,86	1,457	147,99	799,60	-0,00778	
42,88	1,457	147,32	799,81	-0,00786	
42,90	1,457	144,62	799,86	-0,00774	
42,92	1,457	148,06	799,65	-0,00754	
42,94	1,457	147,56	799,79	-0,00750	
42,96	1,458	143,39	799,93	-0,00753	
42,98	1,458	146,05	799,71	-0,00758	
43,00	1,458	148,14	799,70	-0,00766	
43,02	1,458	143,53	799,88	-0,00771	
43,04	1,458	143,67	799,72	-0,00761	
43,06	1,458	146,60	799,65	-0,00751	
43,08	1,458	143,28	799,95	-0,00743	
43,10	1,458	141,49	799,96	-0,00744	
43,12	1,458	145,92	799,67	-0,00755	
43,14	1,459	145,86	799,70	-0,00776	
43,16	1,459	142,33	799,78	-0,00788	
43,18	1,459	145,09	799,59	-0,00775	
43,20	1,459	145,76	799,73	-0,00761	
43,22	1,459	141,60	800,02	-0,00758	
43,24	1,459	142,24	799,85	-0,00755	
43,26	1,459	146,05	799,65	-0,00758	
43,28	1,459	142,74	799,88	-0,00771	
43,30	1,460	140,70	799,91	-0,00778	
43,32	1,460	145,43	799,66	-0,00770	
43,34	1,460	145,00	799,70	-0,00768	
43,36	1,460	140,28	799,83	-0,00769	
43,38	1,460	142,66	799,63	-0,00768	
43,40	1,460	145,29	799,67	-0,00777	
43,42	1,460	141,89	799,99	-0,00802	
43,44	1,460	141,80	799,90	-0,00822	
43,46	1,460	145,84	799,67	-0,00822	
43,48	1,461	144,34	799,80	-0,00814	
43,50	1,461	142,49	799,82	-0,00805	
43,52	1,460	146,84	799,61	-0,00794	
43,54	1,461	146,84	799,75	-0,00802	
43,56	1,461	143,70	799,90	-0,00817	
43,58	1,461	146,47	799,68	-0,00824	
43,60	1,461	148,75	799,68	-0,00826	
43,62	1,461	145,30	799,89	-0,00821	
43,64	1,461	145,74	799,74	-0,00811	
43,66	1,461	148,72	799,63	-0,00809	
43,68	1,461	145,11	799,83	-0,00824	
43,70	1,462	143,32	799,77	-0,00841	
43,72	1,462	146,80	799,60	-0,00852	
43,74	1,462	144,78	799,91	-0,00864	
43,76	1,462	141,54	800,10	-0,00854	
43,78	1,462	145,42	799,81	-0,00837	
43,80	1,462	147,71	799,70	-0,00827	
43,82	1,462	143,61	799,88	-0,00833	
43,84	1,462	144,57	799,76	-0,00853	
43,86	1,462	149,08	799,60	-0,00863	
43,88	1,463	145,99	799,86	-0,00869	
43,90	1,463	142,72	799,91	-0,00856	
43,92	1,462	146,14	799,66	-0,00835	
43,94	1,463	146,29	799,74	-0,00829	
43,96	1,463	142,89	799,91	-0,00834	
43,98	1,463	145,88	799,70	-0,00843	
44,00	1,463	148,72	799,65	-0,00857	
44,02	1,431	144,30	799,87	-0,00866	
44,04	1,095	143,79	799,77	-0,00859	
44,06	0,6854	146,65	799,66	-0,00854	
44,08	0,5064	144,05	799,87	-0,00858	
44,10	0,4818	142,38	799,81	-0,00865	
44,12	0,4891	145,52	799,64	-0,00876	
44,14	0,4916	144,01	799,86	-0,00890	
44,16	0,4909	141,07	799,93	-0,00894	
44,18	0,4906	144,63	799,67	-0,00886	
44,20	0,4909	145,25	799,75	-0,00877	
44,22	0,4911	141,46	799,95	-0,00877	
44,24	0,4910	143,41	799,77	-0,00882	
44,26	0,4910	146,83	799,65	-0,00906	
44,28	0,4912	145,39	799,78	-0,00957	
44,30	0,4916	149,69	799,68	-0,01020	
44,32	0,4925	161,04	799,61	-0,01090	
44,34	0,4942	171,48	799,89	-0,01183	
44,36	0,4965	188,99	799,90	-0,01304	
44,38	0,4994	219,82	799,65	-0,01463	
44,40	0,5033	252,03	799,80	-0,01661	
44,42	0,5080	285,79	799,94	-0,01899	
44,44	0,5131	330,69	799,70	-0,02174	
44,46	0,5193	377,30	799,68	-0,02484	
44,48	0,5265	419,69	799,84	-0,02833	
44,50	0,5343	467,90	799,68	-0,03233	
44,52	0,5428	517,89	799,68	-0,03689	
44,54	0,5523	560,53	800,00	-0,04208	
44,56	0,5625	603,35	799,93	-0,04789	
44,58	0,5734	648,97	799,66	-0,05413	
44,60	0,5855	685,57	799,80	-0,06073	
44,62	0,5982	717,68	799,87	-0,06783	
44,64	0,6114	752,19	799,63	-0,07551	
44,66	0,6256	778,37	799,78	-0,08388	
44,68	0,6407	797,34	800,08	-0,09288	
44,70	0,6564	820,12	799,91	-0,1025	
44,72	0,6728	843,07	799,66	-0,1127	
44,74	0,6903	856,10	799,82	-0,1234	
44,76	0,7086	868,32	799,81	-0,1345	
44,78	0,7275	884,26	799,61	-0,1463	
44,80	0,7474	892,30	799,83	-0,1587	
44,82	0,7680	897,51	799,96	-0,1717	
44,84	0,7891	909,74	799,71	-0,1854	
44,86	0,8114	919,04	799,84	-0,1995	
44,88	0,8345	922,46	800,08	-0,2138	
44,90	0,8582	931,33	799,86	-0,2288	
44,92	0,8828	941,71	799,64	-0,2445	
44,94	0,9084	944,57	799,74	-0,2607	
44,96	0,9345	949,44	799,68	-0,2775	
44,98	0,9615	958,01	799,59	-0,2947	
45,00	0,9894	959,41	799,85	-0,3121	
45,02	1,018	960,55	799,90	-0,3301	
45,04	1,047	968,98	799,65	-0,3485	
45,06	1,077	974,81	799,74	-0,3673	
45,08	1,109	976,51	799,90	-0,3868	
45,10	1,140	983,77	799,70	-0,4068	
45,12	1,173	990,52	799,65	-0,4272	
45,14	1,206	990,81	799,83	-0,4479	
45,16	1,240	995,06	799,73	-0,4690	
45,18	1,275	1002,8	799,58	-0,4906	
45,20	1,311	1003,7	799,79	-0,5125	
45,22	1,348	1005,2	799,83	-0,5351	
45,24	1,385	1012,6	799,64	-0,5580	
45,26	1,423	1015,9	799,82	-0,5808	
45,28	1,463	1017,2	799,99	-0,6036	
45,30	1,502	1024,0	799,77	-0,6265	
45,32	1,542	1029,9	799,63	-0,6494	
45,34	1,582	1028,7	799,79	-0,6720	
45,36	1,622	1030,8	799,73	-0,6947	
45,38	1,662	1035,8	799,60	-0,7175	
45,40	1,702	1034,0	799,83	-0,7402	
45,42	1,742	1032,6	799,87	-0,7629	
45,44	1,782	1037,9	799,64	-0,7855	
45,46	1,822	1039,3	799,70	-0,8081	
45,48	1,862	1037,6	799,75	-0,8306	
45,50	1,901	1041,8	799,60	-0,8533	
45,52	1,942	1043,8	799,81	-0,8760	
45,54	1,982	1041,2	800,00	-0,8986	
45,56	2,021	1043,9	799,77	-0,9212	
45,58	2,061	1048,3	799,70	-0,9437	
45,60	2,102	1046,5	799,87	-0,9660	
45,62	2,141	1048,1	799,73	-0,9885	
45,64	2,181	1051,8	799,69	-1,011	
45,66	2,222	1049,0	799,99	-1,034	
45,68	2,262	1047,9	799,95	-1,056	
45,70	2,301	1053,0	799,69	-1,079	
45,72	2,342	1052,4	799,84	-1,101	
45,74	2,382	1050,2	799,92	-1,124	
45,76	2,421	1054,8	799,67	-1,146	
45,78	2,462	1055,7	799,77	-1,169	
45,80	2,502	1051,7	800,04	-1,191	
45,82	2,542	1053,3	799,86	-1,214	
45,84	2,582	1056,8	799,75	-1,236	
45,86	2,622	1054,0	800,01	-1,258	
45,88	2,662	1053,4	799,97	-1,280	
45,90	2,702	1058,2	799,71	-1,303	
45,92	2,742	1057,6	799,89	-1,325	
45,94	2,782	1054,8	800,01	-1,347	
45,96	2,822	1058,5	799,76	-1,370	
45,98	2,862	1060,3	799,72	-1,392	
46,00	2,902	1056,5	799,85	-1,414	
46,02	2,942	1057,4	799,70	-1,436	
46,04	2,982	1059,7	799,74	-1,459	
46,06	3,022	1056,6	800,00	-1,481	
46,08	3,062	1056,8	799,86	-1,503	
46,10	3,102	1061,0	799,71	-1,526	
46,12	3,142	1059,4	799,94	-1,548	
46,14	3,182	1057,6	799,92	-1,570	
46,16	3,222	1061,2	799,72	-1,593	
46,18	3,262	1060,0	799,90	-1,615	
46,20	3,302	1057,4	799,93	-1,637	
46,22	3,342	1060,4	799,71	-1,659	
46,24	3,382	1060,5	799,84	-1,681	
46,26	3,422	1057,5	799,91	-1,703	
46,28	3,462	1059,3	799,69	-1,726	
46,30	3,502	1059,2	799,82	-1,748	
46,32	3,542	1055,7	799,98	-1,770	
46,34	3,582	1057,1	799,77	-1,792	
46,36	3,622	1059,0	799,72	-1,814	
46,38	3,662	1055,7	799,87	-1,836	
46,40	3,702	1056,5	799,72	-1,858	
46,42	3,742	1059,2	799,70	-1,881	
46,44	3,782	1056,0	799,93	-1,903	
46,46	3,822	1054,7	799,82	-1,925	
46,48	3,862	1057,9	799,70	-1,947	
46,50	3,902	1056,7	799,96	-1,969	
46,52	3,942	1055,4	799,96	-1,989	
46,54	3,982	1058,7	799,70	-2,010	
46,56	4,022	1057,7	799,81	-2,032	
46,58	4,062	1054,5	799,88	-2,054	
46,60	4,102	1057,0	799,66	-2,076	
46,62	4,142	1057,1	799,73	-2,098	
46,64	4,182	1052,9	799,82	-2,121	
46,66	4,222	1053,8	799,65	-2,143	
46,68	4,262	1054,3	799,79	-2,165	
46,70	4,302	1050,8	800,01	-2,187	
46,72	4,342	1051,8	799,80	-2,209	
46,74	4,382	1055,3	799,70	-2,233	
46,76	4,422	1052,6	799,92	-2,257	
46,78	4,462	1052,0	799,83	-2,280	
46,80	4,502	1054,6	799,71	-2,302	
46,82	4,542	1051,6	799,93	-2,324	
46,84	4,582	1049,2	799,86	-2,346	
46,86	4,622	1052,5	799,72	-2,368	
46,88	4,662	1051,6	800,11	-2,391	
46,90	4,702	1048,1	800,26	-2,413	
46,92	4,742	1050,1	799,90	-2,435	
46,94	4,782	1050,7	799,87	-2,457	
46,96	4,822	1046,5	800,13	-2,479	
46,98	4,862	1047,0	799,95	-2,501	
47,00	4,902	1049,1	799,77	-2,523	
47,02	4,942	1045,0	799,96	-2,545	
47,04	4,982	1042,8	799,85	-2,567	
47,06	5,022	1045,2	799,80	-2,589	
47,08	5,062	1042,9	800,11	-2,611	
47,10	5,102	1041,0	800,05	-2,633	
47,12	5,142	1044,8	799,75	-2,655	
47,14	5,182	1043,4	800,07	-2,677	
47,16	5,222	1039,1	800,35	-2,699	
47,18	5,262	1041,8	800,03	-2,721	
47,20	5,302	1043,8	799,84	-2,744	
47,22	5,342	1038,3	800,20	-2,765	
47,24	5,382	1036,4	800,21	-2,787	
47,26	5,422	1040,3	799,85	-2,809	
47,28	5,462	1038,4	800,04	-2,832	
47,30	5,502	1033,8	800,33	-2,854	
47,32	5,542	1035,3	800,04	-2,876	
47,34	5,582	1038,5	799,84	-2,898	
47,36	5,622	1034,7	800,36	-2,920	
47,38	5,662	1032,0	800,58	-2,942	
47,40	5,702	1034,6	800,12	-2,964	
47,42	5,742	1035,4	799,90	-2,986	
47,44	5,782	1030,3	800,40	-3,008	
47,46	5,822	1029,3	800,54	-3,030	
47,48	5,862	1032,8	800,05	-3,051	
47,50	5,902	1032,2	799,95	-3,073	
47,52	5,942	1026,5	800,49	-3,095	
47,54	5,982	1025,8	800,55	-3,117	
47,56	6,022	1028,8	800,01	-3,139	
47,58	6,062	1027,4	800,09	-3,161	
47,60	6,102	1021,2	800,91	-3,182	
47,62	6,142	1021,1	801,12	-3,204	
47,64	6,182	1023,7	800,56	-3,226	
47,66	6,222	1024,6	799,92	-3,248	
47,68	6,262	1021,8	800,30	-3,269	
47,70	6,302	1019,6	800,94	-3,291	
47,72	6,342	1019,7	800,80	-3,313	
47,74	6,382	1019,5	800,13	-3,334	
47,76	6,422	1018,0	799,90	-3,356	
47,78	6,462	1014,2	800,56	-3,378	
47,80	6,502	1014,3	800,84	-3,399	
47,82	6,542	1015,7	800,35	-3,421	
47,84	6,582	1015,6	799,94	-3,443	
47,86	6,622	1010,7	800,81	-3,464	
47,88	6,662	1008,8	801,59	-3,486	
47,90	6,702	1010,3	801,36	-3,507	
47,92	6,742	1010,3	800,60	-3,529	
47,94	6,782	1009,5	799,93	-3,550	
47,96	6,822	1009,0	800,27	-3,572	
47,98	6,862	1007,8	800,89	-3,593	
48,00	6,902	1007,0	800,76	-3,614	
48,02	6,942	1006,9	800,10	-3,636	
48,04	6,982	1005,0	800,07	-3,657	
48,06	7,022	1000,8	800,98	-3,678	
48,08	7,062	1000,8	801,32	-3,699	
48,10	7,102	1001,6	800,81	-3,721	
48,12	7,142	1001,7	800,04	-3,742	
48,14	7,182	1000,1	800,15	-3,763	
48,16	7,222	997,17	801,08	-3,784	
48,18	7,262	996,40	801,33	-3,805	
48,20	7,302	996,21	800,76	-3,826	
48,22	7,342	995,52	800,00	-3,847	
48,24	7,382	993,82	800,24	-3,868	
48,26	7,422	992,30	801,17	-3,889	
48,28	7,462	992,15	801,31	-3,910	
48,30	7,502	991,27	800,69	-3,931	
48,32	7,542	991,05	799,97	-3,952	
48,34	7,582	989,43	800,28	-3,973	
48,36	7,622	987,93	801,04	-3,993	
48,38	7,662	987,31	800,98	-4,014	
48,40	7,702	987,23	800,29	-4,035	
48,42	7,742	986,99	799,98	-4,056	
48,44	7,782	982,73	800,79	-4,076	
48,46	7,822	981,34	801,31	-4,097	
48,48	7,862	982,39	800,94	-4,117	
48,50	7,902	982,39	800,18	-4,138	
48,52	7,942	980,96	799,99	-4,158	
48,54	7,982	978,27	800,88	-4,178	
48,56	8,022	977,22	801,34	-4,199	
48,58	8,062	976,85	800,88	-4,219	
48,60	8,102	976,77	800,09	-4,239	
48,62	8,142	974,61	800,14	-4,259	
48,64	8,182	971,90	801,10	-4,279	
48,66	8,222	971,73	801,40	-4,299	
48,68	8,262	971,19	800,87	-4,319	
48,70	8,302	970,45	800,07	-4,339	
48,72	8,342	968,72	800,22	-4,358	
48,74	8,382	966,54	801,45	-4,378	
48,76	8,422	965,00	801,96	-4,397	
48,78	8,462	963,84	801,46	-4,417	
48,80	8,502	962,89	800,60	-4,436	
48,82	8,542	963,04	799,97	-4,456	
48,84	8,582	962,80	800,71	-4,475	
48,86	8,622	959,58	801,63	-4,494	
48,88	8,662	957,01	801,54	-4,514	
48,90	8,702	955,81	800,80	-4,533	
48,92	8,742	955,06	800,00	-4,552	
48,94	8,782	954,42	800,30	-4,571	
48,96	8,822	952,16	801,40	-4,589	
48,98	8,862	950,26	801,64	-4,608	
49,00	8,902	949,62	801,03	-4,627	
49,02	8,942	948,89	800,19	-4,646	
49,04	8,982	948,61	800,03	-4,664	
49,06	9,022	947,39	800,95	-4,682	
49,08	9,062	944,88	801,43	-4,701	
49,10	9,102	943,33	801,00	-4,719	
49,12	9,142	943,36	800,18	-4,737	
49,14	9,182	942,04	800,22	-4,755	
49,16	9,222	939,20	801,42	-4,773	
49,18	9,262	937,66	801,96	-4,791	
49,20	9,302	936,70	801,50	-4,809	
49,22	9,342	935,25	800,65	-4,826	
49,24	9,382	935,02	799,96	-4,844	
49,26	9,422	934,92	800,53	-4,861	
49,28	9,462	931,19	801,43	-4,879	
49,30	9,502	927,55	801,39	-4,896	
49,32	9,542	926,28	800,68	-4,913	
49,34	9,582	926,50	799,96	-4,930	
49,36	9,622	925,19	800,44	-4,947	
49,38	9,662	922,94	801,37	-4,964	
49,40	9,702	920,76	801,42	-4,980	
49,42	9,742	918,61	800,79	-4,997	
49,44	9,782	917,45	800,04	-5,013	
49,46	9,822	916,60	800,16	-5,028	
49,48	9,862	913,37	801,01	-5,039	
49,50	9,902	903,99	801,17	-5,045	
49,52	9,939	885,58	800,56	-5,048	
49,54	9,966	858,40	799,95	-5,049	
49,56	9,981	820,36	800,69	-5,050	
49,58	9,987	777,66	801,68	-5,051	
49,60	9,990	736,67	801,68	-5,051	
49,62	9,991	700,02	800,99	-5,052	
49,64	9,992	669,19	800,15	-5,052	
49,66	9,992	644,61	800,09	-5,052	
49,68	9,992	622,22	801,22	-5,053	
49,70	9,993	600,56	801,76	-5,053	
49,72	9,993	581,35	801,31	-5,053	
49,74	9,992	564,74	800,43	-5,053	
49,76	9,992	550,59	799,98	-5,053	
49,78	9,993	537,08	800,86	-5,054	
49,80	9,993	524,25	801,56	-5,054	
49,82	9,993	512,53	801,27	-5,054	
49,84	9,992	502,02	800,47	-5,054	
49,86	9,992	492,86	799,90	-5,055	
49,88	9,992	483,79	800,61	-5,055	
49,90	9,993	474,55	801,46	-5,055	
49,92	9,993	465,39	801,35	-5,055	
49,94	9,992	457,37	800,62	-5,055	
49,96	9,992	451,16	799,92	-5,055	
49,98	9,992	444,54	800,55	-5,056	
50,00	9,993	437,00	801,67	-5,056	
50,02	9,993	429,91	801,77	-5,056	
50,04	9,992	423,84	801,05	-5,056	
50,06	9,992	420,75	800,17	-5,056	
50,08	9,992	420,00	800,11	-5,056	
50,10	9,993	419,00	801,21	-5,056	
50,12	9,993	418,79	801,75	-5,057	
50,14	9,993	418,96	801,27	-5,057	
50,16	9,992	419,27	800,37	-5,057	
50,18	9,992	419,81	800,11	-5,057	
50,20	9,993	419,03	801,25	-5,057	
50,22	9,993	418,78	801,99	-5,057	
50,24	9,993	419,03	801,65	-5,057	
50,26	9,992	419,23	800,80	-5,057	
50,28	9,992	419,99	800,01	-5,057	
50,30	9,992	419,60	800,38	-5,057	
50,32	9,993	418,84	801,30	-5,057	
50,34	9,993	418,87	801,37	-5,058	
50,36	9,993	419,07	800,70	-5,058	
50,38	9,992	419,92	799,98	-5,058	
50,40	9,992	419,55	800,51	-5,058	
50,42	9,993	418,81	801,59	-5,058	
50,44	9,993	418,84	801,68	-5,058	
50,46	9,992	419,13	800,99	-5,058	
50,48	9,992	419,70	800,14	-5,058	
50,50	9,992	419,97	800,09	-5,058	
50,52	9,993	416,85	801,18	-5,058	
50,54	9,993	385,61	801,68	-5,058	
50,56	9,993	342,74	801,24	-5,058	
50,58	9,992	321,30	800,42	-5,059	
50,60	9,992	317,05	799,97	-5,059	
50,62	9,992	315,61	800,84	-5,059	
50,64	9,993	312,81	801,63	-5,059	
50,66	9,993	309,98	801,42	-5,059	
50,68	9,992	307,50	800,66	-5,059	
50,70	9,992	305,56	799,95	-5,059	
50,72	9,992	303,74	800,54	-5,059	
50,74	9,993	300,25	801,61	-5,059	
50,76	9,993	296,73	801,67	-5,059	
50,78	9,993	294,07	800,95	-5,059	
50,80	9,992	292,44	800,11	-5,059	
50,82	9,992	290,70	800,20	-5,059	
50,84	9,993	287,95	801,23	-5,060	
50,86	9,993	285,71	801,54	-5,060	
50,88	9,993	283,99	800,91	-5,060	
50,90	9,992	283,06	800,05	-5,060	
50,92	9,992	280,81	800,29	-5,060	
50,94	9,993	276,81	801,55	-5,060	
50,96	9,993	274,47	801,99	-5,060	
50,98	9,993	272,37	801,45	-5,060	
51,00	9,992	269,85	800,58	-5,060	
51,02	9,992	269,46	799,93	-5,060	
51,04	9,992	270,13	800,53	-5,060	
51,06	9,993	267,80	801,39	-5,060	
51,08	9,993	265,46	801,32	-5,060	
51,10	9,993	263,68	800,60	-5,060	
51,12	9,992	262,94	799,93	-5,060	
51,14	9,992	261,14	800,69	-5,060	
51,16	9,993	258,91	801,83	-5,061	
51,18	9,993	256,95	801,85	-5,061	
51,20	9,992	254,90	801,07	-5,061	
51,22	9,992	252,39	800,11	-5,061	
51,24	9,992	252,13	799,20	-5,061	
51,26	9,992	256,64	798,34	-5,061	
51,28	9,992	260,79	797,49	-5,061	
51,30	9,992	263,82	796,63	-5,061	
51,32	9,992	266,95	795,78	-5,061	
51,34	9,992	270,96	794,96	-5,060	
51,36	9,992	275,00	794,15	-5,060	
51,38	9,992	278,93	793,36	-5,060	
51,40	9,992	283,01	792,55	-5,060	
51,42	9,992	286,79	791,72	-5,060	
51,44	9,992	290,29	790,91	-5,060	
51,46	9,992	293,69	790,12	-5,060	
51,48	9,992	297,04	789,32	-5,060	
51,50	9,992	300,37	788,54	-5,060	
51,52	9,992	303,76	787,76	-5,060	
51,54	9,992	307,20	786,98	-5,060	
51,56	9,992	311,22	786,14	-5,060	
51,58	9,992	315,29	785,27	-5,060	
51,60	9,992	318,92	784,41	-5,060	
51,62	9,992	321,62	783,58	-5,060	
51,64	9,992	324,26	782,78	-5,060	
51,66	9,992	327,31	781,98	-5,060	
51,68	9,992	330,60	781,16	-5,061	
51,70	9,992	333,99	780,35	-5,061	
51,72	9,992	337,05	779,56	-5,061	
51,74	9,992	339,65	778,79	-5,060	
51,76	9,992	342,53	778,05	-5,060	
51,78	9,992	345,73	777,30	-5,060	
51,80	9,992	348,42	776,56	-5,061	
51,82	9,992	351,17	775,81	-5,061	
51,84	9,992	354,28	775,06	-5,061	
51,86	9,992	357,21	774,30	-5,060	
51,88	9,992	359,72	773,53	-5,060	
51,90	9,992	361,96	772,75	-5,061	
51,92	9,992	364,52	771,99	-5,061	
51,94	9,992	367,24	771,25	-5,061	
51,96	9,992	369,77	770,50	-5,061	
51,98	9,992	372,10	769,74	-5,061	
52,00	9,992	374,31	768,99	-5,061	
52,02	9,992	376,49	768,24	-5,061	
52,04	9,992	378,59	767,49	-5,061	
52,06	9,992	380,84	766,73	-5,061	
52,08	9,992	383,12	765,96	-5,061	
52,10	9,992	385,36	765,19	-5,061	
52,12	9,992	387,66	764,43	-5,061	
52,14	9,992	389,95	763,71	-5,061	
52,16	9,992	392,14	763,02	-5,061	
52,18	9,992	394,33	762,35	-5,061	
52,20	9,992	396,01	761,68	-5,061	
52,22	9,992	397,85	760,98	-5,061	
52,24	9,992	400,05	760,27	-5,061	
52,26	9,992	401,93	759,56	-5,061	
52,28	9,992	403,61	758,86	-5,061	
52,30	9,992	405,16	758,15	-5,061	
52,32	9,992	406,86	757,45	-5,062	
52,34	9,992	408,48	756,78	-5,062	
52,36	9,992	409,65	756,13	-5,062	
52,38	9,992	411,21	755,48	-5,062	
52,40	9,992	412,31	754,83	-5,062	
52,42	9,992	413,64	754,17	-5,062	
52,44	9,992	415,07	753,51	-5,062	
52,46	9,992	415,82	752,85	-5,062	
52,48	9,992	416,99	752,19	-5,062	
52,50	9,992	418,48	751,51	-5,063	
52,52	9,992	419,22	750,83	-5,063	
52,54	9,992	419,38	750,17	-5,063	
52,56	9,992	420,29	749,54	-5,063	
52,58	9,992	421,63	748,94	-5,063	
52,60	9,992	422,31	748,34	-5,063	
52,62	9,992	422,47	747,75	-5,063	
52,64	9,992	422,46	747,16	-5,064	
52,66	9,992	422,48	746,57	-5,064	
52,68	9,992	422,54	745,98	-5,064	
52,70	9,992	422,51	745,39	-5,064	
52,72	9,992	422,56	744,81	-5,064	
52,74	9,992	422,68	744,22	-5,065	
52,76	9,992	422,68	743,64	-5,065	
52,78	9,992	422,65	743,07	-5,065	
52,80	9,992	422,65	742,50	-5,065	
52,82	9,992	421,65	741,95	-5,065	
52,84	9,992	420,20	741,43	-5,065	
52,86	9,992	419,53	740,94	-5,066	
52,88	9,992	419,33	740,45	-5,066	
52,90	9,992	418,25	739,97	-5,066	
52,92	9,992	416,77	739,48	-5,067	
52,94	9,992	415,70	738,99	-5,067	
52,96	9,992	414,13	738,50	-5,067	
52,98	9,992	412,53	738,02	-5,067	
53,00	9,992	410,71	737,54	-5,068	
53,02	9,992	409,16	737,07	-5,068	
53,04	9,992	407,34	736,60	-5,069	
53,06	9,992	405,14	736,14	-5,069	
53,08	9,992	402,94	735,68	-5,069	
53,10	9,992	400,78	735,23	-5,070	
53,12	9,992	398,54	734,77	-5,070	
53,14	9,992	396,60	734,31	-5,070	
53,16	9,992	394,72	733,83	-5,071	
53,18	9,992	392,13	733,38	-5,071	
53,20	9,992	389,57	732,97	-5,072	
53,22	9,992	387,24	732,59	-5,072	
53,24	9,992	384,98	732,22	-5,072	
53,26	9,992	382,22	731,85	-5,073	
53,28	9,992	379,58	731,47	-5,073	
53,30	9,992	376,83	731,07	-5,074	
53,32	9,992	374,10	730,65	-5,074	
53,34	9,992	371,58	730,22	-5,074	
53,36	9,992	368,64	729,81	-5,075	
53,38	9,992	365,43	729,42	-5,075	
53,40	9,992	362,79	729,05	-5,076	
53,42	9,992	360,10	728,69	-5,076	
53,44	9,992	356,99	728,33	-5,077	
53,46	9,992	353,96	727,96	-5,077	
53,48	9,992	351,45	727,58	-5,077	
53,50	9,992	349,32	727,21	-5,078	
53,52	9,992	346,79	726,84	-5,078	
53,54	9,992	343,98	726,47	-5,079	
53,56	9,992	341,45	726,10	-5,079	
53,58	9,992	339,21	725,75	-5,079	
53,60	9,992	336,68	725,39	-5,080	
53,62	9,992	333,97	725,02	-5,080	
53,64	9,992	332,01	724,66	-5,080	
53,66	9,992	330,09	724,31	-5,081	
53,68	9,992	327,91	723,96	-5,081	
53,70	9,992	325,73	723,61	-5,082	
53,72	9,992	323,53	723,27	-5,082	
53,74	9,992	321,28	722,94	-5,082	
53,76	9,992	319,06	722,58	-5,083	
53,78	9,992	316,40	722,23	-5,083	
53,80	9,992	313,55	721,89	-5,084	
53,82	9,992	310,94	721,54	-5,084	
53,84	9,992	308,69	721,18	-5,084	
53,86	9,992	306,61	720,83	-5,084	
53,88	9,992	305,36	720,48	-5,085	
53,90	9,992	304,01	720,14	-5,085	
53,92	9,992	302,48	719,80	-5,086	
53,94	9,992	300,71	719,46	-5,086	
53,96	9,992	299,07	719,12	-5,086	
53,98	9,992	298,05	718,76	-5,086	
54,00	9,992	296,54	718,39	-5,087	
54,02	9,992	295,39	718,02	-5,087	
54,04	9,992	294,53	717,67	-5,087	
54,06	9,992	293,06	717,31	-5,088	
54,08	9,992	292,03	716,93	-5,088	
54,10	9,992	291,36	716,58	-5,088	
54,12	9,992	289,92	716,25	-5,088	
54,14	9,992	288,77	715,90	-5,089	
54,16	9,992	288,36	715,56	-5,089	
54,18	9,992	287,31	715,22	-5,089	
54,20	9,992	285,77	714,88	-5,089	
54,22	9,992	284,99	714,56	-5,090	
54,24	9,992	284,90	714,24	-5,090	
54,26	9,992	284,62	713,91	-5,090	
54,28	9,992	283,23	713,57	-5,091	
54,30	9,992	282,13	713,23	-5,091	
54,32	9,992	281,80	712,89	-5,091	
54,34	9,992	281,81	712,54	-5,091	
54,36	9,992	281,73	712,17	-5,092	
54,38	9,992	281,66	711,80	-5,092	
54,40	9,992	281,67	711,44	-5,092	
54,42	9,992	280,67	711,10	-5,092	
54,44	9,992	279,18	710,74	-5,093	
54,46	9,992	278,50	710,37	-5,093	
54,48	9,992	278,39	709,99	-5,093	
54,50	9,992	278,35	709,61	-5,093	
54,52	9,992	278,32	709,21	-5,094	
54,54	9,992	278,36	708,84	-5,094	
54,56	9,992	278,35	708,45	-5,094	
54,58	9,992	278,29	708,04	-5,094	
54,60	9,992	278,23	707,63	-5,094	
54,62	9,992	278,25	707,24	-5,095	
54,64	9,992	278,28	706,86	-5,095	
54,66	9,992	278,26	706,48	-5,095	
54,68	9,992	278,27	706,09	-5,095	
54,70	9,992	278,31	705,71	-5,095	
54,72	9,992	278,30	705,34	-5,096	
54,74	9,992	278,61	704,98	-5,096	
54,76	9,992	280,07	704,62	-5,096	
54,78	9,992	281,24	704,27	-5,096	
54,80	9,992	281,60	703,90	-5,097	
54,82	9,992	281,51	703,53	-5,097	
54,84	9,992	281,45	703,14	-5,097	
54,86	9,992	281,56	702,76	-5,097	
54,88	9,992	281,76	702,39	-5,097	